timestamps,TP9,AF7,AF8,TP10,Right AUX
1606128427.860,0.000,0.000,0.000,0.000,0.000
1606128427.864,-0.977,-0.488,-0.488,-1.465,0.000
1606128427.868,-0.488,-1.465,-0.977,0.488,0.000
1606128427.872,9.766,2.930,2.441,14.160,0.000
1606128427.876,-41.016,-15.625,-13.672,-56.641,0.000
1606128427.880,50.781,-19.531,-22.949,155.762,0.000
1606128427.883,181.641,2.930,-7.812,368.652,0.000
1606128427.887,20.508,-20.020,-21.973,13.672,0.000
1606128427.891,-201.172,-50.293,-48.340,-385.742,0.000
1606128427.895,-197.754,-45.898,-41.016,-322.266,0.000
1606128427.899,45.898,-15.137,-18.555,145.508,0.000
1606128427.903,187.012,0.977,-15.625,370.117,0.000
1606128427.907,45.898,-18.555,-26.855,67.871,0.000
1606128427.911,-190.430,-45.898,-38.086,-356.445,0.000
1606128427.915,-218.262,-48.828,-31.738,-356.445,0.000
1606128427.919,8.301,-25.879,-17.578,95.215,0.000
1606128427.923,163.574,-5.859,-15.137,355.957,0.000
1606128427.926,53.223,-16.113,-27.832,106.934,0.000
1606128427.930,-181.152,-45.410,-41.992,-330.078,0.000
1606128427.934,-233.887,-51.758,-39.062,-388.184,0.000
1606128427.938,-23.438,-25.391,-20.020,32.715,0.000
1606128427.942,164.062,-5.859,-10.254,350.586,0.000
1606128427.946,91.309,-20.996,-18.066,170.898,0.000
1606128427.950,-152.344,-49.316,-25.391,-291.504,0.000
1606128427.954,-232.422,-54.199,-29.785,-411.621,0.000
1606128427.958,-50.781,-38.574,-30.273,-25.391,0.000
1606128427.962,142.578,-14.160,-16.602,333.008,0.000
1606128427.965,108.887,-9.277,-14.648,223.145,0.000
1606128427.969,-125.000,-46.875,-38.574,-236.328,0.000
1606128427.973,-241.211,-51.270,-44.922,-416.504,0.000
1606128427.977,-82.520,8.789,-19.043,-77.148,0.000
1606128427.981,137.695,29.785,-14.160,315.918,0.000
1606128427.985,135.254,-9.766,-17.578,260.742,0.000
1606128427.989,-106.934,-51.270,-30.762,-208.008,0.000
1606128427.993,-248.047,-67.871,-44.922,-436.035,0.000
1606128427.997,-111.816,-55.664,-33.203,-142.578,0.000
1606128428.001,113.770,-29.297,-19.043,280.273,0.000
1606128428.005,140.137,-23.926,-14.648,295.898,0.000
1606128428.008,-85.938,-49.316,-29.785,-149.414,0.000
1606128428.012,-246.094,-59.570,-40.527,-434.570,0.000
1606128428.016,-137.695,-44.922,-27.832,-196.777,0.000
1606128428.020,103.516,-28.320,-5.371,254.883,0.000
1606128428.024,153.320,-20.996,-8.301,317.383,0.000
1606128428.028,-61.035,-38.574,-35.156,-102.539,0.000
1606128428.032,-242.188,-62.012,-45.410,-425.293,0.000
1606128428.036,-162.109,-54.199,-34.668,-241.211,0.000
1606128428.040,83.984,-19.531,-17.090,224.121,0.000
1606128428.044,169.922,-12.207,-15.137,341.309,0.000
1606128428.048,-12.207,-37.109,-24.902,-38.086,0.000
1606128428.051,-220.215,-60.059,-36.133,-399.414,0.000
1606128428.055,-188.965,-56.641,-37.598,-286.621,0.000
1606128428.059,54.199,-29.785,-15.137,184.082,0.000
1606128428.063,170.898,-13.184,-6.348,363.770,0.000
1606128428.067,11.719,-33.691,-27.832,30.273,0.000
1606128428.071,-205.078,-57.129,-43.945,-359.863,0.000
1606128428.075,-214.355,-51.270,-39.551,-321.289,0.000
1606128428.079,17.578,-32.227,-16.602,137.695,0.000
1606128428.083,164.062,-21.973,-8.301,370.117,0.000
1606128428.087,36.133,-35.156,-19.531,79.590,0.000
1606128428.090,-196.289,-60.547,-34.180,-341.797,0.000
1606128428.094,-236.328,-59.570,-44.434,-361.328,0.000
1606128428.098,-11.719,-29.297,-32.715,82.520,0.000
1606128428.102,162.598,-2.930,-9.766,367.188,0.000
1606128428.106,63.477,-18.066,-14.160,132.812,0.000
1606128428.110,-177.246,-55.664,-45.898,-321.777,0.000
1606128428.114,-233.887,-58.594,-58.594,-396.973,0.000
1606128428.118,-22.949,-28.320,-36.621,22.461,0.000
1606128428.122,169.434,-3.418,-16.602,352.051,0.000
1606128428.126,104.980,-3.906,-18.555,187.012,0.000
1606128428.130,-134.766,-35.156,-31.738,-273.438,0.000
1606128428.133,-221.191,-51.758,-41.504,-405.273,0.000
1606128428.137,-40.039,-24.902,-28.809,-27.832,0.000
1606128428.141,161.133,-2.930,-6.836,330.566,0.000
1606128428.145,124.023,-10.742,-16.602,219.238,0.000
1606128428.149,-118.164,-35.156,-43.945,-246.582,0.000
1606128428.153,-239.746,-51.270,-51.758,-437.988,0.000
1606128428.157,-80.566,-38.086,-35.645,-93.262,0.000
1606128428.161,129.883,-12.695,-16.602,286.621,0.000
1606128428.165,122.559,-12.207,-18.066,228.516,0.000
1606128428.169,-94.238,-27.832,-32.227,-198.730,0.000
1606128428.173,-240.723,-41.504,-45.410,-436.523,0.000
1606128428.176,-107.422,-22.949,-36.133,-155.273,0.000
1606128428.180,137.207,4.883,-13.672,277.344,0.000
1606128428.184,155.762,-8.789,-20.508,301.270,0.000
1606128428.188,-73.730,-41.504,-46.387,-138.672,0.000
1606128428.192,-234.375,-57.617,-50.781,-421.387,0.000
1606128428.196,-132.324,-44.922,-36.621,-186.035,0.000
1606128428.200,107.422,-20.508,-18.555,268.066,0.000
1606128428.204,161.621,-12.207,-17.578,335.449,0.000
1606128428.208,-46.387,-34.180,-35.645,-88.867,0.000
1606128428.212,-238.281,-57.129,-49.316,-418.945,0.000
1606128428.215,-178.711,-48.828,-45.410,-257.324,0.000
1606128428.219,69.336,-14.160,-21.973,206.543,0.000
1606128428.223,175.293,9.766,2.930,350.098,0.000
1606128428.227,-3.418,-8.301,-28.809,-29.297,0.000
1606128428.231,-212.402,-47.363,-63.477,-407.715,0.000
1606128428.235,-175.293,-53.223,-41.992,-301.270,0.000
1606128428.239,64.453,-25.879,-17.578,172.363,0.000
1606128428.243,179.688,-11.719,-13.672,359.863,0.000
1606128428.247,28.809,-26.855,-27.832,31.250,0.000
1606128428.251,-190.918,-43.945,-36.133,-369.629,0.000
1606128428.255,-190.918,-34.668,-30.762,-332.031,0.000
1606128428.258,47.852,-5.371,-13.672,136.719,0.000
1606128428.262,194.336,2.441,-2.930,375.977,0.000
1606128428.266,60.547,-24.902,-22.461,83.008,0.000
1606128428.270,-179.199,-55.664,-43.945,-352.539,0.000
1606128428.274,-216.309,-50.293,-44.434,-373.047,0.000
1606128428.278,-2.441,-18.555,-32.715,68.359,0.000
1606128428.282,161.621,-3.906,-17.578,357.910,0.000
1606128428.286,70.801,-8.301,-23.926,135.742,0.000
1606128428.290,-172.363,-30.273,-42.480,-323.242,0.000
1606128428.294,-242.676,-47.363,-44.434,-409.668,0.000
1606128428.298,-29.297,-26.367,-21.973,8.789,0.000
1606128428.301,174.805,-2.930,0.977,355.957,0.000
1606128428.305,98.633,-8.301,-19.043,188.965,0.000
1606128428.309,-157.715,-40.527,-44.922,-281.250,0.000
1606128428.313,-238.770,-46.875,-39.062,-414.551,0.000
1606128428.317,-50.781,-27.832,-24.414,-41.504,0.000
1606128428.321,154.297,-6.836,-1.953,334.473,0.000
1606128428.325,123.047,-5.859,-15.625,240.234,0.000
1606128428.329,-109.375,-37.598,-49.316,-225.098,0.000
1606128428.333,-224.609,-50.781,-47.852,-424.316,0.000
1606128428.337,-80.566,-34.180,-23.926,-102.051,0.000
1606128428.340,140.625,-10.742,-5.859,305.664,0.000
1606128428.344,149.414,-7.812,-18.066,267.578,0.000
1606128428.348,-88.379,-35.156,-30.762,-202.148,0.000
1606128428.352,-236.328,-48.828,-34.180,-449.707,0.000
1606128428.356,-113.281,-36.621,-33.203,-169.434,0.000
1606128428.360,122.070,-19.043,-20.020,266.113,0.000
1606128428.364,159.668,-2.930,-17.578,299.316,0.000
1606128428.368,-67.871,-12.695,-29.785,-131.348,0.000
1606128428.372,-231.934,-41.992,-30.762,-414.551,0.000
1606128428.376,-134.766,-41.504,-30.273,-197.266,0.000
1606128428.380,106.934,-11.230,-21.484,250.000,0.000
1606128428.383,175.781,-6.348,-6.348,335.449,0.000
1606128428.387,-27.832,-30.762,-12.207,-68.359,0.000
1606128428.391,-235.840,-50.781,-33.203,-407.715,0.000
1606128428.395,-184.082,-41.504,-29.297,-250.000,0.000
1606128428.399,57.617,-24.414,-10.254,214.844,0.000
1606128428.403,149.902,-10.254,-10.742,351.074,0.000
1606128428.407,-20.508,-13.672,-21.484,-14.648,0.000
1606128428.411,-227.051,-48.828,-34.668,-380.371,0.000
1606128428.415,-195.312,-52.246,-34.668,-285.156,0.000
1606128428.419,52.246,-31.738,-15.625,182.617,0.000
1606128428.423,179.199,-9.277,-3.418,382.812,0.000
1606128428.426,30.762,-14.648,-18.555,56.152,0.000
1606128428.430,-188.477,-41.504,-41.016,-356.445,0.000
1606128428.434,-195.801,-49.316,-35.645,-331.055,0.000
1606128428.438,38.086,-29.785,-18.066,124.512,0.000
1606128428.442,188.965,-11.230,-9.766,368.652,0.000
1606128428.446,64.453,-13.184,-18.555,97.656,0.000
1606128428.450,-176.270,-44.922,-30.762,-342.285,0.000
1606128428.454,-221.191,-55.176,-33.691,-382.324,0.000
1606128428.458,1.465,-25.391,-30.762,57.617,0.000
1606128428.462,179.199,-9.277,-23.438,357.422,0.000
1606128428.465,86.914,-20.508,-32.227,146.973,0.000
1606128428.469,-158.691,-48.828,-48.828,-306.152,0.000
1606128428.473,-229.980,-56.152,-51.758,-396.973,0.000
1606128428.477,-33.203,-32.227,-27.832,8.789,0.000
1606128428.481,161.133,-9.766,-8.301,352.051,0.000
1606128428.485,110.840,-21.484,-24.902,204.102,0.000
1606128428.489,-130.371,-55.664,-47.852,-270.020,0.000
1606128428.493,-229.492,-56.641,-43.457,-421.875,0.000
1606128428.497,-54.688,-32.227,-21.484,-51.270,0.000
1606128428.501,151.855,-13.184,-11.230,331.543,0.000
1606128428.505,120.117,-4.883,-17.090,243.652,0.000
1606128428.508,-112.793,-21.973,-28.809,-218.262,0.000
1606128428.512,-237.793,-46.387,-39.062,-424.316,0.000
1606128428.516,-100.586,-35.156,-28.809,-110.840,0.000
1606128428.520,133.301,-5.859,-2.441,308.594,0.000
1606128428.524,141.602,-3.906,0.977,280.762,0.000
1606128428.528,-99.609,-36.621,-27.832,-177.246,0.000
1606128428.532,-245.605,-62.012,-38.574,-434.082,0.000
1606128428.536,-121.582,-41.992,-22.461,-172.363,0.000
1606128428.540,113.770,-7.812,-12.695,275.391,0.000
1606128428.544,157.227,-5.859,-11.230,318.848,0.000
1606128428.548,-58.105,-27.832,-18.066,-122.070,0.000
1606128428.551,-237.793,-49.316,-32.227,-437.500,0.000
1606128428.555,-154.297,-45.410,-27.832,-225.586,0.000
1606128428.559,85.938,-21.484,-8.301,244.141,0.000
1606128428.563,157.227,-13.672,-11.230,329.102,0.000
1606128428.567,-41.016,-30.273,-25.879,-79.590,0.000
1606128428.571,-231.934,-50.781,-33.691,-407.227,0.000
1606128428.575,-158.203,-41.504,-24.902,-257.812,0.000
1606128428.579,67.383,-11.230,-17.578,190.430,0.000
1606128428.583,147.461,0.488,-15.625,336.426,0.000
1606128428.587,-16.602,-19.531,-26.855,-17.578,0.000
1606128428.590,-234.863,-55.664,-42.969,-404.297,0.000
1606128428.594,-212.891,-58.105,-38.086,-326.172,0.000
1606128428.598,34.668,-31.738,-20.508,149.414,0.000
1606128428.602,166.016,-18.066,-16.113,358.887,0.000
1606128428.606,25.391,-30.762,-26.855,46.387,0.000
1606128428.610,-206.055,-58.105,-36.621,-362.793,0.000
1606128428.614,-221.680,-62.012,-34.180,-345.215,0.000
1606128428.618,17.578,-31.738,-16.602,112.305,0.000
1606128428.622,169.922,-10.742,-7.324,375.488,0.000
1606128428.626,47.363,-21.484,-21.484,112.793,0.000
1606128428.630,-185.547,-41.504,-39.551,-331.055,0.000
1606128428.633,-224.609,-43.945,-38.574,-377.441,0.000
1606128428.637,-2.441,-19.043,-14.160,60.547,0.000
1606128428.641,171.387,-3.418,-4.883,372.559,0.000
1606128428.645,94.238,-11.230,-21.484,161.133,0.000
1606128428.649,-138.184,-30.273,-39.062,-306.152,0.000
1606128428.653,-222.168,-48.828,-38.574,-411.133,0.000
1606128428.657,-13.184,-24.902,-18.066,-5.371,0.000
1606128428.661,195.312,0.000,-8.301,353.027,0.000
1606128428.665,122.559,-10.254,-23.438,214.844,0.000
1606128428.669,-125.000,-37.109,-37.109,-249.512,0.000
1606128428.673,-218.750,-41.504,-41.504,-402.344,0.000
1606128428.676,-39.551,-14.648,-22.949,-42.480,0.000
1606128428.680,171.387,4.395,-3.906,341.797,0.000
1606128428.684,133.301,5.371,-16.113,263.672,0.000
1606128428.688,-114.258,-28.320,-34.180,-208.984,0.000
1606128428.692,-237.793,-60.547,-35.156,-431.152,0.000
1606128428.696,-99.609,-40.039,-12.695,-121.582,0.000
1606128428.700,122.070,-14.160,-0.488,298.340,0.000
1606128428.704,138.672,-11.719,-9.766,279.785,0.000
1606128428.708,-92.285,-37.598,-33.203,-178.223,0.000
1606128428.712,-252.930,-55.176,-40.527,-435.547,0.000
1606128428.715,-143.555,-42.969,-21.973,-183.594,0.000
1606128428.719,94.238,-20.996,-17.090,247.070,0.000
1606128428.723,143.066,-3.418,-22.461,296.875,0.000
1606128428.727,-61.523,-15.137,-34.180,-123.047,0.000
1606128428.731,-234.863,-52.246,-48.828,-431.152,0.000
1606128428.735,-157.227,-49.805,-34.180,-234.375,0.000
1606128428.739,85.938,-22.949,-17.578,233.398,0.000
1606128428.743,166.992,-13.184,-8.301,347.168,0.000
1606128428.747,-21.973,-26.367,-19.531,-45.410,0.000
1606128428.751,-221.191,-55.664,-35.645,-399.414,0.000
1606128428.755,-175.293,-46.875,-20.996,-264.648,0.000
1606128428.758,74.219,-20.508,0.488,205.566,0.000
1606128428.762,177.734,-19.043,-2.441,359.375,0.000
1606128428.766,1.465,-37.109,-23.438,3.418,0.000
1606128428.770,-213.867,-53.223,-46.875,-383.789,0.000
1606128428.774,-196.777,-50.293,-41.992,-315.430,0.000
1606128428.778,49.805,-25.879,-18.555,153.809,0.000
1606128428.782,186.035,-8.301,-13.672,374.512,0.000
1606128428.786,43.457,-14.160,-24.414,68.848,0.000
1606128428.790,-191.406,-41.992,-32.715,-357.422,0.000
1606128428.794,-211.426,-52.734,-33.691,-356.934,0.000
1606128428.798,20.508,-29.785,-21.484,106.445,0.000
1606128428.801,182.617,-13.672,-13.184,374.512,0.000
1606128428.805,59.570,-25.391,-29.785,114.258,0.000
1606128428.809,-186.523,-54.199,-47.852,-328.613,0.000
1606128428.813,-221.191,-54.199,-49.316,-379.883,0.000
1606128428.817,-1.465,-18.555,-25.879,47.852,0.000
1606128428.821,180.176,1.465,-6.836,363.281,0.000
1606128428.825,99.121,-2.930,-18.066,175.293,0.000
1606128428.829,-152.832,-24.414,-41.992,-291.992,0.000
1606128428.833,-232.422,-51.758,-44.922,-403.320,0.000
1606128428.837,-34.668,-37.598,-27.832,-4.883,0.000
1606128428.840,164.062,-6.348,-14.160,349.121,0.000
1606128428.844,119.141,-12.695,-13.184,222.656,0.000
1606128428.848,-127.930,-47.852,-41.992,-248.535,0.000
1606128428.852,-233.887,-55.176,-52.734,-417.480,0.000
1606128428.856,-65.918,-28.809,-28.809,-63.477,0.000
1606128428.860,151.367,-7.812,-19.531,327.148,0.000
1606128428.864,143.066,5.371,-24.902,260.742,0.000
1606128428.868,-97.168,-19.531,-35.156,-204.590,0.000
1606128428.872,-231.445,-52.734,-41.992,-421.875,0.000
1606128428.876,-90.820,-31.250,-31.250,-124.023,0.000
1606128428.880,136.230,-6.348,-7.812,296.387,0.000
1606128428.883,159.180,-1.953,-0.977,297.852,0.000
1606128428.887,-72.266,-31.738,-30.273,-156.738,0.000
1606128428.891,-242.676,-59.082,-53.223,-429.199,0.000
1606128428.895,-131.836,-48.340,-44.922,-186.035,0.000
1606128428.899,112.793,-16.113,-18.555,259.766,0.000
1606128428.903,166.992,-13.184,-10.742,322.754,0.000
1606128428.907,-36.133,-41.504,-33.203,-100.098,0.000
1606128428.911,-217.773,-58.594,-50.293,-420.410,0.000
1606128428.915,-147.461,-43.945,-38.086,-240.234,0.000
1606128428.919,98.633,-17.578,-6.348,222.656,0.000
1606128428.923,184.570,-14.160,-5.371,336.426,0.000
1606128428.926,-8.301,-16.113,-33.203,-52.246,0.000
1606128428.930,-209.961,-34.180,-49.316,-405.273,0.000
1606128428.934,-173.340,-48.828,-49.316,-288.086,0.000
1606128428.938,65.918,-29.297,-32.715,179.688,0.000
1606128428.942,180.664,-9.277,-27.832,354.004,0.000
1606128428.946,32.227,-20.508,-36.621,15.625,0.000
1606128428.950,-195.801,-47.363,-48.828,-379.395,0.000
1606128428.954,-207.520,-43.945,-43.945,-326.660,0.000
1606128428.958,36.621,-14.648,-22.461,145.020,0.000
1606128428.962,175.293,-5.859,-15.137,375.000,0.000
1606128428.965,44.434,-12.207,-31.250,81.543,0.000
1606128428.969,-185.547,-42.480,-47.363,-345.215,0.000
1606128428.973,-217.773,-56.641,-38.086,-350.586,0.000
1606128428.977,6.348,-22.461,-20.996,101.562,0.000
1606128428.981,170.898,-7.812,-18.066,372.559,0.000
1606128428.985,68.848,-22.461,-28.809,132.324,0.000
1606128428.989,-171.875,-47.363,-48.828,-312.988,0.000
1606128428.993,-229.492,-52.734,-49.805,-381.348,0.000
1606128428.997,-14.160,-27.832,-25.391,37.598,0.000
1606128429.001,173.828,-5.859,-12.695,359.863,0.000
1606128429.005,95.703,-15.137,-27.832,179.199,0.000
1606128429.008,-139.648,-37.109,-37.598,-278.809,0.000
1606128429.012,-224.609,-42.969,-31.738,-395.996,0.000
1606128429.016,-47.363,-30.273,-29.785,-21.973,0.000
1606128429.020,157.715,-16.113,-22.949,333.496,0.000
1606128429.024,119.141,-12.207,-17.578,221.680,0.000
1606128429.028,-126.465,-21.973,-36.133,-249.512,0.000
1606128429.032,-243.164,-53.711,-56.641,-430.176,0.000
1606128429.036,-82.520,-48.340,-42.969,-83.984,0.000
1606128429.040,138.672,-7.812,-13.672,318.848,0.000
1606128429.044,128.418,-9.277,-17.578,262.207,0.000
1606128429.048,-107.910,-40.527,-36.621,-202.637,0.000
1606128429.051,-245.117,-51.270,-34.668,-428.711,0.000
1606128429.055,-119.629,-36.621,-29.297,-148.438,0.000
1606128429.059,118.652,-11.230,-12.695,276.855,0.000
1606128429.063,151.855,-3.906,-8.301,295.410,0.000
1606128429.067,-82.520,-20.996,-30.273,-153.320,0.000
1606128429.071,-239.258,-48.340,-35.645,-423.340,0.000
1606128429.075,-132.324,-42.480,-25.391,-185.059,0.000
1606128429.079,102.051,-15.625,-7.812,264.160,0.000
1606128429.083,162.109,-10.742,-7.812,335.449,0.000
1606128429.087,-42.969,-31.738,-31.250,-85.938,0.000
1606128429.090,-232.422,-55.176,-44.922,-418.945,0.000
1606128429.094,-161.133,-52.734,-50.781,-254.883,0.000
1606128429.098,87.402,-23.926,-36.133,210.938,0.000
1606128429.102,180.176,-11.719,-24.414,340.332,0.000
1606128429.106,-6.348,-15.625,-42.480,-48.828,0.000
1606128429.110,-211.426,-41.992,-53.223,-411.621,0.000
1606128429.114,-171.387,-64.453,-43.945,-292.969,0.000
1606128429.118,66.895,-24.902,-31.250,178.223,0.000
1606128429.122,180.664,-1.465,-20.996,360.352,0.000
1606128429.126,25.879,-24.414,-28.320,24.902,0.000
1606128429.130,-193.848,-49.316,-43.945,-373.535,0.000
1606128429.133,-191.895,-42.480,-39.062,-331.055,0.000
1606128429.137,42.969,-15.137,-17.578,129.883,0.000
1606128429.141,180.664,-2.441,-3.906,365.234,0.000
1606128429.145,49.316,-20.996,-29.785,76.172,0.000
1606128429.149,-183.594,-52.246,-54.688,-356.445,0.000
1606128429.153,-223.145,-56.641,-44.434,-375.977,0.000
1606128429.157,1.465,-35.156,-23.438,67.871,0.000
1606128429.161,170.898,-21.484,-10.254,353.516,0.000
1606128429.165,72.754,-25.391,-20.508,125.977,0.000
1606128429.169,-164.551,-44.922,-35.645,-315.430,0.000
1606128429.173,-226.562,-62.988,-40.527,-384.766,0.000
1606128429.176,-23.926,-41.992,-26.367,30.762,0.000
1606128429.180,159.668,-11.230,-5.371,358.887,0.000
1606128429.184,93.750,-20.020,-12.695,197.266,0.000
1606128429.188,-144.043,-53.711,-36.621,-259.766,0.000
1606128429.192,-240.723,-69.824,-40.527,-393.555,0.000
1606128429.196,-61.035,-44.434,-22.461,-15.137,0.000
1606128429.200,153.809,-16.113,-4.395,350.098,0.000
1606128429.204,125.977,-10.254,0.977,243.164,0.000
1606128429.208,-120.117,-23.926,-32.227,-226.074,0.000
1606128429.212,-238.281,-47.363,-52.246,-411.133,0.000
1606128429.215,-78.613,-41.016,-34.180,-77.637,0.000
1606128429.219,143.555,-14.648,-17.090,325.195,0.000
1606128429.223,146.484,-14.160,-21.484,287.109,0.000
1606128429.227,-80.566,-37.598,-36.133,-174.805,0.000
1606128429.231,-221.191,-58.594,-36.621,-418.945,0.000
1606128429.235,-101.562,-48.828,-26.367,-142.090,0.000
1606128429.239,132.324,-20.508,3.418,293.945,0.000
1606128429.243,172.852,-13.184,2.441,315.918,0.000
1606128429.247,-54.199,-33.203,-32.715,-133.301,0.000
1606128429.251,-228.027,-60.547,-43.945,-420.898,0.000
1606128429.255,-132.324,-60.059,-27.832,-192.871,0.000
1606128429.258,112.793,-20.996,-8.789,265.625,0.000
1606128429.262,177.246,-9.277,-16.602,347.656,0.000
1606128429.266,-25.879,-34.668,-37.109,-68.359,0.000
1606128429.270,-211.914,-54.199,-46.387,-404.297,0.000
1606128429.274,-156.738,-43.457,-30.762,-241.211,0.000
1606128429.278,81.543,-15.137,-2.930,225.586,0.000
1606128429.282,180.176,-5.371,8.789,360.840,0.000
1606128429.286,2.441,-24.902,-10.254,-14.648,0.000
1606128429.290,-211.914,-48.340,-32.227,-385.742,0.000
1606128429.294,-189.941,-46.875,-29.785,-293.457,0.000
1606128429.298,54.199,-20.508,-17.578,171.387,0.000
1606128429.301,178.711,-10.742,-7.324,362.305,0.000
1606128429.305,23.438,-9.277,-21.973,39.062,0.000
1606128429.309,-198.730,-23.926,-46.387,-365.234,0.000
1606128429.313,-199.707,-42.969,-38.086,-336.426,0.000
1606128429.317,39.062,-24.902,-14.648,130.371,0.000
1606128429.321,181.641,-12.207,-2.930,376.953,0.000
1606128429.325,54.688,-22.461,-16.113,99.121,0.000
1606128429.329,-171.387,-44.434,-43.457,-336.914,0.000
1606128429.333,-202.637,-45.410,-41.504,-365.234,0.000
1606128429.337,18.066,-20.508,-17.578,81.055,0.000
1606128429.340,187.012,-8.301,-10.742,372.559,0.000
1606128429.344,101.074,-6.348,-20.020,151.367,0.000
1606128429.348,-140.625,-25.879,-41.016,-297.852,0.000
1606128429.352,-209.961,-46.875,-42.969,-386.230,0.000
1606128429.356,-4.395,-24.414,-22.461,23.438,0.000
1606128429.360,176.758,-5.859,-14.648,361.816,0.000
1606128429.364,104.492,-22.461,-21.973,196.289,0.000
1606128429.368,-136.230,-51.270,-36.133,-266.113,0.000
1606128429.372,-232.910,-55.176,-49.805,-406.250,0.000
1606128429.376,-59.570,-34.180,-40.527,-44.922,0.000
1606128429.380,146.973,-19.043,-13.672,332.031,0.000
1606128429.383,118.164,-19.043,-15.137,246.094,0.000
1606128429.387,-119.629,-32.227,-40.039,-224.609,0.000
1606128429.391,-238.770,-45.410,-31.250,-419.434,0.000
1606128429.395,-88.867,-34.180,-20.508,-97.656,0.000
1606128429.399,129.883,-14.648,-10.742,305.176,0.000
1606128429.403,136.230,-8.301,-16.602,281.250,0.000
1606128429.407,-98.633,-34.668,-37.109,-176.270,0.000
1606128429.411,-243.652,-52.734,-37.109,-428.711,0.000
1606128429.415,-122.559,-31.738,-27.832,-153.809,0.000
1606128429.419,105.469,-2.930,-9.766,277.832,0.000
1606128429.423,144.043,-1.465,-15.137,297.852,0.000
1606128429.426,-69.824,-28.320,-32.227,-133.789,0.000
1606128429.430,-235.840,-50.781,-43.945,-422.363,0.000
1606128429.434,-147.949,-43.945,-47.363,-208.496,0.000
1606128429.438,85.938,-22.949,-29.785,241.699,0.000
1606128429.442,163.086,-13.184,-19.043,330.566,0.000
1606128429.446,-27.832,-23.926,-38.574,-71.777,0.000
1606128429.450,-222.168,-45.898,-54.199,-414.551,0.000
1606128429.454,-167.480,-43.945,-36.621,-269.043,0.000
1606128429.458,73.242,-17.578,-16.602,201.172,0.000
1606128429.462,176.270,-11.230,-5.371,360.352,0.000
1606128429.465,1.465,-31.250,-27.832,-8.789,0.000
1606128429.469,-209.961,-55.176,-50.293,-393.066,0.000
1606128429.473,-180.176,-56.152,-39.551,-301.270,0.000
1606128429.477,58.594,-20.996,-15.137,170.410,0.000
1606128429.481,173.340,-9.277,-9.766,368.652,0.000
1606128429.485,25.391,-24.902,-29.785,52.246,0.000
1606128429.489,-204.102,-50.293,-44.922,-357.910,0.000
1606128429.493,-224.121,-58.105,-35.645,-335.449,0.000
1606128429.497,15.625,-22.949,-12.207,126.465,0.000
1606128429.501,170.898,-5.371,-3.906,376.953,0.000
1606128429.505,51.270,-24.414,-21.973,105.957,0.000
1606128429.508,-181.152,-51.758,-46.387,-330.566,0.000
1606128429.512,-229.004,-54.688,-46.875,-371.094,0.000
1606128429.516,-11.719,-35.156,-23.926,66.406,0.000
1606128429.520,168.945,-16.602,-3.906,364.258,0.000
1606128429.524,80.566,-6.836,-14.648,151.855,0.000
1606128429.528,-163.574,-32.227,-27.344,-302.246,0.000
1606128429.532,-236.328,-50.293,-24.414,-398.438,0.000
1606128429.536,-36.621,-25.879,-20.020,6.836,0.000
1606128429.540,160.645,-7.324,-11.230,350.586,0.000
1606128429.544,113.770,-14.160,-17.090,204.590,0.000
1606128429.548,-128.418,-42.480,-42.480,-264.648,0.000
1606128429.551,-237.305,-58.594,-46.387,-418.945,0.000
1606128429.555,-66.406,-38.574,-21.484,-52.246,0.000
1606128429.559,147.949,-12.695,-8.301,325.195,0.000
1606128429.563,132.812,-14.160,-12.207,240.723,0.000
1606128429.567,-97.656,-30.273,-23.926,-221.680,0.000
1606128429.571,-229.980,-40.039,-36.621,-428.223,0.000
1606128429.575,-94.238,-34.668,-34.180,-116.699,0.000
1606128429.579,125.977,-13.672,-19.043,291.504,0.000
1606128429.583,139.648,-9.766,-4.395,273.438,0.000
1606128429.587,-87.891,-37.598,-24.902,-173.828,0.000
1606128429.590,-245.117,-62.988,-47.852,-434.570,0.000
1606128429.594,-135.254,-50.781,-38.574,-179.688,0.000
1606128429.598,90.820,-20.020,-18.066,254.883,0.000
1606128429.602,150.391,-13.672,-12.207,296.875,0.000
1606128429.606,-60.059,-35.645,-28.320,-124.512,0.000
1606128429.610,-249.512,-52.246,-40.527,-423.340,0.000
1606128429.614,-163.574,-43.945,-39.062,-225.586,0.000
1606128429.618,77.637,-17.090,-14.160,237.305,0.000
1606128429.622,160.156,-10.254,-7.812,346.680,0.000
1606128429.626,-28.320,-37.598,-33.691,-62.988,0.000
1606128429.630,-229.004,-52.734,-42.480,-414.551,0.000
1606128429.633,-181.641,-35.156,-38.574,-274.902,0.000
1606128429.637,68.359,-8.301,-17.578,198.242,0.000
1606128429.641,180.176,1.953,-2.441,357.910,0.000
1606128429.645,10.254,-19.531,-26.855,-9.277,0.000
1606128429.649,-207.520,-47.852,-46.387,-394.043,0.000
1606128429.653,-192.383,-41.504,-40.527,-321.777,0.000
1606128429.657,48.340,-20.020,-18.555,150.391,0.000
1606128429.661,183.105,-7.812,-12.695,371.582,0.000
1606128429.665,37.598,-17.578,-37.598,59.082,0.000
1606128429.669,-198.242,-45.898,-54.199,-367.676,0.000
1606128429.673,-212.402,-48.340,-40.039,-354.492,0.000
1606128429.676,24.902,-25.879,-20.508,104.492,0.000
1606128429.680,180.176,-9.277,-18.555,368.652,0.000
1606128429.684,70.312,-15.625,-26.367,117.188,0.000
1606128429.688,-164.062,-40.527,-39.551,-330.566,0.000
1606128429.692,-214.844,-45.898,-44.922,-385.742,0.000
1606128429.696,5.371,-21.973,-23.438,58.105,0.000
1606128429.700,188.965,-3.418,-4.395,376.465,0.000
1606128429.704,97.656,-16.602,-21.973,168.945,0.000
1606128429.708,-150.391,-44.922,-48.828,-298.340,0.000
1606128429.712,-229.004,-54.688,-45.410,-407.227,0.000
1606128429.715,-40.039,-37.598,-25.391,-9.766,0.000
1606128429.719,162.109,-16.113,-14.648,341.309,0.000
1606128429.723,107.910,-7.812,-25.391,209.473,0.000
1606128429.727,-149.414,-20.020,-45.898,-257.812,0.000
1606128429.731,-258.789,-44.434,-48.340,-426.758,0.000
1606128429.735,-85.449,-34.668,-25.391,-71.289,0.000
1606128429.739,139.160,-10.254,-7.324,320.312,0.000
1606128429.743,118.652,-8.301,-16.602,252.441,0.000
1606128429.747,-126.465,-31.738,-38.086,-220.703,0.000
1606128429.751,-257.812,-56.641,-39.551,-441.406,0.000
1606128429.755,-120.117,-42.969,-27.344,-127.441,0.000
1606128429.758,115.723,-9.277,-14.160,305.176,0.000
1606128429.762,136.719,-9.766,-19.043,300.293,0.000
1606128429.766,-95.215,-12.207,-44.922,-162.598,0.000
1606128429.770,-243.652,-29.297,-49.805,-433.594,0.000
1606128429.774,-130.371,-42.969,-26.855,-180.176,0.000
1606128429.778,111.328,-16.113,-5.371,271.973,0.000
1606128429.782,172.363,-12.207,-8.789,327.148,0.000
1606128429.786,-42.480,-37.598,-20.508,-107.422,0.000
1606128429.790,-237.793,-60.059,-26.855,-424.805,0.000
1606128429.794,-162.109,-45.898,-29.297,-238.770,0.000
1606128429.798,87.891,-20.508,-11.230,223.633,0.000
1606128429.801,175.293,-14.160,-7.324,347.168,0.000
1606128429.805,-12.695,-16.113,-25.879,-46.387,0.000
1606128429.809,-215.820,-39.062,-40.527,-405.762,0.000
1606128429.813,-177.734,-48.340,-36.621,-275.391,0.000
1606128429.817,66.895,-23.438,-20.020,198.242,0.000
1606128429.821,178.711,-13.184,-6.348,375.488,0.000
1606128429.825,19.531,-30.273,-20.020,24.902,0.000
1606128429.829,-196.289,-42.969,-35.156,-371.582,0.000
1606128429.833,-192.871,-38.574,-32.227,-314.941,0.000
1606128429.837,47.852,-17.090,-17.090,148.438,0.000
1606128429.840,187.988,-2.441,-7.324,374.512,0.000
1606128429.844,55.176,-21.973,-29.297,80.566,0.000
1606128429.848,-177.246,-46.875,-46.387,-341.309,0.000
1606128429.852,-208.008,-45.898,-37.598,-349.121,0.000
1606128429.856,18.066,-23.438,-15.137,104.492,0.000
1606128429.860,180.176,-18.555,-9.277,379.883,0.000
1606128429.864,70.801,-26.855,-25.391,138.184,0.000
1606128429.868,-167.480,-29.785,-33.691,-314.453,0.000
1606128429.872,-220.703,-41.016,-32.715,-386.230,0.000
1606128429.876,-12.695,-30.762,-26.855,38.086,0.000
1606128429.880,181.641,-5.859,-6.348,367.676,0.000
1606128429.883,109.863,-16.113,-15.137,196.777,0.000
1606128429.887,-141.602,-51.758,-42.480,-278.320,0.000
1606128429.891,-225.586,-56.152,-41.504,-413.086,0.000
1606128429.895,-31.738,-26.855,-19.043,-11.719,0.000
1606128429.899,172.363,-8.301,-8.789,352.051,0.000
1606128429.903,132.812,-15.625,-13.672,225.098,0.000
1606128429.907,-116.699,-33.203,-32.227,-246.094,0.000
1606128429.911,-238.281,-60.059,-41.992,-425.781,0.000
1606128429.915,-69.824,-45.410,-21.973,-81.543,0.000
1606128429.919,155.762,-11.230,-3.906,327.637,0.000
1606128429.923,147.949,-13.672,-7.812,283.203,0.000
1606128429.926,-97.656,-40.039,-32.715,-190.918,0.000
1606128429.930,-239.746,-52.734,-41.504,-433.105,0.000
1606128429.934,-112.793,-39.062,-29.785,-148.926,0.000
1606128429.938,117.188,-15.137,-18.555,281.250,0.000
1606128429.942,153.809,-3.906,-5.859,302.246,0.000
1606128429.946,-79.590,-23.926,-25.391,-147.949,0.000
1606128429.950,-254.883,-53.711,-42.480,-445.312,0.000
1606128429.954,-154.785,-46.387,-24.902,-212.891,0.000
1606128429.958,86.426,-15.137,-14.648,248.535,0.000
1606128429.962,146.973,-8.301,-19.043,327.637,0.000
1606128429.965,-62.012,-25.391,-31.738,-101.074,0.000
1606128429.969,-253.418,-44.434,-44.434,-437.988,0.000
1606128429.973,-184.570,-45.410,-43.457,-262.695,0.000
1606128429.977,62.500,-20.996,-25.879,207.520,0.000
1606128429.981,161.133,-8.789,-12.695,344.238,0.000
1606128429.985,-18.066,-25.391,-22.461,-43.457,0.000
1606128429.989,-216.797,-39.062,-34.668,-419.434,0.000
1606128429.993,-176.758,-35.156,-32.227,-303.223,0.000
1606128429.997,65.430,-20.996,-14.160,171.387,0.000
1606128430.001,180.176,-12.207,-13.672,352.051,0.000
1606128430.005,24.902,-17.090,-31.738,17.090,0.000
1606128430.008,-202.637,-41.992,-48.828,-388.672,0.000
1606128430.012,-211.914,-57.129,-47.852,-339.844,0.000
1606128430.016,40.527,-32.715,-26.855,138.672,0.000
1606128430.020,194.336,-4.883,-20.020,374.023,0.000
1606128430.024,46.875,-13.672,-35.156,75.195,0.000
1606128430.028,-190.430,-46.387,-50.781,-354.004,0.000
1606128430.032,-208.008,-56.641,-52.246,-356.445,0.000
1606128430.036,18.066,-31.738,-30.273,98.633,0.000
1606128430.040,187.988,-7.324,-9.766,387.207,0.000
1606128430.044,94.238,-18.066,-17.090,161.133,0.000
1606128430.048,-149.414,-47.852,-38.086,-290.527,0.000
1606128430.051,-205.566,-55.176,-41.992,-367.188,0.000
1606128430.055,5.371,-29.785,-31.738,53.711,0.000
1606128430.059,186.523,-7.324,-23.926,389.160,0.000
1606128430.063,114.746,-22.461,-29.785,215.820,0.000
1606128430.067,-136.230,-53.711,-45.898,-259.766,0.000
1606128430.071,-229.004,-59.570,-50.293,-395.508,0.000
1606128430.075,-51.270,-36.133,-35.156,-18.066,0.000
1606128430.079,151.855,-10.742,-16.113,353.027,0.000
1606128430.083,124.512,-15.625,-12.695,251.953,0.000
1606128430.087,-117.188,-46.387,-25.879,-216.309,0.000
1606128430.090,-233.887,-58.105,-44.922,-409.180,0.000
1606128430.094,-76.660,-35.156,-31.738,-81.543,0.000
1606128430.098,157.715,-6.348,-6.348,336.426,0.000
1606128430.102,165.039,-14.648,-12.207,303.223,0.000
1606128430.106,-68.848,-39.062,-31.250,-164.551,0.000
1606128430.110,-222.168,-49.805,-44.434,-410.156,0.000
1606128430.114,-111.328,-42.969,-41.016,-136.719,0.000
1606128430.118,129.883,-15.625,-15.625,302.246,0.000
1606128430.122,166.016,-8.789,-13.184,331.055,0.000
1606128430.126,-62.012,-36.621,-39.062,-127.930,0.000
1606128430.130,-230.469,-55.664,-45.898,-430.176,0.000
1606128430.133,-134.277,-41.992,-32.227,-201.172,0.000
1606128430.137,113.770,-12.695,-20.020,255.859,0.000
1606128430.141,187.500,-9.277,-21.973,336.426,0.000
1606128430.145,-21.484,-17.578,-31.250,-76.172,0.000
1606128430.149,-212.402,-26.855,-41.016,-410.156,0.000
1606128430.153,-148.926,-32.227,-39.062,-248.535,0.000
1606128430.157,88.867,-17.578,-20.020,227.051,0.000
1606128430.161,182.617,-12.207,-9.766,369.629,0.000
1606128430.165,0.000,-28.320,-28.320,-14.160,0.000
1606128430.169,-211.914,-54.688,-43.457,-395.508,0.000
1606128430.173,-180.664,-51.758,-32.227,-296.875,0.000
1606128430.176,59.570,-22.949,-24.902,176.758,0.000
1606128430.180,185.547,-8.789,-11.719,376.953,0.000
1606128430.184,33.203,-15.625,-26.855,47.363,0.000
1606128430.188,-192.383,-33.691,-44.922,-358.398,0.000
1606128430.192,-197.754,-42.969,-29.297,-324.219,0.000
1606128430.196,38.574,-21.484,-17.090,139.160,0.000
1606128430.200,189.941,-4.395,-9.766,391.602,0.000
1606128430.204,61.035,-13.184,-20.996,110.352,0.000
1606128430.208,-179.688,-44.434,-41.992,-334.473,0.000
1606128430.212,-214.355,-53.711,-42.969,-363.281,0.000
1606128430.215,5.859,-21.973,-23.926,83.496,0.000
1606128430.219,174.805,-2.930,-16.113,380.859,0.000
1606128430.223,85.938,-5.371,-21.973,162.109,0.000
1606128430.227,-157.227,-26.855,-39.062,-304.688,0.000
1606128430.231,-224.609,-50.293,-42.969,-397.461,0.000
1606128430.235,-21.484,-39.551,-23.926,13.184,0.000
1606128430.239,171.875,-10.742,-14.160,352.539,0.000
1606128430.243,111.328,-5.859,-19.043,198.730,0.000
1606128430.247,-139.648,-28.809,-44.922,-275.391,0.000
1606128430.251,-242.188,-46.387,-54.199,-421.387,0.000
1606128430.255,-59.570,-36.621,-22.949,-46.875,0.000
1606128430.258,156.250,-12.695,-10.254,330.566,0.000
1606128430.262,126.953,-10.742,-21.484,238.770,0.000
1606128430.266,-117.188,-36.621,-38.574,-229.492,0.000
1606128430.270,-233.398,-55.176,-49.805,-429.199,0.000
1606128430.274,-83.008,-37.109,-35.156,-115.234,0.000
1606128430.278,129.883,-13.672,-18.066,288.086,0.000
1606128430.282,136.230,-8.301,-23.438,266.602,0.000
1606128430.286,-96.680,-35.645,-43.945,-188.477,0.000
1606128430.290,-248.535,-59.570,-50.781,-445.801,0.000
1606128430.294,-117.676,-46.387,-34.180,-179.688,0.000
1606128430.298,114.746,-19.043,-9.277,267.578,0.000
1606128430.301,140.625,-4.395,-11.230,307.129,0.000
1606128430.305,-77.637,-26.367,-41.992,-132.324,0.000
1606128430.309,-248.047,-48.828,-52.734,-430.664,0.000
1606128430.313,-161.133,-41.504,-39.062,-225.098,0.000
1606128430.317,83.008,-19.531,-19.043,238.281,0.000
1606128430.321,164.551,-8.789,-13.672,341.797,0.000
1606128430.325,-33.203,-25.879,-32.715,-65.430,0.000
1606128430.329,-240.723,-56.641,-50.293,-410.645,0.000
1606128430.333,-185.059,-54.688,-35.645,-265.137,0.000
1606128430.337,81.055,-21.973,-8.789,203.125,0.000
1606128430.340,192.383,-8.789,-3.906,355.957,0.000
1606128430.344,10.254,-30.762,-21.484,-5.859,0.000
1606128430.348,-200.684,-57.617,-40.527,-385.742,0.000
1606128430.352,-171.387,-53.223,-34.180,-300.781,0.000
1606128430.356,79.102,-17.090,-9.277,168.457,0.000
1606128430.360,211.426,-1.953,4.395,371.094,0.000
1606128430.364,54.688,-16.602,-9.277,58.594,0.000
1606128430.368,-178.711,-42.480,-42.480,-359.863,0.000
1606128430.372,-194.824,-51.270,-48.340,-349.609,0.000
1606128430.376,34.180,-22.461,-23.926,107.422,0.000
1606128430.380,185.547,-2.441,-16.113,355.469,0.000
1606128430.383,64.453,-12.207,-31.250,89.844,0.000
1606128430.387,-175.781,-38.574,-51.270,-348.633,0.000
1606128430.391,-223.145,-44.434,-43.945,-390.625,0.000
1606128430.395,-3.906,-24.414,-15.625,44.922,0.000
1606128430.399,175.781,-8.301,-7.812,346.680,0.000
1606128430.403,96.191,-10.254,-12.695,156.738,0.000
1606128430.407,-143.555,-30.762,-30.762,-288.574,0.000
1606128430.411,-218.750,-37.598,-44.434,-393.555,0.000
1606128430.415,-25.391,-16.113,-25.391,7.812,0.000
1606128430.419,162.109,-1.465,-11.719,347.656,0.000
1606128430.423,104.492,-16.602,-19.531,197.754,0.000
1606128430.426,-132.812,-52.734,-37.109,-265.625,0.000
1606128430.430,-240.234,-63.965,-41.992,-416.992,0.000
1606128430.434,-83.984,-40.039,-26.855,-61.035,0.000
1606128430.438,130.371,-15.137,-2.930,322.266,0.000
1606128430.442,121.094,-14.648,-10.742,248.047,0.000
1606128430.446,-113.281,-39.062,-40.527,-212.402,0.000
1606128430.450,-253.418,-54.199,-48.340,-431.152,0.000
1606128430.454,-91.309,-37.598,-31.738,-101.074,0.000
1606128430.458,147.461,-8.789,-10.742,326.660,0.000
1606128430.462,148.438,-1.465,-3.418,295.898,0.000
1606128430.465,-76.660,-42.969,-30.273,-153.809,0.000
1606128430.469,-242.188,-71.777,-56.641,-425.781,0.000
1606128430.473,-125.488,-44.922,-36.133,-167.480,0.000
1606128430.477,120.605,-13.672,-13.672,272.949,0.000
1606128430.481,165.039,-8.789,-16.113,314.453,0.000
1606128430.485,-49.805,-35.156,-31.738,-116.699,0.000
1606128430.489,-230.469,-49.316,-45.410,-426.758,0.000
1606128430.493,-149.414,-36.621,-36.621,-226.074,0.000
1606128430.497,95.703,-11.719,-19.531,237.793,0.000
1606128430.501,176.758,-4.395,-9.766,344.727,0.000
1606128430.505,-15.137,-26.367,-25.391,-48.340,0.000
1606128430.508,-222.656,-49.805,-50.781,-403.320,0.000
1606128430.512,-180.664,-49.805,-40.527,-274.414,0.000
1606128430.516,61.035,-26.367,-12.207,198.730,0.000
1606128430.520,166.992,-10.254,-11.719,363.281,0.000
1606128430.524,-5.859,-25.879,-38.574,-0.488,0.000
1606128430.528,-229.980,-55.176,-54.199,-395.020,0.000
1606128430.532,-214.844,-52.734,-43.457,-318.848,0.000
1606128430.536,29.297,-20.020,-20.508,153.809,0.000
1606128430.540,162.598,-7.324,-15.137,372.559,0.000
1606128430.544,26.367,-21.484,-30.273,62.500,0.000
1606128430.548,-199.707,-47.363,-43.457,-364.746,0.000
1606128430.551,-221.191,-46.875,-38.086,-354.980,0.000
1606128430.555,15.625,-16.602,-23.438,107.422,0.000
1606128430.559,170.410,-8.301,-18.555,375.000,0.000
1606128430.563,64.453,-29.297,-28.320,128.906,0.000
1606128430.567,-166.504,-54.199,-45.898,-319.336,0.000
1606128430.571,-220.703,-48.340,-53.711,-383.301,0.000
1606128430.575,-7.324,-20.020,-27.344,46.875,0.000
1606128430.579,176.270,0.000,-8.301,356.445,0.000
1606128430.583,104.004,-5.371,-20.508,171.387,0.000
1606128430.587,-132.324,-34.668,-37.598,-291.504,0.000
1606128430.590,-214.844,-44.434,-42.969,-414.551,0.000
1606128430.594,-26.367,-19.043,-21.973,-15.625,0.000
1606128430.598,177.734,5.859,-10.254,343.750,0.000
1606128430.602,138.184,4.883,-26.367,215.332,0.000
1606128430.606,-108.887,-26.367,-50.293,-262.207,0.000
1606128430.610,-226.562,-45.410,-58.594,-436.035,0.000
1606128430.614,-62.500,-25.879,-36.621,-78.125,0.000
1606128430.618,155.273,4.395,-15.137,320.801,0.000
1606128430.622,142.090,-5.859,-13.672,262.207,0.000
1606128430.626,-99.121,-39.551,-22.949,-204.590,0.000
1606128430.630,-235.840,-54.688,-35.156,-426.758,0.000
1606128430.633,-105.957,-39.551,-35.156,-128.418,0.000
1606128430.637,134.277,-10.742,-17.090,295.898,0.000
1606128430.641,162.109,-6.348,-8.789,299.805,0.000
1606128430.645,-81.543,-31.250,-28.320,-150.879,0.000
1606128430.649,-242.676,-50.293,-40.039,-416.992,0.000
1606128430.653,-134.766,-42.480,-28.320,-174.805,0.000
1606128430.657,96.680,-29.785,-15.137,257.812,0.000
1606128430.661,150.879,-26.855,-15.137,318.359,0.000
1606128430.665,-52.246,-36.621,-37.109,-102.051,0.000
1606128430.669,-238.281,-51.758,-53.223,-420.898,0.000
1606128430.673,-158.691,-42.969,-41.504,-232.910,0.000
1606128430.676,90.332,-16.602,-17.578,230.469,0.000
1606128430.680,171.387,-6.348,-12.695,346.680,0.000
1606128430.684,-16.113,-31.250,-24.414,-36.621,0.000
1606128430.688,-220.703,-54.199,-37.109,-393.555,0.000
1606128430.692,-186.523,-42.969,-27.832,-269.531,0.000
1606128430.696,60.547,-16.602,-11.230,200.684,0.000
1606128430.700,177.734,-7.324,-13.672,363.281,0.000
1606128430.704,16.113,-19.531,-28.320,17.090,0.000
1606128430.708,-200.684,-33.691,-49.316,-373.047,0.000
1606128430.712,-194.336,-39.062,-46.387,-316.895,0.000
1606128430.715,40.527,-18.066,-18.555,142.090,0.000
1606128430.719,176.758,-5.371,-6.836,367.188,0.000
1606128430.723,42.480,-24.414,-24.414,71.777,0.000
1606128430.727,-185.547,-46.875,-36.621,-356.445,0.000
1606128430.731,-212.891,-53.223,-34.668,-370.117,0.000
1606128430.735,17.090,-30.762,-22.949,84.473,0.000
1606128430.739,193.359,-5.371,-10.254,382.812,0.000
1606128430.743,89.355,-11.230,-12.207,150.391,0.000
1606128430.747,-170.410,-37.109,-29.297,-311.035,0.000
1606128430.751,-237.793,-47.852,-36.133,-383.789,0.000
1606128430.755,-21.484,-24.902,-9.766,46.875,0.000
1606128430.758,176.758,-4.883,4.883,372.070,0.000
1606128430.762,106.934,-20.020,-16.602,192.871,0.000
1606128430.766,-141.602,-45.410,-35.645,-264.648,0.000
1606128430.770,-228.516,-53.711,-33.691,-390.625,0.000
1606128430.774,-40.527,-31.250,-17.090,-11.230,0.000
1606128430.778,163.086,-6.348,-4.883,348.145,0.000
1606128430.782,129.883,-7.324,-8.301,233.398,0.000
1606128430.786,-113.281,-30.273,-23.926,-236.816,0.000
1606128430.790,-234.375,-49.805,-31.250,-421.875,0.000
1606128430.794,-74.219,-39.062,-29.297,-88.379,0.000
1606128430.798,141.113,-15.137,-17.090,309.082,0.000
1606128430.801,136.230,-14.648,-9.766,262.207,0.000
1606128430.805,-103.516,-27.344,-32.715,-202.637,0.000
1606128430.809,-258.301,-44.922,-47.852,-441.406,0.000
1606128430.813,-125.488,-45.898,-27.832,-151.367,0.000
1606128430.817,107.422,-23.926,-12.207,272.949,0.000
1606128430.821,130.371,-18.555,-23.438,282.715,0.000
1606128430.825,-93.750,-39.062,-46.875,-168.457,0.000
1606128430.829,-257.324,-60.059,-51.270,-454.590,0.000
1606128430.833,-150.879,-42.969,-32.227,-215.820,0.000
1606128430.837,96.680,-12.207,-15.137,247.070,0.000
1606128430.840,160.645,-11.719,-12.207,328.125,0.000
1606128430.844,-40.039,-36.621,-38.086,-91.797,0.000
1606128430.848,-232.910,-57.129,-53.223,-435.059,0.000
1606128430.852,-166.504,-43.457,-34.180,-256.348,0.000
1606128430.856,85.938,-11.230,-17.578,222.168,0.000
1606128430.860,180.176,-2.930,-24.414,341.797,0.000
1606128430.864,-4.883,-26.855,-50.293,-28.809,0.000
1606128430.868,-215.820,-54.199,-64.453,-395.020,0.000
1606128430.872,-186.035,-48.828,-56.152,-298.340,0.000
1606128430.876,62.988,-14.160,-32.715,190.918,0.000
1606128430.880,197.266,3.906,-17.090,370.605,0.000
1606128430.883,33.691,-14.160,-31.738,33.691,0.000
1606128430.887,-202.637,-38.574,-46.875,-365.723,0.000
1606128430.891,-208.496,-41.992,-42.480,-341.309,0.000
1606128430.895,27.832,-21.484,-17.090,132.324,0.000
1606128430.899,183.594,-5.371,-8.301,376.953,0.000
1606128430.903,52.246,-22.949,-27.832,90.820,0.000
1606128430.907,-195.801,-49.316,-54.199,-351.562,0.000
1606128430.911,-232.422,-53.223,-56.152,-369.629,0.000
1606128430.915,-11.719,-30.273,-31.738,79.590,0.000
1606128430.919,162.109,-7.812,-9.277,356.445,0.000
1606128430.923,67.871,-20.996,-22.949,139.648,0.000
1606128430.926,-175.781,-50.781,-49.316,-312.500,0.000
1606128430.930,-245.605,-50.781,-43.457,-395.508,0.000
1606128430.934,-24.902,-26.367,-30.273,3.906,0.000
1606128430.938,160.645,-12.695,-18.555,345.215,0.000
1606128430.942,69.336,-18.555,-16.602,193.848,0.000
1606128430.946,-155.762,-42.969,-26.367,-270.508,0.000
1606128430.950,-238.770,-50.293,-37.109,-401.855,0.000
1606128430.954,-57.129,-27.832,-27.832,-33.691,0.000
1606128430.958,146.484,-15.137,-13.184,334.473,0.000
1606128430.962,110.840,-20.020,-15.137,237.305,0.000
1606128430.965,-129.883,-35.156,-34.668,-230.957,0.000
1606128430.969,-242.188,-46.387,-41.504,-415.527,0.000
1606128430.973,-93.750,-31.250,-30.762,-93.750,0.000
1606128430.977,122.070,-5.859,-21.973,290.039,0.000
1606128430.981,134.277,-5.371,-20.996,263.672,0.000
1606128430.985,-85.938,-28.809,-29.785,-171.875,0.000
1606128430.989,-239.258,-46.875,-32.227,-417.480,0.000
1606128430.993,-128.906,-35.645,-20.020,-153.809,0.000
1606128430.997,104.004,-11.719,-6.836,270.508,0.000
1606128431.001,147.949,-10.742,-13.672,300.293,0.000
1606128431.005,-73.730,-41.992,-31.250,-134.277,0.000
1606128431.008,-252.441,-59.082,-37.109,-415.039,0.000
1606128431.012,-170.410,-45.898,-32.227,-200.684,0.000
1606128431.016,75.684,-15.625,-21.484,239.746,0.000
1606128431.020,153.320,-7.812,-19.043,334.961,0.000
1606128431.024,-52.246,-23.438,-32.227,-72.266,0.000
1606128431.028,-240.234,-41.016,-42.480,-407.227,0.000
1606128431.032,-173.828,-44.922,-37.109,-261.719,0.000
1606128431.036,53.711,-16.602,-18.555,195.312,0.000
1606128431.040,146.484,-14.648,-7.324,330.078,0.000
1606128431.044,-24.902,-40.527,-17.090,-40.527,0.000
1606128431.048,-225.098,-51.758,-32.715,-401.855,0.000
1606128431.051,-204.590,-43.945,-28.809,-311.523,0.000
1606128431.055,33.203,-18.555,-9.766,152.832,0.000
1606128431.059,168.945,-4.883,-3.906,355.957,0.000
1606128431.063,21.973,-25.391,-18.066,32.715,0.000
1606128431.067,-202.148,-53.223,-43.457,-378.418,0.000
1606128431.071,-213.379,-50.781,-41.016,-346.191,0.000
1606128431.075,18.555,-23.438,-15.625,109.375,0.000
1606128431.079,167.969,-16.602,-6.836,354.004,0.000
1606128431.083,51.270,-27.832,-23.926,85.938,0.000
1606128431.087,-180.176,-48.828,-43.945,-348.633,0.000
1606128431.090,-219.727,-56.641,-41.016,-376.465,0.000
1606128431.094,-1.465,-27.832,-22.949,61.035,0.000
1606128431.098,172.852,-1.953,-10.254,362.305,0.000
1606128431.102,89.355,-16.113,-19.043,166.016,0.000
1606128431.106,-149.902,-44.922,-42.480,-301.758,0.000
1606128431.110,-223.633,-51.270,-43.945,-401.367,0.000
1606128431.114,-30.762,-32.227,-30.273,7.812,0.000
1606128431.118,162.109,-12.695,-11.230,356.445,0.000
1606128431.122,107.422,-21.484,-4.395,209.473,0.000
1606128431.126,-130.859,-44.922,-24.414,-257.812,0.000
1606128431.130,-223.145,-50.781,-34.668,-399.414,0.000
1606128431.133,-51.758,-29.785,-21.484,-40.527,0.000
1606128431.137,153.809,-5.859,-10.254,329.102,0.000
1606128431.141,134.277,-11.719,-15.625,245.605,0.000
1606128431.145,-101.562,-41.992,-28.809,-213.867,0.000
1606128431.149,-232.910,-50.781,-38.574,-405.762,0.000
1606128431.153,-98.145,-33.691,-36.621,-94.238,0.000
1606128431.157,125.488,-10.254,-17.578,303.223,0.000
1606128431.161,146.484,-10.742,-12.207,283.691,0.000
1606128431.165,-82.031,-25.879,-42.969,-161.621,0.000
1606128431.169,-229.980,-31.738,-48.828,-415.039,0.000
1606128431.173,-112.305,-28.320,-28.809,-163.086,0.000
1606128431.176,114.258,-16.602,-18.066,272.949,0.000
1606128431.180,161.621,-12.207,-12.695,312.012,0.000
1606128431.184,-49.316,-29.785,-28.809,-121.094,0.000
1606128431.188,-223.145,-52.734,-41.504,-421.387,0.000
1606128431.192,-137.695,-45.410,-22.949,-215.332,0.000
1606128431.196,103.027,-17.578,-10.742,229.980,0.000
1606128431.200,173.828,-10.742,-9.277,322.266,0.000
1606128431.204,-20.996,-27.344,-25.391,-71.289,0.000
1606128431.208,-213.379,-45.898,-43.945,-422.852,0.000
1606128431.212,-166.504,-49.805,-37.598,-295.898,0.000
1606128431.215,69.336,-24.902,-16.113,176.758,0.000
1606128431.219,172.852,-14.648,-18.555,341.309,0.000
1606128431.223,1.465,-32.227,-38.574,-15.625,0.000
1606128431.227,-212.402,-48.340,-48.828,-390.137,0.000
1606128431.231,-192.871,-51.758,-43.945,-319.824,0.000
1606128431.235,52.734,-27.832,-21.973,145.996,0.000
1606128431.239,183.594,-10.254,-12.207,369.629,0.000
1606128431.243,36.133,-21.484,-26.855,62.500,0.000
1606128431.247,-189.941,-44.434,-36.621,-351.562,0.000
1606128431.251,-209.473,-45.898,-37.598,-346.680,0.000
1606128431.255,25.391,-22.461,-25.391,105.469,0.000
1606128431.258,186.523,-9.277,-14.160,380.859,0.000
1606128431.262,57.617,-30.273,-30.762,124.512,0.000
1606128431.266,-189.941,-51.270,-48.340,-323.242,0.000
1606128431.270,-239.258,-50.293,-53.223,-378.906,0.000
1606128431.274,-25.391,-29.785,-40.527,46.875,0.000
1606128431.278,157.715,-7.812,-23.926,357.910,0.000
1606128431.282,78.613,-12.695,-30.273,167.969,0.000
1606128431.286,-160.645,-35.645,-40.527,-288.086,0.000
1606128431.290,-239.746,-54.688,-42.969,-402.832,0.000
1606128431.294,-48.340,-35.645,-31.250,-20.508,0.000
1606128431.298,153.320,-4.395,-14.160,327.637,0.000
1606128431.301,107.422,-10.742,-17.090,204.590,0.000
1606128431.305,-130.859,-37.109,-41.016,-258.301,0.000
1606128431.309,-229.004,-47.852,-46.875,-432.129,0.000
1606128431.313,-73.730,-37.109,-35.156,-79.102,0.000
1606128431.317,125.977,-19.531,-21.973,314.453,0.000
1606128431.321,119.629,-13.184,-13.672,246.582,0.000
1606128431.325,-113.770,-33.203,-31.738,-216.797,0.000
1606128431.329,-250.488,-48.340,-42.969,-435.059,0.000
1606128431.333,-107.910,-38.574,-27.832,-118.652,0.000
1606128431.337,119.141,-13.184,-10.742,289.551,0.000
1606128431.340,138.184,-6.348,-6.348,278.320,0.000
1606128431.344,-86.426,-36.621,-26.367,-159.668,0.000
1606128431.348,-246.094,-58.594,-41.504,-433.594,0.000
1606128431.352,-132.812,-39.551,-31.738,-179.688,0.000
1606128431.356,105.957,-14.160,-20.020,267.090,0.000
1606128431.360,158.691,-17.090,-16.113,326.660,0.000
1606128431.364,-62.988,-33.203,-37.109,-109.375,0.000
1606128431.368,-242.676,-37.109,-50.781,-424.805,0.000
1606128431.372,-151.855,-32.715,-31.250,-224.121,0.000
1606128431.376,95.215,-12.695,-13.184,239.258,0.000
1606128431.380,178.711,-8.301,-18.555,354.492,0.000
1606128431.383,-13.672,-35.156,-35.645,-31.250,0.000
1606128431.387,-231.934,-55.664,-41.016,-385.742,0.000
1606128431.391,-159.668,-49.316,-31.738,-265.625,0.000
1606128431.395,88.379,-15.137,-16.602,203.613,0.000
1606128431.399,167.480,-6.348,-17.578,368.164,0.000
1606128431.403,12.207,-24.414,-30.762,12.695,0.000
1606128431.407,-200.684,-37.598,-44.922,-371.582,0.000
1606128431.411,-192.383,-44.922,-46.387,-309.570,0.000
1606128431.415,45.898,-24.414,-22.461,147.461,0.000
1606128431.419,185.059,-4.883,-10.254,367.676,0.000
1606128431.423,43.945,-23.926,-24.902,71.777,0.000
1606128431.426,-183.105,-56.152,-41.992,-347.168,0.000
1606128431.430,-211.914,-61.523,-52.246,-341.797,0.000
1606128431.434,9.277,-39.062,-35.645,98.145,0.000
1606128431.438,180.176,-11.719,-10.742,362.793,0.000
1606128431.442,80.566,-20.020,-21.973,125.488,0.000
1606128431.446,-156.250,-22.461,-46.875,-312.988,0.000
1606128431.450,-208.984,-25.391,-40.039,-377.930,0.000
1606128431.454,-10.254,-36.133,-15.137,43.945,0.000
1606128431.458,165.039,-16.113,-8.789,356.445,0.000
1606128431.462,95.215,-19.531,-20.020,167.480,0.000
1606128431.465,-149.902,-49.316,-43.457,-293.457,0.000
1606128431.469,-236.816,-68.359,-48.340,-408.203,0.000
1606128431.473,-50.293,-53.223,-31.738,-27.344,0.000
1606128431.477,148.926,-22.461,-20.996,324.707,0.000
1606128431.481,104.492,-21.973,-28.809,218.262,0.000
1606128431.485,-135.742,-45.898,-45.410,-243.652,0.000
1606128431.489,-243.164,-55.176,-45.410,-412.109,0.000
1606128431.493,-71.289,-36.133,-28.809,-69.824,0.000
1606128431.497,158.691,-12.207,-11.719,312.988,0.000
1606128431.501,144.043,-9.277,-7.812,261.230,0.000
1606128431.505,-98.633,-33.203,-29.785,-185.059,0.000
1606128431.508,-231.445,-56.641,-41.992,-416.016,0.000
1606128431.512,-99.609,-42.480,-29.297,-129.883,0.000
1606128431.516,122.559,-12.695,-15.625,297.363,0.000
1606128431.520,147.461,-10.254,-16.113,298.340,0.000
1606128431.524,-73.242,-35.645,-38.574,-147.949,0.000
1606128431.528,-241.699,-56.641,-44.434,-422.363,0.000
1606128431.532,-148.926,-50.293,-33.203,-187.500,0.000
1606128431.536,100.098,-21.973,-21.973,259.277,0.000
1606128431.540,173.340,-11.230,-18.066,334.473,0.000
1606128431.544,-37.598,-32.715,-23.926,-79.590,0.000
1606128431.548,-236.328,-53.711,-33.691,-412.109,0.000
1606128431.551,-176.758,-46.875,-29.785,-249.512,0.000
1606128431.555,75.684,-13.672,-6.348,212.402,0.000
1606128431.559,172.363,-1.465,2.441,342.285,0.000
1606128431.563,-15.625,-28.809,-20.508,-47.363,0.000
1606128431.567,-224.609,-49.805,-37.109,-414.551,0.000
1606128431.571,-195.312,-45.898,-26.367,-297.363,0.000
1606128431.575,48.340,-25.879,-14.160,176.270,0.000
1606128431.579,168.945,-8.301,-15.625,360.840,0.000
1606128431.583,10.742,-22.949,-26.855,25.879,0.000
1606128431.587,-210.449,-45.410,-40.527,-374.023,0.000
1606128431.590,-214.355,-47.363,-36.133,-324.707,0.000
1606128431.594,19.043,-23.926,-21.484,129.883,0.000
1606128431.598,164.062,-3.418,-8.789,363.281,0.000
1606128431.602,41.016,-17.578,-14.648,83.008,0.000
1606128431.606,-187.012,-43.945,-36.621,-362.793,0.000
1606128431.610,-222.168,-52.246,-36.621,-377.930,0.000
1606128431.614,4.883,-23.438,-19.531,77.148,0.000
1606128431.618,172.363,9.277,-9.766,360.840,0.000
1606128431.622,83.008,-2.441,-14.160,142.090,0.000
1606128431.626,-149.414,-35.645,-30.762,-312.988,0.000
1606128431.630,-224.121,-42.969,-35.156,-396.484,0.000
1606128431.633,-19.531,-22.461,-19.531,26.855,0.000
1606128431.637,173.828,-1.953,-5.371,357.422,0.000
1606128431.641,99.609,-12.695,-5.371,191.406,0.000
1606128431.645,-152.832,-40.039,-29.297,-280.762,0.000
1606128431.649,-241.211,-46.387,-43.457,-420.410,0.000
1606128431.653,-56.152,-33.203,-22.461,-39.551,0.000
1606128431.657,150.391,-15.137,-5.371,334.961,0.000
1606128431.661,121.094,-14.160,-18.555,230.469,0.000
1606128431.665,-123.047,-39.062,-37.109,-246.582,0.000
1606128431.669,-243.164,-51.270,-34.668,-432.129,0.000
1606128431.673,-88.867,-33.203,-19.531,-92.285,0.000
1606128431.676,134.277,-7.812,-4.395,314.453,0.000
1606128431.680,139.160,-10.254,-6.348,268.555,0.000
1606128431.684,-104.492,-31.250,-31.738,-194.824,0.000
1606128431.688,-248.535,-41.504,-35.156,-437.988,0.000
1606128431.692,-112.305,-37.109,-24.902,-161.133,0.000
1606128431.696,119.141,-10.742,-16.113,277.832,0.000
1606128431.700,151.855,-9.766,-16.113,305.176,0.000
1606128431.704,-72.266,-38.086,-34.668,-136.719,0.000
1606128431.708,-239.258,-56.641,-39.551,-427.734,0.000
1606128431.712,-144.531,-44.434,-25.879,-213.867,0.000
1606128431.715,100.098,-15.625,-6.348,239.258,0.000
1606128431.719,170.410,-4.883,0.000,331.543,0.000
1606128431.723,-32.227,-30.762,-19.043,-76.172,0.000
1606128431.727,-226.562,-57.129,-41.016,-403.320,0.000
1606128431.731,-168.457,-57.617,-34.668,-256.836,0.000
1606128431.735,82.520,-27.832,-19.531,200.195,0.000
1606128431.739,183.105,-7.812,-19.043,348.145,0.000
1606128431.743,3.906,-29.297,-29.297,-23.926,0.000
1606128431.747,-205.078,-47.852,-41.504,-389.160,0.000
1606128431.751,-174.805,-43.457,-36.621,-292.480,0.000
1606128431.755,62.988,-18.066,-16.602,170.898,0.000
1606128431.758,180.176,-0.488,-11.719,364.258,0.000
1606128431.762,26.855,-19.531,-20.996,37.109,0.000
1606128431.766,-197.266,-45.410,-40.039,-366.699,0.000
1606128431.770,-197.754,-43.457,-38.574,-335.449,0.000
1606128431.774,37.109,-21.484,-14.648,115.723,0.000
1606128431.778,177.246,-7.812,-5.859,352.051,0.000
1606128431.782,60.547,-20.996,-16.602,84.473,0.000
1606128431.786,-168.457,-45.410,-37.598,-342.773,0.000
1606128431.790,-212.891,-45.410,-41.992,-375.488,0.000
1606128431.794,1.465,-21.484,-18.066,64.453,0.000
1606128431.798,171.875,-1.465,-9.766,354.004,0.000
1606128431.801,80.078,-17.090,-25.391,131.348,0.000
1606128431.805,-157.227,-34.180,-42.969,-313.477,0.000
1606128431.809,-219.238,-34.668,-46.875,-394.043,0.000
1606128431.813,-16.113,-23.438,-28.320,1.953,0.000
1606128431.817,161.621,-3.418,-14.160,335.449,0.000
1606128431.821,97.656,-3.906,-19.043,189.453,0.000
1606128431.825,-133.301,-18.555,-36.621,-272.949,0.000
1606128431.829,-234.863,-32.227,-46.387,-432.129,0.000
1606128431.833,-71.777,-32.227,-34.180,-68.359,0.000
1606128431.837,139.648,-9.766,-14.160,314.453,0.000
1606128431.840,118.652,-14.160,-19.043,223.633,0.000
1606128431.844,-122.559,-39.062,-47.363,-244.629,0.000
1606128431.848,-244.141,-48.340,-59.082,-440.430,0.000
1606128431.852,-101.562,-33.691,-39.551,-114.258,0.000
1606128431.856,114.746,-9.766,-18.555,291.992,0.000
1606128431.860,122.070,-11.230,-21.484,269.043,0.000
1606128431.864,-106.934,-25.879,-34.668,-186.035,0.000
1606128431.868,-254.883,-39.062,-38.574,-445.801,0.000
1606128431.872,-129.395,-34.180,-33.691,-178.711,0.000
1606128431.876,89.355,-8.789,-21.973,235.840,0.000
1606128431.880,108.887,-9.766,-19.043,257.324,0.000
1606128431.883,-106.934,-23.926,-35.645,-177.734,0.000
1606128431.887,-281.738,-41.504,-44.434,-478.027,0.000
1606128431.891,-193.848,-32.227,-34.180,-272.949,0.000
1606128431.895,46.875,-3.906,-10.254,176.270,0.000
1606128431.899,111.816,0.977,-1.465,269.043,0.000
1606128431.903,-91.797,-19.531,-20.996,-140.137,0.000
1606128431.907,-284.180,-38.574,-36.133,-471.680,0.000
1606128431.911,-228.516,-29.785,-30.273,-326.172,0.000
1606128431.915,12.207,-5.859,-16.113,142.090,0.000
1606128431.919,123.047,-1.953,-17.090,307.129,0.000
1606128431.923,-36.133,-17.578,-25.879,-46.875,0.000
1606128431.926,-247.070,-43.945,-37.598,-425.293,0.000
1606128431.930,-222.168,-45.898,-42.969,-341.797,0.000
1606128431.934,29.297,-13.672,-25.391,139.648,0.000
1606128431.938,166.992,-6.348,-17.578,360.352,0.000
1606128431.942,24.414,-33.691,-30.273,44.434,0.000
1606128431.946,-203.125,-53.223,-50.293,-383.789,0.000
1606128431.950,-208.496,-52.246,-55.664,-361.816,0.000
1606128431.954,37.598,-29.785,-34.668,108.887,0.000
1606128431.958,191.406,-9.766,-17.090,385.742,0.000
1606128431.962,70.801,-22.949,-23.438,135.742,0.000
1606128431.965,-163.574,-47.363,-41.504,-313.965,0.000
1606128431.969,-210.449,-53.711,-42.969,-359.375,0.000
1606128431.973,5.859,-34.180,-23.438,84.473,0.000
1606128431.977,187.012,-12.695,-12.207,395.020,0.000
1606128431.981,107.910,-16.602,-23.438,193.848,0.000
1606128431.985,-138.672,-37.109,-38.574,-260.742,0.000
1606128431.989,-214.355,-48.340,-41.992,-370.117,0.000
1606128431.993,-13.184,-35.645,-28.809,28.320,0.000
1606128431.997,181.152,-12.695,-12.695,384.277,0.000
1606128432.001,132.324,-15.137,-23.926,241.211,0.000
1606128432.005,-108.398,-34.668,-47.363,-230.469,0.000
1606128432.008,-215.820,-38.086,-44.434,-383.301,0.000
1606128432.012,-52.734,-33.203,-26.367,-29.785,0.000
1606128432.016,160.156,-20.508,-17.578,345.215,0.000
1606128432.020,151.367,-21.484,-23.438,270.996,0.000
1606128432.024,-84.473,-38.086,-37.109,-195.801,0.000
1606128432.028,-228.027,-51.270,-39.062,-410.156,0.000
1606128432.032,-84.961,-44.434,-29.785,-103.516,0.000
1606128432.036,154.785,-17.090,-20.020,318.848,0.000
1606128432.040,166.016,-10.742,-22.461,314.453,0.000
1606128432.044,-70.312,-30.273,-36.133,-150.391,0.000
1606128432.048,-223.633,-28.320,-47.852,-427.246,0.000
1606128432.051,-109.375,-19.531,-40.039,-164.551,0.000
1606128432.055,135.254,-13.184,-23.926,282.227,0.000
1606128432.059,191.406,-14.160,-16.113,329.590,0.000
1606128432.063,-24.414,-32.227,-27.832,-95.703,0.000
1606128432.067,-206.543,-34.180,-41.016,-412.598,0.000
1606128432.071,-130.371,-34.180,-38.086,-218.750,0.000
1606128432.075,114.258,-13.672,-24.414,248.047,0.000
1606128432.079,201.660,-1.465,-17.578,358.398,0.000
1606128432.083,5.371,-21.484,-29.297,-34.180,0.000
1606128432.087,-201.172,-40.527,-41.016,-378.906,0.000
1606128432.090,-152.344,-39.551,-35.156,-253.906,0.000
1606128432.094,88.867,-17.578,-16.602,210.938,0.000
1606128432.098,198.242,-2.930,-2.930,378.906,0.000
1606128432.102,31.738,-20.996,-17.578,29.297,0.000
1606128432.106,-187.012,-43.457,-45.898,-349.609,0.000
1606128432.110,-174.316,-41.992,-42.480,-289.551,0.000
1606128432.114,51.758,-22.949,-16.602,167.480,0.000
1606128432.118,187.012,-5.859,-8.789,386.230,0.000
1606128432.122,58.594,-17.578,-22.949,82.031,0.000
1606128432.126,-174.316,-38.086,-38.574,-334.473,0.000
1606128432.130,-203.125,-43.945,-41.504,-337.402,0.000
1606128432.133,25.879,-29.297,-26.367,115.234,0.000
1606128432.137,187.988,-9.766,-18.555,384.277,0.000
1606128432.141,74.707,-19.531,-29.785,135.254,0.000
1606128432.145,-171.387,-45.898,-43.945,-312.988,0.000
1606128432.149,-221.680,-49.316,-41.992,-364.258,0.000
1606128432.153,-8.789,-25.879,-28.809,60.059,0.000
1606128432.157,165.527,-9.277,-12.207,373.535,0.000
1606128432.161,91.797,-19.531,-13.672,188.965,0.000
1606128432.165,-141.113,-45.410,-37.598,-279.785,0.000
1606128432.169,-220.215,-53.711,-40.039,-395.996,0.000
1606128432.173,-32.227,-34.668,-27.344,-7.324,0.000
1606128432.176,167.969,-14.648,-17.578,345.703,0.000
1606128432.180,128.418,-15.625,-18.066,224.609,0.000
1606128432.184,-113.770,-36.621,-30.762,-239.746,0.000
1606128432.188,-228.027,-51.758,-41.016,-409.668,0.000
1606128432.192,-64.453,-38.574,-23.438,-58.594,0.000
1606128432.196,156.250,-4.883,0.000,333.008,0.000
1606128432.200,145.996,-7.812,-11.230,268.066,0.000
1606128432.204,-101.562,-37.109,-39.062,-199.707,0.000
1606128432.208,-233.398,-37.598,-45.410,-417.969,0.000
1606128432.212,-85.938,-29.785,-28.320,-116.699,0.000
1606128432.215,135.742,-21.484,-13.672,291.992,0.000
1606128432.219,151.367,-22.461,-17.578,294.434,0.000
1606128432.223,-73.242,-44.922,-33.691,-146.973,0.000
1606128432.227,-234.863,-54.199,-40.527,-417.969,0.000
1606128432.231,-125.488,-36.621,-30.762,-182.617,0.000
1606128432.235,121.582,-6.836,-9.766,256.348,0.000
1606128432.239,176.270,-0.977,-6.348,323.242,0.000
1606128432.243,-37.109,-24.902,-30.762,-97.168,0.000
1606128432.247,-223.145,-35.156,-49.316,-422.852,0.000
1606128432.251,-152.344,-36.621,-34.180,-237.305,0.000
1606128432.255,93.750,-22.949,-2.930,235.840,0.000
1606128432.258,179.688,-13.184,3.418,362.305,0.000
1606128432.262,-0.977,-30.273,-20.020,-28.809,0.000
1606128432.266,-204.102,-53.711,-47.852,-407.715,0.000
1606128432.270,-176.270,-48.340,-49.805,-295.898,0.000
1606128432.274,68.359,-14.648,-20.996,175.781,0.000
1606128432.278,184.082,-1.953,-15.625,354.004,0.000
1606128432.282,22.461,-18.066,-34.668,18.555,0.000
1606128432.286,-201.172,-41.992,-48.340,-384.277,0.000
1606128432.290,-204.590,-41.992,-45.898,-343.750,0.000
1606128432.294,35.645,-16.113,-25.879,126.465,0.000
1606128432.298,181.641,-3.906,-12.695,361.328,0.000
1606128432.301,53.711,-19.531,-16.602,66.406,0.000
1606128432.305,-182.617,-31.738,-38.086,-362.793,0.000
1606128432.309,-225.098,-30.762,-47.852,-373.047,0.000
1606128432.313,1.465,-23.926,-32.227,72.266,0.000
1606128432.317,172.852,-13.672,-22.461,349.121,0.000
1606128432.321,77.637,-25.391,-29.297,129.395,0.000
1606128432.325,-164.062,-45.898,-46.875,-321.777,0.000
1606128432.329,-232.422,-52.246,-47.363,-402.832,0.000
1606128432.333,-19.531,-29.297,-31.738,29.297,0.000
1606128432.337,180.664,-3.418,-24.414,358.398,0.000
1606128432.340,102.051,-8.301,-24.414,171.875,0.000
1606128432.344,-151.367,-41.504,-42.969,-294.434,0.000
1606128432.348,-245.605,-57.129,-56.152,-425.781,0.000
1606128432.352,-67.383,-36.621,-37.598,-51.270,0.000
1606128432.356,137.695,-11.719,-23.438,325.195,0.000
1606128432.360,113.770,-17.090,-27.344,228.027,0.000
1606128432.364,-125.977,-42.480,-45.410,-249.512,0.000
1606128432.368,-243.164,-50.781,-43.945,-432.129,0.000
1606128432.372,-77.148,-36.133,-35.645,-94.727,0.000
1606128432.376,151.367,-12.695,-27.832,300.293,0.000
1606128432.380,144.043,-13.672,-11.719,265.137,0.000
1606128432.383,-94.727,-38.574,-23.926,-196.289,0.000
1606128432.387,-244.141,-33.203,-48.828,-443.848,0.000
1606128432.391,-117.188,-18.066,-44.434,-159.668,0.000
1606128432.395,110.352,-11.230,-21.484,261.230,0.000
1606128432.399,144.531,-8.789,-19.043,282.715,0.000
1606128432.403,-72.266,-28.809,-35.156,-145.508,0.000
1606128432.407,-247.070,-56.641,-43.457,-440.918,0.000
1606128432.411,-148.438,-55.664,-35.645,-214.355,0.000
1606128432.415,90.820,-19.531,-16.113,250.977,0.000
1606128432.419,148.438,-14.648,-13.672,333.008,0.000
1606128432.423,-42.969,-37.598,-32.227,-83.008,0.000
1606128432.426,-222.656,-50.781,-46.875,-412.109,0.000
1606128432.430,-165.039,-52.734,-41.016,-256.348,0.000
1606128432.434,76.172,-25.391,-18.555,205.566,0.000
1606128432.438,169.922,-11.719,-12.207,350.098,0.000
1606128432.442,-7.324,-35.156,-35.156,-17.578,0.000
1606128432.446,-207.031,-49.316,-41.504,-385.254,0.000
1606128432.450,-180.176,-49.805,-23.926,-291.992,0.000
1606128432.454,50.293,-26.367,-12.695,173.340,0.000
1606128432.458,170.410,-8.301,-6.836,359.863,0.000
1606128432.462,17.578,-28.320,-20.020,32.715,0.000
1606128432.465,-199.219,-53.223,-42.480,-363.281,0.000
1606128432.469,-194.824,-53.223,-41.016,-329.590,0.000
1606128432.473,25.879,-26.855,-17.090,116.699,0.000
1606128432.477,169.434,-10.254,-9.277,355.957,0.000
1606128432.481,47.852,-32.715,-20.508,91.797,0.000
1606128432.485,-183.594,-40.527,-34.180,-336.914,0.000
1606128432.489,-223.633,-24.902,-42.969,-364.746,0.000
1606128432.493,-7.812,-17.578,-30.273,71.777,0.000
1606128432.497,160.645,-4.883,-18.555,364.746,0.000
1606128432.501,65.430,-16.602,-34.180,142.090,0.000
1606128432.505,-172.363,-42.480,-48.340,-310.547,0.000
1606128432.508,-234.375,-43.945,-41.992,-392.090,0.000
1606128432.512,-31.250,-25.391,-29.785,8.789,0.000
1606128432.516,161.133,-12.695,-15.625,344.238,0.000
1606128432.520,102.051,-22.461,-19.531,199.219,0.000
1606128432.524,-140.625,-38.086,-45.898,-253.418,0.000
1606128432.528,-237.793,-43.457,-49.316,-400.879,0.000
1606128432.532,-61.035,-32.715,-31.738,-38.574,0.000
1606128432.536,149.902,-10.254,-21.973,338.379,0.000
1606128432.540,126.465,-9.766,-31.738,248.535,0.000
1606128432.544,-116.211,-35.156,-49.805,-226.074,0.000
1606128432.548,-235.840,-49.316,-55.176,-423.828,0.000
1606128432.551,-81.543,-30.273,-39.062,-92.773,0.000
1606128432.555,138.184,-4.395,-21.973,311.523,0.000
1606128432.559,148.926,-7.324,-15.137,282.227,0.000
1606128432.563,-81.055,-38.086,-35.156,-172.363,0.000
1606128432.567,-235.352,-61.035,-49.316,-420.898,0.000
1606128432.571,-109.375,-35.156,-28.809,-147.949,0.000
1606128432.575,125.000,-7.324,-14.648,280.273,0.000
1606128432.579,160.645,-13.672,-10.254,309.082,0.000
1606128432.583,-56.152,-32.227,-30.762,-129.395,0.000
1606128432.587,-236.816,-41.992,-55.176,-434.570,0.000
1606128432.590,-149.902,-40.527,-43.945,-224.609,0.000
1606128432.594,102.539,-26.367,-20.020,236.816,0.000
1606128432.598,177.246,-13.672,-9.766,332.031,0.000
1606128432.602,-19.043,-35.645,-26.855,-66.406,0.000
1606128432.606,-220.703,-60.547,-44.434,-410.156,0.000
1606128432.610,-163.574,-55.664,-43.457,-244.141,0.000
1606128432.614,85.449,-31.250,-20.996,232.422,0.000
1606128432.618,178.711,-19.531,-16.602,360.352,0.000
1606128432.622,-1.465,-34.180,-34.180,-2.930,0.000
1606128432.626,-222.168,-45.898,-43.945,-390.625,0.000
1606128432.630,-203.125,-43.457,-42.969,-314.941,0.000
1606128432.633,36.133,-23.438,-22.949,157.227,0.000
1606128432.637,166.504,-6.836,-15.625,364.746,0.000
1606128432.641,23.438,-29.785,-31.250,42.969,0.000
1606128432.645,-200.684,-46.875,-42.969,-369.141,0.000
1606128432.649,-207.031,-38.086,-36.133,-338.867,0.000
1606128432.653,26.855,-18.555,-15.625,123.535,0.000
1606128432.657,180.176,-1.465,-9.277,372.559,0.000
1606128432.661,62.988,-19.043,-16.602,112.793,0.000
1606128432.665,-175.781,-28.809,-35.156,-317.383,0.000
1606128432.669,-224.609,-19.043,-50.293,-370.117,0.000
1606128432.673,-12.695,-23.438,-27.344,54.199,0.000
1606128432.676,166.992,-14.648,-6.836,365.234,0.000
1606128432.680,84.473,-22.949,-16.602,170.898,0.000
1606128432.684,-157.715,-45.898,-37.109,-288.086,0.000
1606128432.688,-222.656,-44.922,-42.480,-388.184,0.000
1606128432.692,-18.066,-16.602,-28.320,15.625,0.000
1606128432.696,178.711,3.418,-9.277,359.375,0.000
1606128432.700,122.559,-14.160,-14.648,219.727,0.000
1606128432.704,-120.605,-42.969,-35.156,-249.023,0.000
1606128432.708,-226.562,-51.270,-41.016,-407.715,0.000
1606128432.712,-60.547,-38.086,-36.133,-48.340,0.000
1606128432.715,155.762,-11.719,-19.043,332.520,0.000
1606128432.719,146.484,-10.742,-14.160,253.418,0.000
1606128432.723,-92.773,-31.738,-25.879,-213.379,0.000
1606128432.727,-230.957,-38.086,-33.203,-422.852,0.000
1606128432.731,-84.473,-32.715,-26.855,-118.652,0.000
1606128432.735,142.090,-13.672,-9.277,304.688,0.000
1606128432.739,159.668,-10.742,-4.883,302.734,0.000
1606128432.743,-59.082,-30.273,-20.996,-153.809,0.000
1606128432.747,-225.098,-40.527,-33.203,-422.363,0.000
1606128432.751,-125.488,-36.133,-29.785,-171.875,0.000
1606128432.755,115.723,-9.277,-11.719,269.531,0.000
1606128432.758,183.105,9.766,0.000,329.590,0.000
1606128432.762,-26.855,-24.902,-27.832,-102.539,0.000
1606128432.766,-228.516,-48.828,-57.129,-426.758,0.000
1606128432.770,-152.832,-35.156,-40.039,-227.539,0.000
1606128432.774,100.098,-21.484,-18.066,237.793,0.000
1606128432.778,177.246,-15.137,-16.113,346.191,0.000
1606128432.782,-14.648,-30.762,-26.855,-47.363,0.000
1606128432.786,-214.355,-50.781,-44.434,-403.809,0.000
1606128432.790,-175.293,-41.992,-36.621,-272.949,0.000
1606128432.794,70.312,-16.602,-14.160,195.801,0.000
1606128432.798,172.363,-8.789,-11.719,351.074,0.000
1606128432.801,3.418,-29.297,-24.902,-0.488,0.000
1606128432.805,-194.336,-25.391,-43.457,-381.836,0.000
1606128432.809,-177.246,-23.926,-40.527,-313.965,0.000
1606128432.813,47.363,-25.391,-15.625,155.762,0.000
1606128432.817,178.711,-8.789,-1.465,367.188,0.000
1606128432.821,46.875,-22.949,-12.695,63.477,0.000
1606128432.825,-180.664,-42.969,-39.551,-349.121,0.000
1606128432.829,-211.426,-46.875,-38.086,-345.703,0.000
1606128432.833,17.578,-26.855,-6.836,107.910,0.000
1606128432.837,180.176,-6.836,0.488,365.234,0.000
1606128432.840,66.406,-28.809,-12.695,108.398,0.000
1606128432.844,-168.457,-56.641,-30.762,-327.637,0.000
1606128432.848,-220.703,-53.711,-38.086,-378.418,0.000
1606128432.852,-6.348,-20.020,-11.719,52.734,0.000
1606128432.856,174.805,1.465,-5.859,360.352,0.000
1606128432.860,93.750,-19.531,-22.949,162.109,0.000
1606128432.864,-148.926,-44.434,-38.574,-290.527,0.000
1606128432.868,-227.051,-37.598,-40.527,-397.949,0.000
1606128432.872,-39.551,-22.461,-27.832,-10.742,0.000
1606128432.876,160.645,-6.836,-9.766,337.891,0.000
1606128432.880,117.676,-16.602,-13.184,217.773,0.000
1606128432.883,-131.348,-41.992,-37.598,-245.117,0.000
1606128432.887,-243.652,-53.711,-40.039,-417.969,0.000
1606128432.891,-82.031,-41.504,-27.832,-70.801,0.000
1606128432.895,131.836,-12.695,-13.184,320.312,0.000
1606128432.899,124.023,-12.695,-21.973,257.324,0.000
1606128432.903,-111.328,-35.156,-36.133,-208.008,0.000
1606128432.907,-245.605,-51.270,-37.598,-426.758,0.000
1606128432.911,-114.258,-38.574,-28.320,-128.906,0.000
1606128432.915,110.352,-2.930,-12.207,287.109,0.000
1606128432.919,135.742,-0.977,-13.184,291.504,0.000
1606128432.923,-85.449,-36.133,-31.250,-153.320,0.000
1606128432.926,-243.652,-53.711,-43.457,-433.594,0.000
1606128432.930,-144.043,-45.410,-33.203,-190.430,0.000
1606128432.934,92.773,-28.809,-13.672,256.836,0.000
1606128432.938,150.391,-17.090,-15.625,319.336,0.000
1606128432.942,-57.617,-30.273,-32.227,-97.656,0.000
1606128432.946,-242.676,-46.387,-42.969,-412.598,0.000
1606128432.950,-169.434,-41.016,-40.527,-234.863,0.000
1606128432.954,78.613,-21.484,-25.879,224.121,0.000
1606128432.958,167.480,-9.277,-15.625,349.121,0.000
1606128432.962,-9.766,-35.645,-22.949,-34.180,0.000
1606128432.965,-209.473,-65.918,-40.039,-392.578,0.000
1606128432.969,-176.270,-57.617,-38.574,-269.531,0.000
1606128432.973,63.477,-23.438,-20.996,191.406,0.000
1606128432.977,169.434,-8.789,-9.277,360.352,0.000
1606128432.981,3.418,-25.879,-20.020,17.578,0.000
1606128432.985,-208.008,-48.340,-35.156,-377.930,0.000
1606128432.989,-201.660,-48.340,-34.668,-326.660,0.000
1606128432.993,35.645,-22.949,-25.391,140.625,0.000
1606128432.997,185.547,-12.207,-16.113,373.047,0.000
1606128433.001,51.758,-27.832,-25.391,77.637,0.000
1606128433.005,-191.895,-61.035,-45.410,-353.516,0.000
1606128433.008,-226.562,-66.406,-45.898,-365.723,0.000
1606128433.012,3.906,-30.273,-23.926,82.520,0.000
1606128433.016,172.363,-15.625,-10.742,360.352,0.000
1606128433.020,69.336,-23.926,-27.832,129.395,0.000
1606128433.024,-173.828,-41.992,-48.828,-317.383,0.000
1606128433.028,-232.910,-52.734,-40.039,-395.020,0.000
1606128433.032,-28.809,-34.180,-21.484,20.996,0.000
1606128433.036,153.809,-17.090,-15.137,348.145,0.000
1606128433.040,90.820,-22.461,-21.973,183.105,0.000
1606128433.044,-147.461,-39.551,-35.156,-282.227,0.000
1606128433.048,-232.910,-36.621,-42.969,-415.039,0.000
1606128433.051,-46.387,-20.508,-29.297,-32.227,0.000
1606128433.055,156.738,-6.836,-16.602,331.543,0.000
1606128433.059,120.117,-9.766,-28.320,220.215,0.000
1606128433.063,-119.629,-38.086,-45.898,-246.582,0.000
1606128433.067,-237.305,-55.176,-47.852,-430.176,0.000
1606128433.071,-83.008,-35.645,-35.156,-93.262,0.000
1606128433.075,138.672,-7.812,-19.043,313.965,0.000
1606128433.079,141.113,-10.254,-19.043,273.926,0.000
1606128433.083,-97.656,-31.738,-40.527,-187.988,0.000
1606128433.087,-239.258,-47.852,-49.805,-425.293,0.000
1606128433.090,-108.887,-41.992,-34.180,-150.391,0.000
1606128433.094,124.512,-20.508,-25.391,281.250,0.000
1606128433.098,158.203,-19.531,-31.738,306.641,0.000
1606128433.102,-71.777,-39.062,-43.945,-142.090,0.000
1606128433.106,-241.211,-57.129,-45.410,-434.570,0.000
1606128433.110,-144.531,-51.270,-28.809,-212.891,0.000
1606128433.114,94.727,-33.203,-13.672,238.770,0.000
1606128433.118,163.574,-24.902,-18.066,326.172,0.000
1606128433.122,-40.527,-38.574,-39.551,-81.055,0.000
1606128433.126,-228.516,-51.758,-42.969,-413.086,0.000
1606128433.130,-171.387,-44.434,-35.645,-252.930,0.000
1606128433.133,68.848,-21.484,-24.414,220.215,0.000
1606128433.137,173.340,-12.695,-18.066,359.863,0.000
1606128433.141,-5.371,-37.109,-28.809,-19.043,0.000
1606128433.145,-226.074,-59.082,-52.246,-397.461,0.000
1606128433.149,-198.242,-49.805,-54.688,-302.246,0.000
1606128433.153,48.340,-22.949,-25.879,175.781,0.000
1606128433.157,166.016,-17.090,-9.766,376.953,0.000
1606128433.161,17.578,-33.203,-19.531,48.828,0.000
1606128433.165,-202.637,-49.316,-35.645,-365.234,0.000
1606128433.169,-212.891,-51.270,-42.969,-341.797,0.000
1606128433.173,17.578,-27.344,-22.461,119.141,0.000
1606128433.176,175.293,-5.371,-7.324,370.605,0.000
1606128433.180,53.223,-15.137,-30.273,97.168,0.000
1606128433.184,-187.988,-45.898,-49.316,-343.262,0.000
1606128433.188,-229.492,-55.176,-45.410,-376.953,0.000
1606128433.192,-7.324,-25.391,-19.531,65.430,0.000
1606128433.196,169.434,-4.395,-7.324,363.770,0.000
1606128433.200,76.172,-16.602,-17.090,153.320,0.000
1606128433.204,-164.551,-44.434,-32.715,-299.316,0.000
1606128433.208,-228.516,-52.734,-31.250,-388.672,0.000
1606128433.212,-25.391,-25.391,-15.625,17.578,0.000
1606128433.215,170.410,-1.953,-4.883,353.027,0.000
1606128433.219,110.840,-18.066,-12.695,195.312,0.000
1606128433.223,-133.789,-43.457,-35.156,-264.648,0.000
1606128433.227,-227.051,-36.621,-38.086,-396.973,0.000
1606128433.231,-56.152,-24.414,-20.508,-37.109,0.000
1606128433.235,155.762,-9.277,-3.906,330.566,0.000
1606128433.239,132.324,-11.719,-13.184,238.770,0.000
1606128433.243,-117.188,-40.527,-30.762,-232.422,0.000
1606128433.247,-241.699,-37.109,-33.203,-422.852,0.000
1606128433.251,-90.332,-24.414,-18.066,-94.238,0.000
1606128433.255,131.836,-10.742,-0.977,312.012,0.000
1606128433.258,140.625,-8.301,-8.301,282.227,0.000
1606128433.262,-91.797,-32.715,-35.156,-176.758,0.000
1606128433.266,-237.793,-48.340,-44.434,-423.828,0.000
1606128433.270,-117.188,-39.551,-31.250,-162.598,0.000
1606128433.274,109.863,-17.090,-10.742,272.461,0.000
1606128433.278,150.879,-13.672,-7.324,313.477,0.000
1606128433.282,-64.941,-34.668,-34.668,-126.465,0.000
1606128433.286,-238.281,-40.527,-54.199,-428.711,0.000
1606128433.290,-150.391,-32.227,-41.992,-217.285,0.000
1606128433.294,94.727,-12.207,-16.113,233.887,0.000
1606128433.298,172.852,-2.441,-8.301,325.684,0.000
1606128433.301,-28.809,-33.203,-32.227,-74.707,0.000
1606128433.305,-229.980,-54.199,-49.316,-411.133,0.000
1606128433.309,-174.316,-41.016,-39.062,-259.277,0.000
1606128433.313,76.172,-18.555,-19.043,204.590,0.000
1606128433.317,177.246,-6.836,-13.184,353.516,0.000
1606128433.321,2.930,-16.602,-22.949,-6.348,0.000
1606128433.325,-210.938,-40.527,-38.574,-388.184,0.000
1606128433.329,-198.730,-42.969,-40.527,-314.453,0.000
1606128433.333,38.574,-21.484,-16.602,151.855,0.000
1606128433.337,169.434,-10.254,-3.906,366.211,0.000
1606128433.340,24.414,-27.832,-27.832,46.387,0.000
1606128433.344,-208.008,-59.082,-51.270,-375.000,0.000
1606128433.348,-227.539,-62.988,-50.781,-357.422,0.000
1606128433.352,8.301,-32.715,-23.926,110.352,0.000
1606128433.356,166.504,-15.625,-3.906,369.629,0.000
1606128433.360,49.316,-26.855,-16.113,101.562,0.000
1606128433.364,-188.965,-38.574,-32.715,-334.473,0.000
1606128433.368,-230.957,-42.480,-38.574,-374.512,0.000
1606128433.372,-16.602,-33.691,-20.996,59.570,0.000
1606128433.376,162.598,-12.695,-2.930,359.375,0.000
1606128433.380,76.660,-21.973,-21.484,148.926,0.000
1606128433.383,-166.504,-41.992,-47.363,-310.547,0.000
1606128433.387,-240.234,-49.805,-47.852,-411.133,0.000
1606128433.391,-46.387,-39.551,-27.832,-12.207,0.000
1606128433.395,151.367,-20.996,-10.742,330.566,0.000
1606128433.399,106.445,-24.414,-10.742,194.824,0.000
1606128433.403,-129.395,-41.504,-32.715,-262.207,0.000
1606128433.407,-240.234,-54.688,-45.410,-416.992,0.000
1606128433.411,-70.312,-41.504,-22.461,-60.059,0.000
1606128433.415,152.832,-10.254,-1.465,329.102,0.000
1606128433.419,135.742,-9.766,-7.812,258.789,0.000
1606128433.423,-112.793,-34.668,-35.156,-218.750,0.000
1606128433.426,-253.418,-31.250,-53.711,-449.219,0.000
1606128433.430,-106.445,-16.602,-33.203,-140.625,0.000
1606128433.434,128.418,-12.207,-6.836,292.480,0.000
1606128433.438,144.043,-8.789,-11.719,289.551,0.000
1606128433.442,-84.961,-35.156,-35.645,-165.527,0.000
1606128433.446,-241.699,-55.664,-41.504,-427.734,0.000
1606128433.450,-127.441,-44.922,-24.414,-171.387,0.000
1606128433.454,118.164,-23.438,-23.438,273.926,0.000
1606128433.458,171.875,-14.648,-22.949,330.078,0.000
1606128433.462,-36.621,-34.180,-29.297,-89.355,0.000
1606128433.465,-217.285,-43.945,-47.363,-406.250,0.000
1606128433.469,-142.090,-36.621,-34.668,-220.703,0.000
1606128433.473,92.773,-17.578,-14.648,242.676,0.000
1606128433.477,168.945,-9.277,-20.996,351.562,0.000
1606128433.481,-15.137,-39.551,-41.504,-41.992,0.000
1606128433.485,-208.984,-57.129,-42.969,-387.207,0.000
1606128433.489,-156.250,-46.875,-24.414,-252.930,0.000
1606128433.493,84.473,-20.020,-10.742,213.867,0.000
1606128433.497,197.754,-3.418,-10.742,380.859,0.000
1606128433.501,29.785,-29.785,-25.879,24.414,0.000
1606128433.505,-196.777,-58.594,-41.992,-374.512,0.000
1606128433.508,-189.453,-44.922,-45.898,-314.453,0.000
1606128433.512,52.246,-18.555,-20.996,156.738,0.000
1606128433.516,187.988,-9.277,-10.742,375.000,0.000
1606128433.520,41.992,-21.973,-30.273,67.383,0.000
1606128433.524,-184.570,-40.527,-44.922,-352.051,0.000
1606128433.528,-206.055,-44.434,-47.363,-354.004,0.000
1606128433.532,20.508,-25.391,-29.785,99.121,0.000
1606128433.536,182.129,-7.812,-6.836,376.953,0.000
1606128433.540,77.148,-14.160,-23.438,135.742,0.000
1606128433.544,-163.574,-41.992,-56.641,-314.941,0.000
1606128433.548,-220.215,-48.340,-46.387,-375.000,0.000
1606128433.551,-0.488,-15.625,-18.066,58.594,0.000
1606128433.555,192.871,-3.906,-12.695,368.652,0.000
1606128433.559,110.352,-21.484,-25.391,178.223,0.000
1606128433.563,-140.625,-39.062,-38.086,-273.926,0.000
1606128433.567,-222.656,-36.133,-38.574,-391.602,0.000
1606128433.571,-39.062,-22.461,-21.484,-9.766,0.000
1606128433.575,161.133,-8.789,-1.953,348.633,0.000
1606128433.579,124.512,-15.137,-6.836,234.375,0.000
1606128433.583,-113.281,-46.387,-35.645,-229.492,0.000
1606128433.587,-221.680,-56.641,-34.180,-409.180,0.000
1606128433.590,-59.082,-37.598,-17.090,-65.918,0.000
1606128433.594,153.809,-16.602,-14.648,324.219,0.000
1606128433.598,144.043,-15.625,-15.625,266.113,0.000
1606128433.602,-84.961,-38.574,-26.855,-185.059,0.000
1606128433.606,-217.285,-33.691,-41.504,-415.527,0.000
1606128433.610,-90.820,-19.531,-39.551,-129.883,0.000
1606128433.614,135.742,-18.555,-20.020,290.527,0.000
1606128433.618,164.551,-16.113,-11.719,295.410,0.000
1606128433.622,-57.617,-38.574,-30.762,-146.484,0.000
1606128433.626,-218.750,-51.758,-38.574,-416.992,0.000
1606128433.630,-126.953,-40.527,-28.809,-183.594,0.000
1606128433.633,106.445,-10.254,-10.254,262.207,0.000
1606128433.637,166.992,-2.441,-5.859,335.449,0.000
1606128433.641,-45.410,-36.133,-31.738,-88.379,0.000
1606128433.645,-225.098,-56.152,-45.410,-410.156,0.000
1606128433.649,-150.879,-42.969,-31.250,-233.887,0.000
1606128433.653,91.797,-19.531,-10.254,222.656,0.000
1606128433.657,181.152,-8.301,-10.742,349.609,0.000
1606128433.661,-0.977,-25.879,-24.902,-31.250,0.000
1606128433.665,-210.449,-43.945,-47.852,-402.832,0.000
1606128433.669,-184.570,-42.480,-47.363,-291.016,0.000
1606128433.673,59.570,-20.508,-21.484,180.176,0.000
1606128433.676,177.246,-5.371,-15.625,359.863,0.000
1606128433.680,20.020,-26.855,-34.180,20.508,0.000
1606128433.684,-202.637,-52.734,-49.316,-381.348,0.000
1606128433.688,-201.660,-52.246,-43.945,-331.055,0.000
1606128433.692,37.598,-20.996,-28.320,136.230,0.000
1606128433.696,184.082,2.930,-16.602,372.070,0.000
1606128433.700,50.781,-19.531,-19.531,85.449,0.000
1606128433.704,-191.406,-46.387,-37.598,-354.004,0.000
1606128433.708,-218.750,-41.504,-41.992,-369.141,0.000
1606128433.712,6.348,-19.531,-17.090,80.566,0.000
1606128433.715,169.434,-10.254,-6.348,354.004,0.000
1606128433.719,74.219,-21.973,-24.902,123.047,0.000
1606128433.723,-171.875,-52.246,-51.270,-332.520,0.000
1606128433.727,-236.328,-64.453,-57.129,-411.621,0.000
1606128433.731,-27.344,-37.109,-29.785,13.672,0.000
1606128433.735,158.203,-16.602,-15.137,341.797,0.000
1606128433.739,97.656,-17.090,-20.020,183.594,0.000
1606128433.743,-147.949,-43.457,-44.434,-275.391,0.000
1606128433.747,-245.605,-65.430,-52.734,-411.133,0.000
1606128433.751,-61.523,-44.434,-30.273,-34.180,0.000
1606128433.755,156.738,-13.672,-6.836,337.402,0.000
1606128433.758,127.930,-14.648,-12.207,239.746,0.000
1606128433.762,-125.977,-48.340,-40.527,-235.840,0.000
1606128433.766,-248.535,-61.035,-47.852,-426.270,0.000
1606128433.770,-87.891,-44.922,-27.832,-94.238,0.000
1606128433.774,137.207,-20.020,-16.113,308.105,0.000
1606128433.778,136.719,-12.695,-20.020,271.973,0.000
1606128433.782,-97.656,-44.922,-41.504,-192.871,0.000
1606128433.786,-236.328,-60.547,-56.152,-434.082,0.000
1606128433.790,-111.328,-37.109,-38.574,-149.902,0.000
1606128433.794,116.211,-15.625,-23.926,278.809,0.000
1606128433.798,149.414,-15.137,-25.879,296.875,0.000
1606128433.801,-75.684,-38.574,-42.969,-147.461,0.000
1606128433.805,-246.094,-61.035,-54.199,-431.641,0.000
1606128433.809,-148.926,-46.387,-38.086,-200.684,0.000
1606128433.813,92.773,-14.160,-16.602,252.441,0.000
1606128433.817,163.574,-3.906,-10.742,329.102,0.000
1606128433.821,-36.621,-28.320,-29.297,-80.078,0.000
1606128433.825,-230.469,-57.129,-45.410,-410.645,0.000
1606128433.829,-172.852,-44.922,-39.551,-255.371,0.000
1606128433.833,70.312,-15.625,-20.996,207.520,0.000
1606128433.837,169.922,-5.859,-18.066,349.121,0.000
1606128433.840,-5.371,-30.762,-34.180,-25.879,0.000
1606128433.844,-211.426,-44.922,-48.340,-400.391,0.000
1606128433.848,-183.105,-33.203,-37.109,-300.293,0.000
1606128433.852,62.500,-19.043,-7.324,168.457,0.000
1606128433.856,185.547,-3.906,-3.906,357.422,0.000
1606128433.860,32.227,-23.438,-16.602,37.598,0.000
1606128433.864,-186.035,-47.363,-30.762,-358.398,0.000
1606128433.868,-191.895,-44.434,-26.855,-333.496,0.000
1606128433.872,42.969,-18.555,-4.395,121.094,0.000
1606128433.876,192.383,0.000,2.441,366.211,0.000
1606128433.880,67.871,-14.648,-20.020,98.145,0.000
1606128433.883,-169.922,-41.992,-39.062,-332.520,0.000
1606128433.887,-212.891,-42.480,-38.086,-370.605,0.000
1606128433.891,3.906,-18.066,-17.578,58.594,0.000
1606128433.895,170.410,-10.742,-2.441,348.633,0.000
1606128433.899,79.102,-22.461,-11.719,142.578,0.000
1606128433.903,-156.250,-40.039,-36.133,-303.711,0.000
1606128433.907,-221.680,-46.387,-42.969,-394.043,0.000
1606128433.911,-26.855,-26.367,-24.902,10.742,0.000
1606128433.915,167.480,-2.441,-5.371,347.656,0.000
1606128433.919,114.746,-12.695,-11.719,201.172,0.000
1606128433.923,-128.906,-43.457,-29.785,-257.324,0.000
1606128433.926,-232.910,-48.340,-32.227,-395.996,0.000
1606128433.930,-69.336,-31.250,-22.949,-35.645,0.000
1606128433.934,140.137,-11.719,-9.766,323.242,0.000
1606128433.938,120.117,-15.137,-17.090,235.840,0.000
1606128433.942,-121.582,-46.875,-40.039,-224.609,0.000
1606128433.946,-246.094,-51.758,-54.199,-427.246,0.000
1606128433.950,-97.656,-30.273,-37.598,-114.258,0.000
1606128433.954,126.953,-11.230,-13.672,290.527,0.000
1606128433.958,137.695,-3.906,-13.672,270.996,0.000
1606128433.962,-92.285,-25.879,-35.645,-175.781,0.000
1606128433.965,-244.629,-46.875,-42.969,-425.293,0.000
1606128433.969,-128.418,-40.527,-30.762,-168.457,0.000
1606128433.973,105.469,-15.137,-16.602,264.160,0.000
1606128433.977,148.926,-5.371,-14.648,310.059,0.000
1606128433.981,-66.406,-26.367,-33.691,-124.023,0.000
1606128433.985,-238.770,-44.922,-46.875,-424.316,0.000
1606128433.989,-144.043,-33.203,-35.156,-210.449,0.000
1606128433.993,101.074,-4.883,-10.742,245.605,0.000
1606128433.997,175.781,-3.418,-2.441,337.402,0.000
1606128434.001,-15.625,-30.762,-18.555,-60.547,0.000
1606128434.005,-211.426,-54.688,-29.785,-396.484,0.000
1606128434.008,-168.457,-45.410,-28.809,-257.324,0.000
1606128434.012,70.801,-11.230,-20.020,203.125,0.000
1606128434.016,171.875,-4.395,-16.113,354.492,0.000
1606128434.020,-4.883,-27.344,-34.668,-10.742,0.000
1606128434.024,-216.309,-56.152,-49.805,-391.113,0.000
1606128434.028,-197.754,-60.059,-40.527,-310.059,0.000
1606128434.032,37.598,-29.785,-23.438,149.902,0.000
1606128434.036,175.293,-12.207,-20.020,358.887,0.000
1606128434.040,47.363,-20.508,-21.973,62.012,0.000
1606128434.044,-175.293,-41.016,-40.527,-345.215,0.000
1606128434.048,-194.336,-39.062,-48.828,-334.961,0.000
1606128434.051,28.809,-10.742,-16.113,114.746,0.000
1606128434.055,176.270,-1.465,-5.371,372.559,0.000
1606128434.059,58.105,-16.113,-33.203,112.305,0.000
1606128434.063,-176.270,-40.527,-48.828,-327.637,0.000
1606128434.067,-219.238,-45.898,-38.574,-374.023,0.000
1606128434.071,-5.371,-21.973,-20.020,51.270,0.000
1606128434.075,168.457,-5.371,-13.184,355.469,0.000
1606128434.079,87.891,-15.625,-22.461,159.180,0.000
1606128434.083,-155.273,-43.457,-40.039,-299.805,0.000
1606128434.087,-231.934,-53.711,-39.062,-405.762,0.000
1606128434.090,-39.062,-32.715,-31.250,-11.230,0.000
1606128434.094,158.691,-12.207,-29.785,337.891,0.000
1606128434.098,116.699,-12.207,-26.367,208.496,0.000
1606128434.102,-123.535,-32.227,-44.434,-260.742,0.000
1606128434.106,-229.980,-45.410,-50.781,-420.410,0.000
1606128434.110,-68.848,-33.203,-32.715,-66.895,0.000
1606128434.114,146.484,-10.254,-12.207,318.848,0.000
1606128434.118,142.090,-9.766,-10.742,257.812,0.000
1606128434.122,-95.703,-40.039,-30.273,-206.055,0.000
1606128434.126,-235.352,-53.223,-37.109,-416.992,0.000
1606128434.130,-92.773,-37.109,-29.785,-108.887,0.000
1606128434.133,129.883,-16.602,-19.043,300.293,0.000
1606128434.137,147.461,-13.184,-17.578,293.945,0.000
1606128434.141,-71.777,-38.574,-30.273,-145.508,0.000
1606128434.145,-227.051,-61.035,-37.598,-407.227,0.000
1606128434.149,-111.816,-52.246,-32.715,-157.715,0.000
1606128434.153,130.859,-14.648,-19.043,282.227,0.000
1606128434.157,174.316,-0.977,-18.066,332.520,0.000
1606128434.161,-44.434,-32.227,-33.691,-99.121,0.000
1606128434.165,-229.492,-44.434,-44.434,-420.898,0.000
1606128434.169,-159.668,-31.250,-37.598,-234.863,0.000
1606128434.173,83.984,-16.113,-18.555,227.051,0.000
1606128434.176,173.828,-8.301,-15.625,342.285,0.000
1606128434.180,-15.137,-28.809,-41.016,-40.527,0.000
1606128434.184,-219.727,-50.781,-55.176,-395.508,0.000
1606128434.188,-172.852,-50.781,-38.086,-271.973,0.000
1606128434.192,74.219,-26.855,-14.648,192.383,0.000
1606128434.196,178.711,-8.789,-11.719,363.281,0.000
1606128434.200,19.043,-23.438,-35.156,27.344,0.000
1606128434.204,-203.125,-43.945,-52.734,-373.047,0.000
1606128434.208,-201.660,-40.527,-43.945,-323.730,0.000
1606128434.212,30.762,-20.996,-25.879,135.254,0.000
1606128434.215,165.039,-8.301,-9.277,366.699,0.000
1606128434.219,38.574,-29.785,-19.531,74.707,0.000
1606128434.223,-189.941,-50.781,-46.875,-354.980,0.000
1606128434.227,-206.543,-37.109,-41.992,-357.422,0.000
1606128434.231,18.555,-23.438,-20.996,88.867,0.000
1606128434.235,171.387,-12.207,-13.672,362.305,0.000
1606128434.239,72.266,-18.066,-24.414,122.559,0.000
1606128434.243,-165.527,-44.922,-37.109,-318.359,0.000
1606128434.247,-223.145,-49.805,-39.551,-382.324,0.000
1606128434.251,-16.113,-28.809,-29.297,28.809,0.000
1606128434.255,167.480,-7.812,-17.090,348.145,0.000
1606128434.258,98.145,-8.789,-19.531,184.570,0.000
1606128434.262,-145.996,-43.945,-37.598,-271.484,0.000
1606128434.266,-234.863,-46.387,-50.293,-394.531,0.000
1606128434.270,-51.270,-20.508,-34.180,-11.719,0.000
1606128434.274,156.738,-1.953,-9.766,350.098,0.000
1606128434.278,121.582,-11.230,-13.672,235.840,0.000
1606128434.282,-125.977,-45.898,-37.598,-228.516,0.000
1606128434.286,-235.840,-47.363,-41.992,-402.832,0.000
1606128434.290,-74.707,-25.879,-23.926,-70.312,0.000
1606128434.294,141.602,-2.930,-11.719,319.824,0.000
1606128434.298,145.020,-6.348,-19.531,271.484,0.000
1606128434.301,-80.566,-32.227,-41.992,-183.594,0.000
1606128434.305,-216.797,-25.879,-46.875,-404.297,0.000
1606128434.309,-95.215,-11.719,-31.250,-120.605,0.000
1606128434.313,122.559,-7.324,-17.090,284.668,0.000
1606128434.317,153.809,-6.348,-18.555,292.480,0.000
1606128434.321,-67.383,-30.273,-37.598,-144.043,0.000
1606128434.325,-242.676,-51.270,-44.922,-429.688,0.000
1606128434.329,-153.320,-41.504,-33.691,-209.961,0.000
1606128434.333,86.426,-11.230,-18.555,237.305,0.000
1606128434.337,147.461,-6.348,-10.254,312.988,0.000
1606128434.340,-52.734,-28.809,-24.414,-100.098,0.000
1606128434.344,-237.305,-48.828,-40.039,-424.316,0.000
1606128434.348,-177.734,-42.969,-33.691,-252.930,0.000
1606128434.352,64.941,-14.648,-18.066,207.031,0.000
1606128434.356,161.621,-7.324,-14.648,337.402,0.000
1606128434.360,-17.090,-34.668,-29.297,-34.668,0.000
1606128434.364,-215.820,-45.898,-41.016,-401.367,0.000
1606128434.368,-182.129,-23.438,-32.715,-294.922,0.000
1606128434.372,52.734,-13.672,-11.719,174.316,0.000
1606128434.376,170.898,-9.766,-7.324,353.027,0.000
1606128434.380,20.508,-17.090,-29.297,25.391,0.000
1606128434.383,-196.289,-41.504,-52.246,-368.652,0.000
1606128434.387,-195.312,-46.875,-50.293,-333.008,0.000
1606128434.391,40.039,-19.043,-25.879,126.465,0.000
1606128434.395,184.082,3.906,-14.648,361.816,0.000
1606128434.399,57.617,-13.184,-28.809,76.660,0.000
1606128434.403,-179.688,-39.062,-44.922,-350.586,0.000
1606128434.407,-220.703,-36.133,-42.480,-374.512,0.000
1606128434.411,-2.930,-18.066,-23.926,60.547,0.000
1606128434.415,164.551,-1.953,-12.207,347.168,0.000
1606128434.419,71.777,-14.160,-20.020,133.789,0.000
1606128434.423,-159.668,-43.457,-39.551,-314.453,0.000
1606128434.426,-225.586,-48.828,-45.410,-401.855,0.000
1606128434.430,-24.902,-29.785,-29.297,3.906,0.000
1606128434.434,163.574,-11.230,-20.020,332.031,0.000
1606128434.438,102.539,-17.090,-26.367,177.734,0.000
1606128434.442,-139.648,-38.086,-37.598,-276.367,0.000
1606128434.446,-238.770,-39.551,-45.410,-418.945,0.000
1606128434.450,-62.012,-23.926,-29.785,-55.176,0.000
1606128434.454,150.879,-9.277,-5.859,318.359,0.000
1606128434.458,120.605,-11.230,-8.789,228.516,0.000
1606128434.462,-116.699,-35.156,-29.297,-229.004,0.000
1606128434.465,-239.258,-51.758,-45.898,-422.852,0.000
1606128434.469,-98.145,-38.574,-40.527,-105.469,0.000
1606128434.473,121.582,-16.602,-23.438,290.527,0.000
1606128434.477,127.441,-15.625,-22.949,256.836,0.000
1606128434.481,-106.934,-40.527,-42.480,-197.754,0.000
1606128434.485,-254.395,-54.688,-47.363,-442.871,0.000
1606128434.489,-129.395,-34.668,-19.531,-167.480,0.000
1606128434.493,104.492,-10.742,-5.371,262.207,0.000
1606128434.497,135.742,-20.996,-14.160,284.668,0.000
1606128434.501,-86.426,-50.293,-32.227,-151.855,0.000
1606128434.505,-256.836,-62.988,-51.758,-453.125,0.000
1606128434.508,-165.527,-48.340,-40.039,-234.375,0.000
1606128434.512,66.895,-24.902,-21.973,211.426,0.000
1606128434.516,137.207,-19.531,-16.113,301.270,0.000
1606128434.520,-41.016,-39.062,-35.645,-71.777,0.000
1606128434.524,-229.980,-49.805,-51.758,-413.574,0.000
1606128434.528,-186.035,-43.945,-41.016,-275.879,0.000
1606128434.532,62.988,-30.273,-14.648,196.777,0.000
1606128434.536,176.270,-17.578,-2.441,356.445,0.000
1606128434.540,3.418,-39.551,-35.645,-1.953,0.000
1606128434.544,-210.449,-60.547,-52.246,-386.230,0.000
1606128434.548,-192.871,-44.922,-44.922,-308.594,0.000
1606128434.551,47.363,-25.879,-30.762,162.598,0.000
1606128434.555,182.617,-21.973,-17.578,368.652,0.000
1606128434.559,44.434,-32.227,-17.578,56.641,0.000
1606128434.563,-182.617,-50.293,-30.273,-350.586,0.000
1606128434.567,-201.172,-49.805,-27.832,-333.008,0.000
1606128434.571,30.762,-28.320,-11.719,126.465,0.000
1606128434.575,188.965,-12.695,-11.719,384.277,0.000
1606128434.579,76.172,-24.414,-19.531,124.023,0.000
1606128434.583,-159.668,-47.852,-35.645,-312.988,0.000
1606128434.587,-202.637,-39.551,-37.598,-356.445,0.000
1606128434.590,14.648,-22.461,-15.137,79.102,0.000
1606128434.594,192.871,-11.719,-6.836,376.953,0.000
1606128434.598,107.910,-20.996,-21.484,168.457,0.000
1606128434.602,-137.695,-45.898,-38.086,-281.250,0.000
1606128434.606,-210.938,-49.316,-41.016,-374.512,0.000
1606128434.610,-17.578,-34.180,-21.973,21.484,0.000
1606128434.614,174.316,-14.160,-1.953,361.816,0.000
1606128434.618,119.629,-15.625,-5.859,220.215,0.000
1606128434.622,-124.023,-42.480,-28.809,-247.559,0.000
1606128434.626,-226.074,-52.246,-43.457,-407.715,0.000
1606128434.630,-53.711,-40.527,-34.180,-47.363,0.000
1606128434.633,161.621,-19.531,-24.902,332.520,0.000
1606128434.637,143.066,-12.695,-25.879,246.582,0.000
1606128434.641,-91.309,-40.527,-36.621,-211.914,0.000
1606128434.645,-223.633,-48.828,-50.293,-418.945,0.000
1606128434.649,-75.684,-16.113,-41.504,-106.934,0.000
1606128434.653,148.438,2.441,-14.160,303.223,0.000
1606128434.657,150.879,-6.348,-16.602,281.250,0.000
1606128434.661,-71.289,-35.156,-31.738,-169.434,0.000
1606128434.665,-216.797,-47.852,-34.668,-424.316,0.000
1606128434.669,-105.469,-34.668,-30.762,-166.016,0.000
1606128434.673,127.930,-13.672,-14.648,279.785,0.000
1606128434.676,167.969,-0.488,-14.648,318.359,0.000
1606128434.680,-61.523,-28.809,-30.762,-124.023,0.000
1606128434.684,-237.305,-38.574,-36.133,-428.223,0.000
1606128434.688,-146.484,-19.043,-27.832,-227.539,0.000
1606128434.692,88.867,-13.672,-10.254,232.422,0.000
1606128434.696,167.969,-10.254,-5.371,339.844,0.000
1606128434.700,-20.508,-36.133,-21.484,-55.176,0.000
1606128434.704,-221.191,-57.129,-36.133,-405.273,0.000
1606128434.708,-171.387,-46.875,-29.297,-273.438,0.000
1606128434.712,77.637,-21.973,-11.719,197.266,0.000
1606128434.715,185.059,-6.836,-7.324,366.699,0.000
1606128434.719,14.160,-28.320,-25.391,16.602,0.000
1606128434.723,-205.078,-54.199,-43.457,-371.094,0.000
1606128434.727,-187.500,-33.691,-41.504,-302.734,0.000
1606128434.731,55.176,-11.719,-23.926,158.691,0.000
1606128434.735,183.594,-18.066,-11.230,367.676,0.000
1606128434.739,49.805,-30.762,-22.461,68.848,0.000
1606128434.743,-177.246,-51.270,-40.039,-348.633,0.000
1606128434.747,-206.055,-52.246,-41.992,-351.074,0.000
1606128434.751,19.043,-29.785,-26.855,102.539,0.000
1606128434.755,181.152,-17.578,-12.695,369.141,0.000
1606128434.758,70.312,-31.250,-19.043,121.582,0.000
1606128434.762,-171.875,-56.641,-40.039,-319.824,0.000
1606128434.766,-227.051,-57.129,-40.527,-378.906,0.000
1606128434.770,-11.719,-27.344,-24.902,45.898,0.000
1606128434.774,173.340,-8.301,-13.184,361.816,0.000
1606128434.778,93.262,-24.414,-23.438,169.922,0.000
1606128434.782,-150.879,-54.688,-44.434,-288.574,0.000
1606128434.786,-239.746,-52.734,-45.898,-405.273,0.000
1606128434.790,-58.594,-28.809,-31.250,-21.484,0.000
1606128434.794,141.602,-19.531,-21.973,329.102,0.000
1606128434.798,101.562,-29.785,-32.227,206.543,0.000
1606128434.801,-137.695,-53.223,-44.434,-251.465,0.000
1606128434.805,-241.211,-59.082,-42.969,-423.340,0.000
1606128434.809,-77.637,-43.457,-34.180,-83.008,0.000
1606128434.813,138.672,-22.461,-13.672,311.523,0.000
1606128434.817,131.836,-18.066,-12.695,257.324,0.000
1606128434.821,-107.422,-48.828,-37.598,-205.566,0.000
1606128434.825,-241.699,-63.965,-46.387,-428.223,0.000
1606128434.829,-105.469,-33.691,-37.109,-139.648,0.000
1606128434.833,126.465,-11.230,-20.020,274.902,0.000
1606128434.837,162.598,-13.672,-15.137,288.086,0.000
1606128434.840,-61.035,-34.668,-29.785,-157.715,0.000
1606128434.844,-226.074,-51.758,-42.480,-434.570,0.000
1606128434.848,-121.094,-42.969,-32.227,-191.895,0.000
1606128434.852,119.141,-20.996,-14.648,253.418,0.000
1606128434.856,175.293,-13.184,-11.719,319.336,0.000
1606128434.860,-28.809,-31.738,-25.879,-99.609,0.000
1606128434.864,-214.355,-45.410,-49.316,-416.016,0.000
1606128434.868,-148.926,-32.227,-46.387,-236.816,0.000
1606128434.872,92.285,-13.672,-15.625,222.656,0.000
1606128434.876,176.270,-12.207,-3.906,346.191,0.000
1606128434.880,-4.883,-35.645,-23.926,-32.715,0.000
1606128434.883,-212.402,-56.641,-41.016,-393.555,0.000
1606128434.887,-178.711,-48.828,-33.691,-283.203,0.000
1606128434.891,66.895,-16.602,-18.555,183.594,0.000
1606128434.895,178.223,-4.883,-10.742,365.723,0.000
1606128434.899,15.625,-23.438,-19.531,31.250,0.000
1606128434.903,-204.590,-40.527,-33.691,-359.863,0.000
1606128434.907,-204.102,-46.387,-28.809,-310.547,0.000
1606128434.911,31.250,-30.762,-14.648,142.090,0.000
1606128434.915,176.270,-15.137,-15.625,373.047,0.000
1606128434.919,48.828,-25.391,-31.738,87.891,0.000
1606128434.923,-181.641,-46.387,-39.551,-344.727,0.000
1606128434.926,-216.309,-45.410,-40.527,-360.840,0.000
1606128434.930,8.301,-28.809,-28.809,93.750,0.000
1606128434.934,181.641,-16.602,-7.812,388.184,0.000
1606128434.938,82.031,-19.531,-12.207,159.180,0.000
1606128434.942,-161.621,-41.504,-38.086,-300.293,0.000
1606128434.946,-227.051,-51.758,-42.969,-382.324,0.000
1606128434.950,-14.160,-26.855,-12.207,38.574,0.000
1606128434.954,186.035,-4.395,1.953,366.211,0.000
1606128434.958,116.211,-16.602,-16.113,192.383,0.000
1606128434.962,-134.766,-44.922,-39.062,-271.484,0.000
1606128434.965,-225.586,-49.316,-47.363,-404.785,0.000
1606128434.969,-45.410,-29.785,-24.414,-32.227,0.000
1606128434.973,163.574,-8.789,-9.766,333.008,0.000
1606128434.977,134.277,-11.719,-20.508,235.352,0.000
1606128434.981,-110.352,-35.645,-41.504,-232.422,0.000
1606128434.985,-229.492,-42.480,-44.434,-423.340,0.000
1606128434.989,-81.543,-28.809,-23.438,-94.238,0.000
1606128434.993,128.418,-6.836,-1.953,301.758,0.000
1606128434.997,132.324,-10.254,-6.348,262.695,0.000
1606128435.001,-97.656,-40.527,-29.297,-195.312,0.000
1606128435.005,-244.141,-34.668,-36.621,-437.988,0.000
1606128435.008,-116.211,-9.277,-24.902,-156.250,0.000
1606128435.012,111.816,-12.207,-8.301,272.461,0.000
1606128435.016,145.508,-15.137,-2.930,300.293,0.000
1606128435.020,-74.219,-38.574,-18.555,-141.602,0.000
1606128435.024,-249.512,-59.082,-39.551,-437.012,0.000
1606128435.028,-164.062,-43.457,-41.016,-217.773,0.000
1606128435.032,76.660,-18.555,-17.090,235.352,0.000
1606128435.036,152.832,-15.625,-10.742,324.707,0.000
1606128435.040,-47.363,-37.109,-33.691,-83.984,0.000
1606128435.044,-235.352,-50.781,-45.898,-419.434,0.000
1606128435.048,-166.016,-37.109,-31.738,-257.324,0.000
1606128435.051,85.449,-9.766,-14.160,212.891,0.000
1606128435.055,181.641,-6.836,-11.230,353.516,0.000
1606128435.059,1.465,-39.062,-28.320,-22.461,0.000
1606128435.063,-204.590,-54.199,-39.551,-397.949,0.000
1606128435.067,-173.340,-35.156,-30.762,-300.293,0.000
1606128435.071,70.312,-9.277,-16.602,167.969,0.000
1606128435.075,190.430,-2.930,-7.324,361.816,0.000
1606128435.079,33.203,-20.508,-20.996,37.109,0.000
1606128435.083,-188.477,-40.039,-33.691,-359.863,0.000
1606128435.087,-192.871,-40.527,-34.180,-329.590,0.000
1606128435.090,38.574,-16.113,-23.438,120.605,0.000
1606128435.094,184.570,-0.488,-7.324,368.164,0.000
1606128435.098,66.406,-13.184,-18.555,102.051,0.000
1606128435.102,-163.574,-39.551,-39.551,-321.777,0.000
1606128435.106,-216.309,-41.504,-44.922,-357.910,0.000
1606128435.110,-6.836,-18.066,-20.508,72.754,0.000
1606128435.114,174.316,-10.742,1.465,376.465,0.000
1606128435.118,87.402,-18.066,-8.301,168.457,0.000
1606128435.122,-156.250,-42.969,-34.668,-292.480,0.000
1606128435.126,-222.656,-52.246,-39.551,-390.137,0.000
1606128435.130,-29.297,-29.785,-19.043,9.766,0.000
1606128435.133,161.621,-10.254,-10.254,353.027,0.000
1606128435.137,105.957,-17.090,-16.113,208.984,0.000
1606128435.141,-139.648,-45.410,-34.180,-258.789,0.000
1606128435.145,-239.746,-51.270,-42.969,-404.785,0.000
1606128435.149,-66.406,-20.508,-25.391,-46.387,0.000
1606128435.153,143.555,1.953,-2.930,324.707,0.000
1606128435.157,119.629,-12.695,-11.230,235.840,0.000
1606128435.161,-128.418,-46.387,-43.945,-235.352,0.000
1606128435.165,-257.324,-53.711,-51.270,-427.246,0.000
1606128435.169,-109.375,-33.203,-37.109,-117.188,0.000
1606128435.173,121.582,-12.207,-14.648,287.109,0.000
1606128435.176,139.648,-7.324,-18.066,279.297,0.000
1606128435.180,-92.773,-31.250,-37.598,-169.922,0.000
1606128435.184,-248.535,-52.734,-34.668,-417.969,0.000
1606128435.188,-132.812,-39.551,-27.344,-158.203,0.000
1606128435.192,114.746,-7.812,-6.836,279.297,0.000
1606128435.196,167.480,-0.977,4.883,333.496,0.000
1606128435.200,-55.176,-33.203,-31.738,-99.609,0.000
1606128435.204,-231.934,-56.152,-57.129,-412.109,0.000
1606128435.208,-142.090,-21.973,-44.922,-221.191,0.000
1606128435.212,100.098,0.977,-23.438,235.352,0.000
1606128435.215,177.734,-10.254,-13.672,336.426,0.000
1606128435.219,-12.207,-30.762,-24.902,-52.734,0.000
1606128435.223,-211.426,-50.781,-40.527,-393.066,0.000
1606128435.227,-166.504,-38.086,-40.527,-261.719,0.000
1606128435.231,76.660,-13.184,-30.273,202.148,0.000
1606128435.235,185.059,-3.418,-16.113,367.676,0.000
1606128435.239,20.996,-17.090,-18.066,18.066,0.000
1606128435.243,-198.730,-39.551,-46.387,-377.930,0.000
1606128435.247,-192.871,-38.574,-48.828,-317.383,0.000
1606128435.251,44.434,-21.484,-23.926,150.391,0.000
1606128435.255,175.781,-9.766,-16.113,364.258,0.000
1606128435.258,35.645,-20.020,-25.879,58.594,0.000
1606128435.262,-191.895,-48.340,-45.898,-364.258,0.000
1606128435.266,-206.543,-52.246,-51.758,-359.375,0.000
1606128435.270,17.090,-29.297,-30.273,95.215,0.000
1606128435.274,172.363,-14.160,-23.438,356.934,0.000
1606128435.278,65.430,-34.180,-32.715,108.887,0.000
1606128435.282,-177.246,-60.547,-41.504,-325.195,0.000
1606128435.286,-231.445,-48.828,-52.246,-379.883,0.000
1606128435.290,-18.555,-24.414,-42.480,45.898,0.000
1606128435.294,168.457,-8.301,-22.949,368.652,0.000
1606128435.298,94.238,-16.602,-22.949,183.105,0.000
1606128435.301,-148.926,-52.246,-34.668,-279.785,0.000
1606128435.305,-223.633,-28.809,-31.738,-386.719,0.000
1606128435.309,-25.879,4.883,-16.113,14.648,0.000
1606128435.313,167.969,-4.883,-3.418,368.164,0.000
1606128435.317,104.004,-14.648,-12.695,226.562,0.000
1606128435.321,-146.973,-49.316,-34.668,-249.023,0.000
1606128435.325,-251.465,-62.988,-40.039,-419.922,0.000
1606128435.329,-85.938,-42.969,-23.926,-76.660,0.000
1606128435.333,143.066,-13.184,1.465,317.871,0.000
1606128435.337,134.766,-8.789,-5.859,262.207,0.000
1606128435.340,-103.027,-45.410,-34.180,-198.730,0.000
1606128435.344,-226.562,-41.016,-43.945,-413.574,0.000
1606128435.348,-87.402,-10.254,-28.809,-113.281,0.000
1606128435.352,137.695,-6.348,-2.441,306.641,0.000
1606128435.356,156.250,-11.719,-3.418,304.688,0.000
1606128435.360,-78.613,-39.062,-30.273,-152.344,0.000
1606128435.364,-237.793,-52.246,-41.504,-430.664,0.000
1606128435.368,-123.535,-43.457,-33.691,-188.965,0.000
1606128435.372,110.352,-17.090,-14.648,257.812,0.000
1606128435.376,164.062,-5.859,0.488,320.801,0.000
1606128435.380,-43.945,-39.062,-29.785,-103.516,0.000
1606128435.383,-234.375,-49.805,-56.152,-420.898,0.000
1606128435.387,-162.109,9.766,-40.039,-238.281,0.000
1606128435.391,83.984,23.438,-11.719,221.680,0.000
1606128435.395,167.480,-16.113,-7.812,338.867,0.000
1606128435.399,-13.184,-31.738,-28.320,-45.410,0.000
1606128435.403,-210.449,-42.969,-38.574,-404.785,0.000
1606128435.407,-182.617,-52.734,-39.551,-291.504,0.000
1606128435.411,57.129,-29.785,-25.879,172.363,0.000
1606128435.415,171.875,-6.836,-15.625,348.145,0.000
1606128435.419,5.859,-26.855,-21.484,12.695,0.000
1606128435.423,-210.449,-53.223,-44.922,-386.230,0.000
1606128435.426,-205.566,-44.434,-45.898,-335.449,0.000
1606128435.430,41.016,-24.902,-17.578,132.812,0.000
1606128435.434,186.035,-18.555,-12.207,362.793,0.000
1606128435.438,40.527,-26.367,-32.227,69.336,0.000
1606128435.442,-192.871,-54.199,-48.828,-354.492,0.000
1606128435.446,-221.680,-41.016,-42.969,-362.793,0.000
1606128435.450,5.859,-12.695,-21.484,92.285,0.000
1606128435.454,165.039,-16.602,-14.160,359.375,0.000
1606128435.458,57.617,-25.879,-30.273,111.328,0.000
1606128435.462,-170.410,-46.875,-48.340,-317.871,0.000
1606128435.465,-228.516,-49.316,-43.945,-389.160,0.000
1606128435.469,-24.902,-25.879,-25.391,25.391,0.000
1606128435.473,162.109,-5.371,-18.555,351.562,0.000
1606128435.477,97.656,-9.277,-25.391,186.523,0.000
1606128435.481,-147.461,-43.945,-42.969,-284.668,0.000
1606128435.485,-246.582,-45.410,-49.805,-427.734,0.000
1606128435.489,-65.918,-2.930,-29.297,-40.527,0.000
1606128435.493,148.438,6.348,-5.371,337.402,0.000
1606128435.497,120.117,-14.648,-8.301,233.887,0.000
1606128435.501,-124.023,-47.852,-32.227,-236.816,0.000
1606128435.505,-238.281,-60.059,-37.109,-427.246,0.000
1606128435.508,-68.359,-33.203,-20.996,-91.309,0.000
1606128435.512,164.551,-4.395,-8.789,321.777,0.000
1606128435.516,165.039,0.488,-11.719,286.621,0.000
1606128435.520,-70.312,-32.715,-26.855,-178.223,0.000
1606128435.524,-223.145,-42.969,-44.922,-432.129,0.000
1606128435.528,-110.352,-19.531,-39.062,-156.250,0.000
1606128435.532,122.559,-15.137,-13.184,283.691,0.000
1606128435.536,160.156,-14.648,-10.254,307.129,0.000
1606128435.540,-70.801,-37.109,-27.344,-137.207,0.000
1606128435.544,-242.188,-60.547,-34.180,-432.129,0.000
1606128435.548,-142.578,-47.852,-28.809,-214.844,0.000
1606128435.551,102.539,-13.672,-16.602,243.164,0.000
1606128435.555,166.504,-9.766,-9.766,328.125,0.000
1606128435.559,-40.527,-36.133,-21.973,-83.008,0.000
1606128435.563,-228.027,-47.852,-37.109,-412.598,0.000
1606128435.567,-170.410,-45.410,-33.691,-254.883,0.000
1606128435.571,71.289,-25.391,-12.695,218.262,0.000
1606128435.575,169.434,-12.207,-10.742,357.910,0.000
1606128435.579,-7.324,-26.855,-25.879,-19.531,0.000
1606128435.583,-216.309,-50.781,-35.156,-391.602,0.000
1606128435.587,-191.406,-41.504,-35.645,-299.316,0.000
1606128435.590,56.152,-6.836,-10.742,171.875,0.000
1606128435.594,183.594,-2.441,-1.953,364.746,0.000
1606128435.598,27.832,-26.855,-23.438,36.621,0.000
1606128435.602,-200.684,-48.828,-34.180,-368.164,0.000
1606128435.606,-208.496,-45.410,-29.785,-338.379,0.000
1606128435.610,21.484,-20.508,-20.508,119.629,0.000
1606128435.614,166.504,-4.395,-16.602,365.723,0.000
1606128435.618,49.805,-14.160,-26.367,93.750,0.000
1606128435.622,-183.594,-49.805,-37.598,-346.191,0.000
1606128435.626,-233.398,-51.270,-42.480,-382.324,0.000
1606128435.630,-14.160,-21.484,-32.227,55.176,0.000
1606128435.633,156.738,-13.184,-24.414,340.332,0.000
1606128435.637,65.430,-19.043,-34.180,129.395,0.000
1606128435.641,-159.668,-40.039,-44.922,-305.664,0.000
1606128435.645,-227.051,-54.199,-50.781,-396.973,0.000
1606128435.649,-45.898,-42.969,-34.180,-1.465,0.000
1606128435.653,141.113,-22.461,-7.324,337.891,0.000
1606128435.657,92.773,-19.531,-11.230,196.289,0.000
1606128435.661,-147.461,-43.945,-35.645,-262.207,0.000
1606128435.665,-239.746,-45.410,-37.598,-404.297,0.000
1606128435.669,-61.523,-18.555,-20.020,-42.480,0.000
1606128435.673,142.578,-9.277,-4.395,330.078,0.000
1606128435.676,117.676,-17.090,-17.578,239.746,0.000
1606128435.680,-109.375,-36.621,-36.621,-218.750,0.000
1606128435.684,-229.004,-49.316,-38.574,-411.621,0.000
1606128435.688,-90.820,-34.180,-28.320,-98.145,0.000
1606128435.692,133.789,-14.648,-14.648,310.547,0.000
1606128435.696,142.578,-17.578,-18.555,282.227,0.000
1606128435.700,-85.449,-39.551,-32.715,-171.387,0.000
1606128435.704,-226.074,-55.664,-33.203,-412.598,0.000
1606128435.708,-109.863,-45.410,-19.531,-148.438,0.000
1606128435.712,119.141,-20.996,-3.906,281.250,0.000
1606128435.715,163.574,-16.602,-10.254,312.012,0.000
1606128435.719,-45.410,-37.109,-30.762,-117.188,0.000
1606128435.723,-218.750,-55.176,-48.340,-417.480,0.000
1606128435.727,-144.043,-41.016,-44.434,-218.262,0.000
1606128435.731,98.145,-10.254,-20.996,240.723,0.000
1606128435.735,172.852,-0.488,-12.695,340.820,0.000
1606128435.739,-23.926,-33.691,-28.320,-62.500,0.000
1606128435.743,-212.402,-57.617,-39.062,-405.762,0.000
1606128435.747,-160.645,-44.922,-28.809,-265.137,0.000
1606128435.751,73.730,-22.461,-19.043,199.219,0.000
1606128435.755,167.480,-9.277,-21.484,347.656,0.000
1606128435.758,0.488,-23.438,-34.668,-10.742,0.000
1606128435.762,-207.520,-54.199,-50.781,-387.695,0.000
1606128435.766,-192.871,-31.250,-43.457,-315.430,0.000
1606128435.770,46.387,11.719,-14.160,152.344,0.000
1606128435.774,171.387,-2.441,-10.254,358.887,0.000
1606128435.778,25.879,-30.762,-34.668,44.434,0.000
1606128435.782,-196.777,-55.176,-42.480,-362.793,0.000
1606128435.786,-225.098,-57.617,-42.969,-353.516,0.000
1606128435.790,0.488,-36.133,-35.645,93.750,0.000
1606128435.794,164.062,-21.973,-20.020,355.469,0.000
1606128435.798,54.199,-28.320,-23.926,107.422,0.000
1606128435.801,-176.270,-48.340,-41.016,-323.242,0.000
1606128435.805,-223.633,-36.621,-48.340,-375.488,0.000
1606128435.809,-19.531,-20.508,-31.738,47.852,0.000
1606128435.813,167.480,-19.043,-12.695,363.281,0.000
1606128435.817,90.820,-22.949,-20.996,172.363,0.000
1606128435.821,-157.227,-45.410,-38.574,-286.621,0.000
1606128435.825,-230.469,-50.293,-45.410,-399.414,0.000
1606128435.829,-37.109,-30.762,-36.621,-7.324,0.000
1606128435.833,161.133,-11.230,-18.066,346.191,0.000
1606128435.837,112.305,-22.461,-21.484,217.285,0.000
1606128435.840,-131.836,-47.852,-43.457,-247.559,0.000
1606128435.844,-238.770,-52.246,-43.457,-414.062,0.000
1606128435.848,-71.289,-34.180,-23.926,-62.012,0.000
1606128435.852,149.414,-6.348,-11.230,332.520,0.000
1606128435.856,145.508,-3.418,-18.066,270.996,0.000
1606128435.860,-94.727,-41.504,-40.039,-201.660,0.000
1606128435.864,-231.934,-53.223,-43.945,-416.504,0.000
1606128435.868,-87.891,-0.488,-31.250,-108.398,0.000
1606128435.872,139.648,21.484,-27.832,303.223,0.000
1606128435.876,160.645,-1.465,-29.785,297.852,0.000
1606128435.880,-60.059,-32.227,-42.969,-149.414,0.000
1606128435.883,-232.422,-53.711,-50.781,-430.176,0.000
1606128435.887,-137.207,-43.945,-38.574,-190.430,0.000
1606128435.891,112.305,-19.531,-20.508,259.766,0.000
1606128435.895,166.016,-9.766,-23.926,321.777,0.000
1606128435.899,-45.898,-32.227,-44.922,-100.586,0.000
1606128435.903,-223.633,-54.688,-54.688,-416.504,0.000
1606128435.907,-151.855,-38.574,-42.480,-229.492,0.000
1606128435.911,94.727,-8.789,-26.855,230.957,0.000
1606128435.915,184.082,-0.488,-20.020,349.609,0.000
1606128435.919,-3.906,-26.855,-25.391,-35.645,0.000
1606128435.923,-212.891,-55.176,-46.387,-396.973,0.000
1606128435.926,-182.129,-45.410,-47.852,-281.250,0.000
1606128435.930,53.223,-15.137,-27.344,191.406,0.000
1606128435.934,167.480,-0.977,-16.113,364.746,0.000
1606128435.938,11.230,-22.949,-22.461,18.066,0.000
1606128435.942,-201.660,-51.270,-37.109,-377.930,0.000
1606128435.946,-192.871,-26.855,-35.645,-327.148,0.000
1606128435.950,50.293,5.371,-21.484,129.883,0.000
1606128435.954,185.547,-4.883,-17.578,356.445,0.000
1606128435.958,40.527,-23.926,-23.438,69.336,0.000
1606128435.962,-185.547,-47.852,-28.320,-350.098,0.000
1606128435.965,-215.332,-55.176,-37.598,-363.770,0.000
1606128435.969,5.859,-34.180,-30.762,75.684,0.000
1606128435.973,168.457,-15.137,-17.090,355.957,0.000
1606128435.977,69.336,-23.438,-24.414,127.930,0.000
1606128435.981,-161.621,-42.969,-37.109,-309.082,0.000
1606128435.985,-218.262,-43.457,-34.668,-379.395,0.000
1606128435.989,-12.695,-23.438,-19.043,35.645,0.000
1606128435.993,171.875,-0.488,0.488,363.281,0.000
1606128435.997,104.004,-12.207,-5.371,189.453,0.000
1606128436.001,-141.602,-49.805,-33.203,-277.344,0.000
1606128436.005,-231.445,-50.781,-41.992,-406.738,0.000
1606128436.008,-50.781,-21.973,-36.133,-35.156,0.000
1606128436.012,149.414,-12.695,-21.484,323.730,0.000
1606128436.016,112.793,-17.090,-10.254,221.191,0.000
1606128436.020,-125.000,-32.715,-27.832,-239.746,0.000
1606128436.024,-237.305,-46.875,-44.434,-418.457,0.000
1606128436.028,-80.566,-33.691,-34.180,-86.914,0.000
1606128436.032,141.113,-5.859,-9.766,310.059,0.000
1606128436.036,142.090,-7.324,-9.277,270.020,0.000
1606128436.040,-94.238,-34.180,-32.715,-187.988,0.000
1606128436.044,-236.816,-47.852,-38.086,-426.758,0.000
1606128436.048,-103.516,-17.578,-24.902,-145.508,0.000
1606128436.051,127.930,-1.465,-15.137,277.344,0.000
1606128436.055,158.691,-9.766,-18.066,294.922,0.000
1606128436.059,-60.059,-32.227,-34.668,-136.719,0.000
1606128436.063,-225.098,-54.199,-47.852,-418.457,0.000
1606128436.067,-129.883,-44.434,-41.016,-198.730,0.000
1606128436.071,114.258,-23.926,-20.020,250.488,0.000
1606128436.075,179.199,-17.090,-18.555,332.031,0.000
1606128436.079,-27.832,-34.668,-37.598,-79.590,0.000
1606128436.083,-213.867,-54.199,-49.316,-408.691,0.000
1606128436.087,-155.762,-43.945,-40.527,-247.070,0.000
1606128436.090,76.660,-23.926,-27.832,206.543,0.000
1606128436.094,170.410,-21.973,-20.508,341.309,0.000
1606128436.098,-10.254,-37.598,-27.832,-30.762,0.000
1606128436.102,-213.379,-56.641,-40.039,-399.414,0.000
1606128436.106,-178.711,-48.828,-37.109,-291.992,0.000
1606128436.110,59.082,-22.461,-16.113,177.246,0.000
1606128436.114,176.758,-13.672,-5.371,362.305,0.000
1606128436.118,27.832,-24.414,-20.996,38.574,0.000
1606128436.122,-191.895,-45.898,-40.039,-361.328,0.000
1606128436.126,-203.613,-53.223,-37.598,-333.984,0.000
1606128436.130,26.367,-32.227,-19.043,121.582,0.000
1606128436.133,176.270,-8.301,-15.137,368.652,0.000
1606128436.137,47.363,-16.602,-32.227,93.262,0.000
1606128436.141,-183.105,-58.594,-45.898,-339.844,0.000
1606128436.145,-217.285,-52.246,-43.457,-369.141,0.000
1606128436.149,-0.488,4.395,-23.438,67.871,0.000
1606128436.153,166.992,6.348,-16.113,361.816,0.000
1606128436.157,74.219,-12.207,-22.949,150.391,0.000
1606128436.161,-157.227,-36.133,-36.133,-303.223,0.000
1606128436.165,-227.051,-48.340,-42.969,-391.113,0.000
1606128436.169,-34.668,-34.180,-22.949,13.672,0.000
1606128436.173,156.738,-20.508,-15.625,348.633,0.000
1606128436.176,100.098,-19.043,-22.461,205.566,0.000
1606128436.180,-145.020,-45.410,-35.645,-262.695,0.000
1606128436.184,-250.977,-42.969,-38.086,-423.828,0.000
1606128436.188,-72.754,-14.648,-20.020,-55.664,0.000
1606128436.192,146.484,-11.230,-4.883,329.102,0.000
1606128436.196,127.441,-4.883,-1.953,247.559,0.000
1606128436.200,-124.023,-28.320,-25.879,-226.074,0.000
1606128436.204,-262.207,-54.199,-42.480,-440.918,0.000
1606128436.208,-111.816,-41.016,-24.902,-125.977,0.000
1606128436.212,117.188,-16.602,1.953,282.227,0.000
1606128436.215,130.371,-16.602,-3.418,266.113,0.000
1606128436.219,-99.121,-53.223,-33.691,-186.523,0.000
1606128436.223,-248.535,-62.500,-40.039,-436.523,0.000
1606128436.227,-124.512,-16.113,-24.902,-162.109,0.000
1606128436.231,114.258,0.488,-7.324,272.461,0.000
1606128436.235,154.785,-21.484,-12.695,302.734,0.000
1606128436.239,-57.129,-45.898,-39.551,-134.766,0.000
1606128436.243,-230.469,-57.129,-50.293,-435.059,0.000
1606128436.247,-145.996,-36.621,-33.691,-228.516,0.000
1606128436.251,95.703,-16.113,-19.531,230.957,0.000
1606128436.255,167.969,-17.578,-17.090,329.590,0.000
1606128436.258,-27.344,-38.574,-30.273,-68.848,0.000
1606128436.262,-223.145,-58.105,-42.480,-410.156,0.000
1606128436.266,-177.734,-47.363,-41.992,-277.832,0.000
1606128436.270,64.453,-24.902,-18.555,187.012,0.000
1606128436.274,175.293,-12.207,-11.230,351.074,0.000
1606128436.278,8.301,-24.902,-41.992,-8.789,0.000
1606128436.282,-208.496,-52.246,-49.805,-388.184,0.000
1606128436.286,-199.707,-47.363,-42.480,-313.965,0.000
1606128436.290,41.504,-10.742,-24.414,152.832,0.000
1606128436.294,180.664,0.000,-1.465,370.117,0.000
1606128436.298,36.621,-20.020,-24.414,56.641,0.000
1606128436.301,-189.453,-46.387,-50.293,-357.910,0.000
1606128436.305,-205.566,-47.852,-47.852,-351.562,0.000
1606128436.309,20.996,-21.484,-28.320,101.562,0.000
1606128436.313,177.734,-5.859,-10.254,369.141,0.000
1606128436.317,70.312,-19.531,-14.160,113.770,0.000
1606128436.321,-158.691,-44.922,-33.203,-320.801,0.000
1606128436.325,-209.961,-41.992,-33.203,-368.164,0.000
1606128436.329,0.488,-8.789,-8.789,60.059,0.000
1606128436.333,176.758,-5.371,-3.906,367.188,0.000
1606128436.337,89.355,-22.461,-17.090,175.781,0.000
1606128436.340,-146.973,-42.969,-30.273,-270.020,0.000
1606128436.344,-220.703,-44.434,-36.133,-379.883,0.000
1606128436.348,-35.156,-24.414,-12.695,11.230,0.000
1606128436.352,170.898,-10.742,-2.930,364.746,0.000
1606128436.356,132.812,-10.742,-27.832,230.957,0.000
1606128436.360,-119.629,-30.273,-43.945,-244.141,0.000
1606128436.364,-226.562,-34.180,-43.945,-408.203,0.000
1606128436.368,-60.059,-12.695,-23.438,-60.059,0.000
1606128436.372,139.160,-6.836,-9.277,312.500,0.000
1606128436.376,124.023,-10.742,-19.531,250.977,0.000
1606128436.380,-105.957,-31.738,-33.691,-206.543,0.000
1606128436.383,-233.887,-45.410,-38.086,-425.781,0.000
1606128436.387,-94.727,-33.203,-29.785,-122.070,0.000
1606128436.391,128.418,-11.719,-15.137,294.434,0.000
1606128436.395,147.949,-10.254,-18.555,282.227,0.000
1606128436.399,-75.195,-36.133,-36.621,-169.434,0.000
1606128436.403,-236.328,-55.664,-49.316,-433.105,0.000
1606128436.407,-130.371,-41.992,-44.922,-189.941,0.000
1606128436.411,109.375,-4.883,-24.902,253.906,0.000
1606128436.415,157.227,0.977,-26.855,312.988,0.000
1606128436.419,-47.363,-26.855,-47.363,-107.910,0.000
1606128436.423,-222.168,-52.734,-52.246,-419.434,0.000
1606128436.426,-150.391,-31.250,-41.504,-236.816,0.000
1606128436.430,86.914,3.906,-24.414,220.703,0.000
1606128436.434,166.016,-3.418,-20.508,332.520,0.000
1606128436.438,-17.578,-32.227,-37.109,-52.734,0.000
1606128436.442,-215.332,-54.688,-45.410,-403.809,0.000
1606128436.446,-172.852,-43.945,-38.086,-283.691,0.000
1606128436.450,66.895,-15.625,-27.344,177.246,0.000
1606128436.454,175.781,-3.418,-18.066,346.680,0.000
1606128436.458,15.625,-21.484,-21.484,15.625,0.000
1606128436.462,-200.684,-50.293,-41.016,-370.605,0.000
1606128436.465,-200.684,-42.480,-57.617,-324.707,0.000
1606128436.469,29.297,-12.207,-35.645,135.742,0.000
1606128436.473,172.363,-11.719,-13.672,362.793,0.000
1606128436.477,39.551,-24.414,-28.320,70.801,0.000
1606128436.481,-188.965,-43.457,-41.504,-344.238,0.000
1606128436.485,-217.285,-49.316,-38.574,-354.980,0.000
1606128436.489,9.277,-24.902,-19.531,85.938,0.000
1606128436.493,182.129,-6.348,-2.441,370.605,0.000
1606128436.497,79.102,-17.578,-11.719,137.207,0.000
1606128436.501,-158.203,-45.410,-35.645,-310.059,0.000
1606128436.505,-215.332,-46.387,-42.969,-378.418,0.000
1606128436.508,-9.277,-19.043,-27.344,49.316,0.000
1606128436.512,161.133,-8.789,-12.695,338.867,0.000
1606128436.516,92.285,-20.020,-12.207,152.344,0.000
1606128436.520,-125.488,-47.852,-26.367,-260.742,0.000
1606128436.524,-216.309,-44.922,-39.062,-390.625,0.000
1606128436.528,-39.551,-16.113,-26.855,-13.672,0.000
1606128436.532,166.992,-9.277,-10.742,349.609,0.000
1606128436.536,131.348,-16.113,-12.695,235.840,0.000
1606128436.540,-115.723,-41.504,-35.645,-231.934,0.000
1606128436.544,-232.910,-55.664,-47.852,-413.574,0.000
1606128436.548,-77.148,-37.598,-32.715,-79.102,0.000
1606128436.551,144.531,-10.742,-11.230,320.312,0.000
1606128436.555,140.137,-6.836,-9.277,271.484,0.000
1606128436.559,-100.098,-32.715,-31.738,-195.312,0.000
1606128436.563,-233.398,-44.434,-40.527,-425.293,0.000
1606128436.567,-96.680,-17.578,-27.832,-141.602,0.000
1606128436.571,128.906,0.488,-16.113,279.785,0.000
1606128436.575,159.180,-5.371,-15.137,303.223,0.000
1606128436.579,-58.105,-27.344,-22.461,-128.906,0.000
1606128436.583,-229.492,-46.875,-41.992,-415.527,0.000
1606128436.587,-132.324,-31.250,-37.109,-190.918,0.000
1606128436.590,109.863,-10.254,-15.625,262.695,0.000
1606128436.594,167.480,-11.719,-19.531,342.773,0.000
1606128436.598,-36.133,-22.461,-32.227,-73.730,0.000
1606128436.602,-219.238,-38.574,-39.062,-415.527,0.000
1606128436.606,-163.574,-31.738,-36.133,-255.859,0.000
1606128436.610,85.938,2.441,-17.090,217.773,0.000
1606128436.614,180.176,5.371,-9.766,350.586,0.000
1606128436.618,-13.184,-27.832,-32.227,-36.133,0.000
1606128436.622,-210.938,-48.340,-57.617,-414.062,0.000
1606128436.626,-187.988,-34.668,-52.246,-312.500,0.000
1606128436.630,40.039,-5.371,-18.555,153.809,0.000
1606128436.633,164.551,11.230,-2.930,348.145,0.000
1606128436.637,15.625,-13.672,-24.414,35.645,0.000
1606128436.641,-206.055,-50.293,-44.434,-375.977,0.000
1606128436.645,-210.449,-45.898,-32.715,-342.773,0.000
1606128436.649,20.996,-22.461,-15.625,122.559,0.000
1606128436.653,162.598,-9.766,-15.625,361.328,0.000
