timestamps,TP9,AF7,AF8,TP10,Right AUX
1606133491.903,0.000,0.000,0.000,0.000,0.000
1606133491.907,-1.465,-0.488,-0.488,-2.441,0.000
1606133491.910,-8.301,-1.953,-1.465,-24.902,0.000
1606133491.914,33.691,4.395,2.930,98.633,0.000
1606133491.918,-144.043,-21.973,-16.602,-415.039,0.000
1606133491.922,-132.812,-37.109,-25.391,-389.160,0.000
1606133491.926,302.734,0.000,-10.254,815.430,0.000
1606133491.930,299.805,3.418,-24.902,847.656,0.000
1606133491.934,-138.184,-24.902,-42.480,-299.316,0.000
1606133491.938,-394.043,-40.527,-48.828,-1000.000,0.000
1606133491.942,-145.508,-25.391,-38.086,-468.262,0.000
1606133491.946,277.344,-0.977,-14.160,687.012,0.000
1606133491.950,330.566,0.977,-10.742,899.902,0.000
1606133491.953,-80.566,-30.762,-40.039,-163.086,0.000
1606133491.957,-393.066,-48.828,-52.246,-1000.000,0.000
1606133491.961,-210.449,-33.203,-31.738,-610.352,0.000
1606133491.965,224.121,-4.395,-19.043,561.523,0.000
1606133491.969,336.426,5.371,-17.578,957.520,0.000
1606133491.973,-41.992,-21.484,-37.109,-10.742,0.000
1606133491.977,-397.461,-51.270,-54.199,-1000.000,0.000
1606133491.981,-276.367,-44.434,-35.156,-731.445,0.000
1606133491.985,174.805,-13.672,-3.906,436.523,0.000
1606133491.989,349.121,-0.488,-2.930,-996.582,0.000
1606133491.993,13.184,-27.344,-25.391,145.996,0.000
1606133491.996,-368.164,-53.223,-43.945,-930.664,0.000
1606133492.000,-312.988,-52.734,-35.645,-822.266,0.000
1606133492.004,139.648,-30.273,-10.254,320.801,0.000
1606133492.008,364.258,-6.836,-6.348,-965.820,0.000
1606133492.012,64.941,-22.461,-26.367,312.500,0.000
1606133492.016,-339.844,-50.293,-44.434,-817.871,0.000
1606133492.020,-346.191,-33.203,-38.086,-889.160,0.000
1606133492.024,83.008,-0.977,-15.137,212.891,0.000
1606133492.028,356.445,-2.441,-4.395,-954.590,0.000
1606133492.032,131.836,-22.461,-15.625,469.727,0.000
1606133492.035,-298.828,-49.316,-46.875,-683.594,0.000
1606133492.039,-382.324,-55.176,-58.105,-966.797,0.000
1606133492.043,21.973,-17.090,-24.414,44.434,0.000
1606133492.047,350.586,5.371,-3.418,-981.934,0.000
1606133492.051,191.406,-12.207,-18.555,610.352,0.000
1606133492.055,-251.953,-33.691,-41.016,-558.105,0.000
1606133492.059,-398.438,-41.016,-46.387,-1000.000,0.000
1606133492.063,-42.969,-21.484,-25.391,-111.328,0.000
1606133492.067,315.430,17.578,-6.348,951.172,0.000
1606133492.071,216.797,15.625,-17.578,714.844,0.000
1606133492.075,-224.121,-32.227,-44.922,-449.219,0.000
1606133492.078,-422.852,-47.852,-47.852,-1000.000,0.000
1606133492.082,-115.723,-20.508,-32.227,-292.969,0.000
1606133492.086,283.691,0.977,-19.531,834.473,0.000
1606133492.090,263.184,-3.418,-19.531,807.617,0.000
1606133492.094,-174.316,-34.668,-41.992,-332.031,0.000
1606133492.098,-424.805,-52.734,-49.805,-1000.000,0.000
1606133492.102,-157.227,-32.715,-32.227,-444.824,0.000
1606133492.106,252.930,-9.277,-12.695,691.406,0.000
1606133492.110,288.574,-6.348,-10.742,860.352,0.000
1606133492.114,-105.957,-28.809,-36.133,-193.848,0.000
1606133492.118,-400.391,-47.852,-52.734,-1000.000,0.000
1606133492.121,-223.633,-42.480,-50.293,-602.051,0.000
1606133492.125,207.520,-12.695,-26.855,568.848,0.000
1606133492.129,326.660,3.418,-16.113,945.312,0.000
1606133492.133,-55.664,-21.484,-32.227,-49.805,0.000
1606133492.137,-398.926,-48.828,-52.734,-1000.000,0.000
1606133492.141,-270.020,-39.551,-42.969,-713.867,0.000
1606133492.145,171.387,-8.301,-20.020,458.496,0.000
1606133492.149,340.332,4.395,-13.184,993.652,0.000
1606133492.153,-5.371,-23.926,-29.297,101.562,0.000
1606133492.157,-386.230,-52.734,-43.945,-955.078,0.000
1606133492.160,-314.453,-42.480,-35.156,-811.035,0.000
1606133492.164,126.953,-22.461,-20.508,334.473,0.000
1606133492.168,345.703,-9.766,-12.207,-968.262,0.000
1606133492.172,49.316,-27.344,-25.391,276.855,0.000
1606133492.176,-359.863,-57.617,-49.805,-843.262,0.000
1606133492.180,-357.910,-61.035,-54.199,-889.648,0.000
1606133492.184,75.195,-32.227,-33.203,215.332,0.000
1606133492.188,349.121,-9.277,-16.113,-952.637,0.000
1606133492.192,109.863,-25.391,-29.297,445.801,0.000
1606133492.196,-327.148,-55.176,-53.223,-708.008,0.000
1606133492.200,-405.273,-63.477,-53.223,-957.031,0.000
1606133492.203,3.906,-34.668,-28.809,76.660,0.000
1606133492.207,329.590,-11.719,-9.766,-966.797,0.000
1606133492.211,159.668,-21.973,-20.996,587.402,0.000
1606133492.215,-270.020,-45.410,-41.504,-578.613,0.000
1606133492.219,-401.855,-24.414,-41.016,-1000.000,0.000
1606133492.223,-27.344,6.348,-20.020,-82.031,0.000
1606133492.227,339.355,0.977,-3.906,968.262,0.000
1606133492.231,226.074,-13.184,-15.137,695.801,0.000
1606133492.235,-215.332,-45.410,-44.922,-473.145,0.000
1606133492.239,-397.461,-54.199,-49.805,-1000.000,0.000
1606133492.243,-75.195,-32.715,-24.414,-248.535,0.000
1606133492.246,316.406,-13.672,-11.719,862.305,0.000
1606133492.250,276.367,-13.672,-16.602,795.410,0.000
1606133492.254,-165.039,-39.551,-32.227,-348.145,0.000
1606133492.258,-406.738,-51.270,-42.969,-1000.000,0.000
1606133492.262,-142.090,-40.527,-30.273,-424.316,0.000
1606133492.266,269.531,-7.812,-7.812,730.469,0.000
1606133492.270,300.781,17.578,-11.230,868.652,0.000
1606133492.274,-125.488,-29.297,-42.480,-235.840,0.000
1606133492.278,-420.898,-53.711,-53.223,-1000.000,0.000
1606133492.282,-205.078,-34.668,-40.527,-585.449,0.000
1606133492.285,235.840,-12.695,-22.461,590.820,0.000
1606133492.289,325.684,-4.395,-14.160,923.828,0.000
1606133492.293,-76.660,-35.645,-37.598,-111.816,0.000
1606133492.297,-408.691,-60.059,-57.617,-1000.000,0.000
1606133492.301,-254.883,-42.480,-47.852,-695.801,0.000
1606133492.305,180.176,-17.090,-24.414,474.609,0.000
1606133492.309,329.102,-13.672,-16.113,976.074,0.000
1606133492.313,-22.949,-41.016,-35.156,54.199,0.000
1606133492.317,-395.020,-36.621,-53.711,-977.539,0.000
1606133492.321,-313.477,3.906,-47.363,-785.156,0.000
1606133492.325,138.184,1.953,-19.531,370.117,0.000
1606133492.328,346.680,-10.742,-11.230,-972.168,0.000
1606133492.332,42.969,-36.133,-24.414,255.859,0.000
1606133492.336,-354.004,-60.059,-38.574,-859.375,0.000
1606133492.340,-347.656,-53.711,-38.086,-875.000,0.000
1606133492.344,83.496,-35.645,-18.555,244.629,0.000
1606133492.348,351.074,-16.113,-4.883,-957.031,0.000
1606133492.352,109.863,-32.715,-16.113,403.809,0.000
1606133492.356,-310.547,-52.246,-41.016,-741.211,0.000
1606133492.360,-370.605,-33.203,-41.016,-938.477,0.000
1606133492.364,46.875,-23.438,-18.066,109.863,0.000
1606133492.368,359.375,-16.602,-10.254,-966.797,0.000
1606133492.371,166.016,-32.715,-24.414,556.641,0.000
1606133492.375,-284.180,-64.941,-41.504,-627.441,0.000
1606133492.379,-386.230,-64.453,-43.945,-958.496,0.000
1606133492.383,-3.906,-41.992,-26.367,11.719,0.000
1606133492.387,329.102,-13.672,-6.836,971.191,0.000
1606133492.391,208.008,-15.625,-7.324,682.129,0.000
1606133492.395,-239.258,-53.711,-37.109,-482.422,0.000
1606133492.399,-420.898,-24.414,-53.223,-1000.000,0.000
1606133492.403,-88.867,10.742,-33.203,-226.562,0.000
1606133492.407,305.664,-4.395,-11.719,883.789,0.000
1606133492.410,249.512,-10.742,-15.137,767.578,0.000
1606133492.414,-199.707,-36.133,-42.969,-389.648,0.000
1606133492.418,-428.711,-52.246,-56.152,-1000.000,0.000
1606133492.422,-148.926,-38.574,-38.086,-402.832,0.000
1606133492.426,262.207,-6.348,-16.113,752.441,0.000
1606133492.430,281.738,-5.371,-14.160,855.957,0.000
1606133492.434,-146.973,-42.969,-36.621,-256.836,0.000
1606133492.438,-429.688,-43.945,-47.363,-1000.000,0.000
1606133492.442,-204.590,-22.461,-33.691,-525.879,0.000
1606133492.446,228.516,-12.207,-7.324,637.207,0.000
1606133492.450,313.965,-13.184,-1.953,927.734,0.000
1606133492.453,-85.449,-39.551,-33.203,-96.680,0.000
1606133492.457,-404.785,-34.668,-50.781,-1000.000,0.000
1606133492.461,-235.840,-14.648,-36.621,-648.926,0.000
1606133492.465,209.961,-1.953,-10.254,521.484,0.000
1606133492.469,356.445,2.441,-5.371,981.934,0.000
1606133492.473,-3.906,-25.879,-25.879,66.895,0.000
1606133492.477,-367.188,-43.457,-41.504,-980.469,0.000
1606133492.481,-269.043,-34.668,-37.109,-763.672,0.000
1606133492.485,176.270,-14.648,-16.113,395.508,0.000
1606133492.489,380.859,-1.953,-6.348,-975.586,0.000
1606133492.493,63.965,-31.738,-26.367,223.633,0.000
1606133492.496,-343.750,-54.199,-54.688,-889.648,0.000
1606133492.500,-316.406,-12.695,-50.293,-855.957,0.000
1606133492.504,129.883,0.000,-20.020,276.855,0.000
1606133492.508,380.371,-16.113,-14.160,-956.543,0.000
1606133492.512,120.605,-25.879,-22.949,374.512,0.000
1606133492.516,-299.316,-44.922,-37.598,-767.090,0.000
1606133492.520,-343.750,-47.852,-42.480,-923.340,0.000
1606133492.524,72.266,-27.832,-17.090,145.020,0.000
1606133492.528,375.000,-8.789,2.441,-958.984,0.000
1606133492.532,170.410,-23.926,-10.254,534.180,0.000
1606133492.535,-272.949,-48.340,-34.180,-628.906,0.000
1606133492.539,-379.395,-38.574,-37.109,-986.328,0.000
1606133492.543,-1.465,-30.273,-19.531,-19.531,0.000
1606133492.547,338.867,-21.973,-1.953,991.211,0.000
1606133492.551,202.148,-19.043,-12.695,657.227,0.000
1606133492.555,-249.023,-51.270,-31.250,-512.695,0.000
1606133492.559,-423.828,-63.477,-37.598,-1000.000,0.000
1606133492.563,-86.426,-41.016,-20.996,-192.871,0.000
1606133492.567,290.039,-23.926,0.000,904.297,0.000
1606133492.571,217.285,-31.250,-3.906,750.488,0.000
1606133492.575,-228.516,-59.082,-28.809,-411.621,0.000
1606133492.578,-442.871,-72.754,-36.133,-1000.000,0.000
1606133492.582,-145.508,-48.828,-12.695,-335.938,0.000
1606133492.586,259.766,-23.926,7.812,799.805,0.000
1606133492.590,254.395,-21.484,-3.418,833.496,0.000
1606133492.594,-177.246,-57.129,-27.832,-288.086,0.000
1606133492.598,-443.359,-53.223,-46.387,-1000.000,0.000
1606133492.602,-204.102,-18.066,-38.086,-502.930,0.000
1606133492.606,234.375,-15.625,-13.184,662.109,0.000
1606133492.610,314.453,-15.625,-9.766,912.109,0.000
1606133492.614,-82.520,-37.598,-31.738,-136.230,0.000
1606133492.618,-391.113,-55.176,-47.363,-1000.000,0.000
1606133492.621,-214.844,-43.945,-37.598,-624.023,0.000
1606133492.625,228.027,-15.625,-9.766,548.340,0.000
1606133492.629,361.328,-5.859,-3.906,961.426,0.000
1606133492.633,-14.648,-39.551,-32.227,7.324,0.000
1606133492.637,-369.141,-41.016,-47.852,-1000.000,0.000
1606133492.641,-256.348,-13.672,-40.527,-746.094,0.000
1606133492.645,187.988,-7.324,-20.508,419.434,0.000
1606133492.649,371.094,0.488,-9.766,-989.258,0.000
1606133492.653,42.969,-27.344,-31.250,172.852,0.000
1606133492.657,-347.168,-60.059,-52.734,-916.016,0.000
1606133492.660,-306.152,-48.340,-41.504,-834.473,0.000
1606133492.664,137.695,-19.043,-13.672,306.152,0.000
1606133492.668,368.164,-5.859,-9.277,-963.867,0.000
1606133492.672,91.797,-28.320,-27.832,344.727,0.000
1606133492.676,-321.289,-40.527,-42.480,-789.062,0.000
1606133492.680,-344.238,-3.906,-41.016,-900.879,0.000
1606133492.684,76.660,4.883,-20.508,190.430,0.000
1606133492.688,357.910,-4.395,-14.648,-957.031,0.000
1606133492.692,149.902,-16.113,-25.879,503.906,0.000
1606133492.696,-278.809,-42.480,-41.992,-654.297,0.000
1606133492.700,-373.535,-47.363,-42.969,-969.238,0.000
1606133492.703,17.578,-31.250,-18.066,36.621,0.000
1606133492.707,358.398,-9.766,-1.465,-987.793,0.000
1606133492.711,210.938,-13.672,-8.301,641.113,0.000
1606133492.715,-240.723,-43.945,-33.203,-526.367,0.000
1606133492.719,-394.531,-49.805,-43.945,-1000.000,0.000
1606133492.723,-38.086,-25.879,-21.484,-138.184,0.000
1606133492.727,323.242,-13.184,-0.977,928.711,0.000
1606133492.731,236.328,-24.414,-10.742,727.539,0.000
1606133492.735,-203.613,-55.176,-33.203,-437.012,0.000
1606133492.739,-411.133,-48.340,-41.504,-1000.000,0.000
1606133492.743,-110.840,-27.832,-27.832,-318.848,0.000
1606133492.746,284.180,-22.461,-8.789,813.477,0.000
1606133492.750,275.879,-18.066,-10.254,822.754,0.000
1606133492.754,-154.297,-38.574,-35.156,-311.035,0.000
1606133492.758,-419.922,-56.641,-53.223,-1000.000,0.000
1606133492.762,-171.387,-44.922,-35.156,-482.422,0.000
1606133492.766,252.441,-20.996,-14.648,681.152,0.000
1606133492.770,301.758,-15.625,-17.090,892.578,0.000
1606133492.774,-113.281,-48.340,-34.668,-181.641,0.000
1606133492.778,-423.828,-54.688,-52.734,-1000.000,0.000
1606133492.782,-233.398,-18.066,-43.457,-620.117,0.000
1606133492.785,210.938,-8.301,-15.137,554.199,0.000
1606133492.789,326.660,-21.484,-13.184,950.195,0.000
1606133492.793,-50.781,-50.293,-36.621,-33.691,0.000
1606133492.797,-395.508,-63.477,-45.898,-1000.000,0.000
1606133492.801,-267.578,-46.875,-32.715,-711.426,0.000
1606133492.805,179.688,-18.066,-10.254,454.590,0.000
1606133492.809,349.609,-10.254,-3.906,-995.605,0.000
1606133492.813,16.602,-31.738,-20.020,171.387,0.000
1606133492.817,-368.652,-42.969,-40.527,-915.527,0.000
1606133492.821,-315.430,-34.668,-38.086,-812.500,0.000
1606133492.825,127.441,-26.855,-15.137,339.355,0.000
1606133492.828,350.586,-18.066,-10.742,-963.379,0.000
1606133492.832,70.801,-24.414,-24.414,324.219,0.000
1606133492.836,-333.984,-46.875,-36.621,-810.547,0.000
1606133492.840,-342.773,-43.945,-39.062,-895.508,0.000
1606133492.844,88.379,-19.531,-21.484,209.961,0.000
1606133492.848,374.023,-3.418,-4.395,-952.637,0.000
1606133492.852,146.973,-18.555,-15.625,470.215,0.000
1606133492.856,-284.668,-45.898,-41.016,-685.059,0.000
1606133492.860,-363.281,-44.434,-50.293,-959.473,0.000
1606133492.864,34.668,-21.973,-30.762,57.129,0.000
1606133492.868,361.816,-8.301,-11.230,-979.004,0.000
1606133492.871,197.754,-20.508,-21.973,594.727,0.000
1606133492.875,-250.977,-52.734,-46.387,-573.730,0.000
1606133492.879,-400.879,-33.203,-51.758,-1000.000,0.000
1606133492.883,-43.457,-1.465,-27.832,-120.605,0.000
1606133492.887,322.266,-5.859,-2.930,945.312,0.000
1606133492.891,223.145,-18.555,-7.812,709.473,0.000
1606133492.895,-225.586,-47.852,-34.180,-459.473,0.000
1606133492.899,-426.758,-62.012,-42.969,-1000.000,0.000
1606133492.903,-111.816,-45.410,-25.391,-294.434,0.000
1606133492.907,288.574,-10.254,-4.395,831.055,0.000
1606133492.910,260.254,-10.742,-8.789,809.082,0.000
1606133492.914,-165.527,-51.270,-41.992,-326.660,0.000
1606133492.918,-426.270,-44.922,-58.594,-1000.000,0.000
1606133492.922,-188.477,-24.414,-43.457,-471.680,0.000
1606133492.926,238.281,-8.301,-26.367,700.195,0.000
1606133492.930,283.691,-2.930,-21.484,875.488,0.000
1606133492.934,-143.555,-41.016,-25.391,-220.215,0.000
1606133492.938,-444.824,-54.688,-35.645,-1000.000,0.000
1606133492.942,-247.070,-38.086,-31.738,-593.262,0.000
1606133492.946,187.500,-18.555,-13.184,578.125,0.000
1606133492.950,303.711,-12.207,-9.766,945.312,0.000
1606133492.953,-74.219,-43.945,-31.250,-52.246,0.000
1606133492.957,-412.109,-46.875,-53.711,-1000.000,0.000
1606133492.961,-261.719,-3.906,-42.480,-688.965,0.000
1606133492.965,191.406,-4.395,-11.230,476.074,0.000
1606133492.969,351.562,-10.254,-4.883,998.535,0.000
1606133492.973,10.742,-30.273,-23.926,126.953,0.000
1606133492.977,-362.793,-58.105,-40.039,-948.242,0.000
1606133492.981,-287.109,-52.246,-41.504,-794.434,0.000
1606133492.985,164.551,-16.602,-15.137,359.863,0.000
1606133492.989,386.719,2.441,-0.977,-966.797,0.000
1606133492.993,97.656,-15.137,-24.902,294.922,0.000
1606133492.996,-302.734,-42.480,-47.363,-833.496,0.000
1606133493.000,-306.641,-44.434,-44.434,-876.953,0.000
1606133493.004,125.488,-8.789,-17.090,238.770,0.000
1606133493.008,391.113,7.812,-4.395,-952.148,0.000
1606133493.012,144.043,-16.113,-20.996,449.219,0.000
1606133493.016,-287.109,-35.645,-48.340,-706.543,0.000
1606133493.020,-355.469,-25.879,-60.547,-950.195,0.000
1606133493.024,57.129,-9.277,-34.180,91.797,0.000
1606133493.028,377.441,5.371,-10.742,-971.680,0.000
1606133493.032,191.895,-7.324,-23.438,576.172,0.000
1606133493.035,-256.348,-42.480,-46.875,-584.961,0.000
1606133493.039,-384.766,-58.594,-50.293,-1000.000,0.000
1606133493.043,-13.672,-34.668,-24.902,-71.289,0.000
1606133493.047,337.402,-4.883,-7.324,968.750,0.000
1606133493.051,218.750,-14.160,-23.926,690.430,0.000
1606133493.055,-233.887,-53.223,-49.805,-476.562,0.000
1606133493.059,-421.875,-36.621,-57.129,-1000.000,0.000
1606133493.063,-95.215,-2.441,-35.645,-255.371,0.000
1606133493.067,292.480,-9.277,-8.301,861.328,0.000
1606133493.071,247.559,-18.555,-14.648,786.133,0.000
1606133493.075,-196.777,-45.898,-46.875,-366.699,0.000
1606133493.078,-435.059,-63.477,-54.688,-1000.000,0.000
1606133493.082,-160.645,-47.852,-32.715,-411.133,0.000
1606133493.086,246.582,-22.949,-15.137,739.258,0.000
1606133493.090,273.438,-18.555,-19.043,859.863,0.000
1606133493.094,-146.484,-55.176,-36.621,-247.559,0.000
1606133493.098,-436.035,-61.035,-47.852,-1000.000,0.000
1606133493.102,-213.379,-31.250,-35.645,-566.895,0.000
1606133493.106,228.027,-15.625,-6.348,604.492,0.000
1606133493.110,316.895,-9.766,-0.488,928.711,0.000
1606133493.114,-75.684,-32.715,-27.344,-93.750,0.000
1606133493.118,-401.367,-56.641,-43.457,-1000.000,0.000
1606133493.121,-249.023,-50.781,-35.645,-679.199,0.000
1606133493.125,197.754,-21.973,-19.531,487.793,0.000
1606133493.129,354.492,-11.719,-10.742,983.887,0.000
1606133493.133,-0.977,-31.738,-26.367,79.102,0.000
1606133493.137,-377.441,-59.570,-42.969,-973.633,0.000
1606133493.141,-293.945,-51.270,-34.180,-770.508,0.000
1606133493.145,155.273,-12.207,-9.766,393.555,0.000
1606133493.149,355.469,0.000,-5.371,-975.098,0.000
1606133493.153,46.387,-24.414,-22.461,254.395,0.000
1606133493.157,-353.516,-46.387,-43.457,-861.816,0.000
1606133493.160,-336.914,-27.832,-46.387,-859.863,0.000
1606133493.164,105.469,-3.906,-19.531,270.508,0.000
1606133493.168,368.652,0.000,-5.859,-953.125,0.000
1606133493.172,113.770,-16.602,-23.438,421.875,0.000
1606133493.176,-312.012,-41.992,-42.480,-729.492,0.000
1606133493.180,-363.281,-41.504,-43.457,-930.664,0.000
1606133493.184,49.316,-17.090,-21.484,135.254,0.000
1606133493.188,355.957,-5.859,-1.953,-959.473,0.000
1606133493.192,173.340,-17.578,-16.113,563.965,0.000
1606133493.196,-261.230,-38.574,-47.852,-600.098,0.000
1606133493.200,-392.578,-31.738,-52.734,-1000.000,0.000
1606133493.203,-10.254,-22.461,-31.738,-52.246,0.000
1606133493.207,355.957,-13.672,-15.625,983.887,0.000
1606133493.211,229.980,-19.531,-17.578,676.270,0.000
1606133493.215,-214.355,-45.898,-35.645,-493.652,0.000
1606133493.219,-386.230,-52.246,-44.434,-1000.000,0.000
1606133493.223,-50.781,-31.738,-22.949,-202.637,0.000
1606133493.227,332.031,-7.812,-7.812,895.020,0.000
1606133493.231,267.090,-12.207,-18.555,769.531,0.000
1606133493.235,-177.246,-45.410,-39.551,-383.301,0.000
1606133493.239,-406.738,-22.461,-52.246,-1000.000,0.000
1606133493.243,-120.605,14.648,-36.133,-373.047,0.000
1606133493.246,286.621,-4.883,-19.531,773.438,0.000
1606133493.250,291.016,-14.160,-20.996,848.633,0.000
1606133493.254,-131.836,-43.457,-35.156,-266.602,0.000
1606133493.258,-410.645,-61.523,-53.223,-1000.000,0.000
1606133493.262,-186.523,-44.922,-39.551,-532.715,0.000
1606133493.266,239.746,-20.020,-13.672,635.254,0.000
1606133493.270,313.477,-16.113,-10.254,919.922,0.000
1606133493.274,-95.215,-43.457,-35.156,-123.535,0.000
1606133493.278,-424.805,-63.477,-43.945,-1000.000,0.000
1606133493.282,-253.418,-52.246,-28.320,-650.879,0.000
1606133493.285,191.895,-26.855,-12.695,520.020,0.000
1606133493.289,331.543,-19.043,-6.348,976.562,0.000
1606133493.293,-29.785,-45.410,-20.020,52.734,0.000
1606133493.297,-391.602,-44.434,-33.691,-989.258,0.000
1606133493.301,-290.527,-22.949,-22.949,-748.047,0.000
1606133493.305,157.715,-23.438,-4.395,419.922,0.000
1606133493.309,355.957,-18.066,-6.348,-978.516,0.000
1606133493.313,37.598,-36.621,-21.973,224.121,0.000
1606133493.317,-353.027,-56.641,-33.691,-885.742,0.000
1606133493.321,-314.453,-44.434,-32.715,-841.309,0.000
1606133493.325,125.977,-20.020,-12.207,296.387,0.000
1606133493.328,380.859,-4.395,4.395,-951.172,0.000
1606133493.332,116.211,-17.090,-15.137,395.508,0.000
1606133493.336,-312.988,-43.457,-42.969,-758.301,0.000
1606133493.340,-355.957,-21.973,-43.945,-927.734,0.000
1606133493.344,62.988,-4.395,-21.973,148.438,0.000
1606133493.348,360.352,-10.254,-9.277,-956.055,0.000
1606133493.352,154.297,-24.414,-21.973,521.484,0.000
1606133493.356,-288.574,-55.664,-47.363,-643.066,0.000
1606133493.360,-393.066,-64.453,-45.410,-982.910,0.000
1606133493.364,-3.906,-36.621,-20.996,-3.906,0.000
1606133493.368,333.984,-10.742,-10.254,-999.023,0.000
1606133493.371,190.430,-23.926,-14.160,644.531,0.000
1606133493.375,-258.789,-47.852,-36.133,-525.879,0.000
1606133493.379,-421.875,-28.320,-49.805,-1000.000,0.000
1606133493.383,-72.266,-18.066,-35.156,-186.523,0.000
1606133493.387,311.523,-14.648,-9.277,910.645,0.000
1606133493.391,237.305,-16.602,-12.695,745.605,0.000
1606133493.395,-214.355,-47.852,-42.969,-416.504,0.000
1606133493.399,-436.035,-61.523,-52.246,-1000.000,0.000
1606133493.403,-134.766,-42.969,-34.180,-341.797,0.000
1606133493.407,272.949,-14.160,-18.555,797.852,0.000
1606133493.410,265.625,-13.184,-22.949,835.938,0.000
1606133493.414,-165.039,-45.898,-35.156,-288.086,0.000
1606133493.418,-437.500,-61.035,-49.805,-1000.000,0.000
1606133493.422,-201.172,-39.062,-43.457,-494.629,0.000
1606133493.426,232.910,-16.113,-20.508,672.852,0.000
1606133493.430,294.922,-20.020,-18.066,904.297,0.000
1606133493.434,-119.629,-56.641,-39.062,-161.621,0.000
1606133493.438,-426.270,-60.059,-55.176,-1000.000,0.000
1606133493.442,-240.723,-26.367,-47.363,-628.906,0.000
1606133493.446,204.590,-17.578,-22.461,541.992,0.000
1606133493.450,335.938,-23.438,-15.137,961.914,0.000
1606133493.453,-33.691,-46.387,-32.715,-0.977,0.000
1606133493.457,-385.742,-62.500,-51.270,-1000.000,0.000
1606133493.461,-272.461,-53.223,-41.992,-745.117,0.000
1606133493.465,179.688,-27.344,-13.184,420.410,0.000
1606133493.469,364.258,-9.277,-9.766,-989.258,0.000
1606133493.473,30.762,-31.738,-30.762,165.039,0.000
1606133493.477,-352.051,-52.734,-45.898,-920.410,0.000
1606133493.481,-307.129,-39.551,-42.969,-836.914,0.000
1606133493.485,134.277,-23.438,-22.949,301.270,0.000
1606133493.489,375.977,-8.301,-7.812,-961.914,0.000
1606133493.493,95.703,-20.508,-22.461,324.707,0.000
1606133493.496,-326.660,-42.969,-47.852,-806.152,0.000
1606133493.500,-348.145,-43.457,-49.805,-910.645,0.000
1606133493.504,83.496,-17.090,-25.879,177.734,0.000
1606133493.508,372.070,-1.465,-11.719,-955.078,0.000
1606133493.512,148.926,-22.461,-24.414,487.793,0.000
1606133493.516,-284.668,-45.410,-45.410,-670.410,0.000
1606133493.520,-371.582,-26.367,-50.293,-968.750,0.000
1606133493.524,22.461,-14.160,-23.438,38.574,0.000
1606133493.528,354.004,-11.719,-8.301,-985.352,0.000
1606133493.532,193.848,-19.043,-24.414,611.816,0.000
1606133493.535,-254.883,-42.480,-49.316,-554.199,0.000
1606133493.539,-407.227,-36.621,-54.688,-1000.000,0.000
1606133493.543,-50.781,-23.438,-31.250,-137.695,0.000
1606133493.547,318.359,-9.277,-5.859,937.500,0.000
1606133493.551,227.051,-8.301,-14.160,723.145,0.000
1606133493.555,-219.727,-36.621,-38.574,-441.406,0.000
1606133493.559,-422.852,-50.781,-46.875,-1000.000,0.000
1606133493.563,-113.770,-33.691,-33.203,-301.758,0.000
1606133493.567,291.504,-11.230,-15.625,832.520,0.000
1606133493.571,269.531,-18.555,-20.996,814.453,0.000
1606133493.575,-174.316,-54.688,-41.016,-326.660,0.000
1606133493.578,-423.340,-56.152,-52.734,-1000.000,0.000
1606133493.582,-162.109,-30.273,-38.086,-445.312,0.000
1606133493.586,265.625,-20.508,-8.789,708.008,0.000
1606133493.590,314.941,-23.438,-5.371,895.996,0.000
1606133493.594,-104.980,-43.457,-27.344,-172.363,0.000
1606133493.598,-412.598,-63.477,-41.504,-1000.000,0.000
1606133493.602,-219.238,-50.781,-29.785,-591.309,0.000
1606133493.606,221.191,-20.996,-6.348,579.590,0.000
1606133493.610,328.613,-14.160,-4.883,955.566,0.000
1606133493.614,-57.617,-35.645,-26.367,-20.508,0.000
1606133493.618,-403.320,-41.016,-42.969,-1000.000,0.000
1606133493.621,-273.926,-7.324,-32.715,-710.449,0.000
1606133493.625,172.363,-5.859,-8.789,458.496,0.000
1606133493.629,346.680,-17.578,-3.906,-996.094,0.000
1606133493.633,12.207,-30.762,-20.996,142.578,0.000
1606133493.637,-371.094,-47.852,-31.738,-938.477,0.000
1606133493.641,-310.547,-45.898,-28.320,-812.988,0.000
1606133493.645,136.230,-19.531,-8.301,340.820,0.000
1606133493.649,363.770,-5.371,-2.441,-964.844,0.000
1606133493.653,73.730,-31.250,-16.602,300.781,0.000
1606133493.657,-341.309,-47.363,-38.086,-823.730,0.000
1606133493.660,-352.051,-37.109,-49.805,-899.902,0.000
1606133493.664,84.961,-16.602,-21.973,201.660,0.000
1606133493.668,363.281,-3.418,-8.301,-952.637,0.000
1606133493.672,123.535,-18.066,-31.250,442.383,0.000
1606133493.676,-307.129,-36.621,-53.223,-712.402,0.000
1606133493.680,-373.535,-35.645,-45.410,-954.590,0.000
1606133493.684,31.738,-20.020,-25.879,67.871,0.000
1606133493.688,350.586,-2.441,-9.277,-975.098,0.000
1606133493.692,183.594,-13.184,-13.184,597.656,0.000
1606133493.696,-260.254,-45.898,-42.969,-575.684,0.000
1606133493.700,-394.531,-54.688,-48.340,-1000.000,0.000
1606133493.703,-25.391,-38.574,-21.973,-82.520,0.000
1606133493.707,333.008,-18.066,-4.395,963.867,0.000
1606133493.711,225.586,-16.113,-14.648,707.031,0.000
1606133493.715,-227.539,-52.246,-45.898,-461.914,0.000
1606133493.719,-424.805,-33.203,-51.270,-1000.000,0.000
1606133493.723,-100.586,5.859,-29.785,-261.719,0.000
1606133493.727,299.316,-7.324,-14.648,856.934,0.000
1606133493.731,266.602,-16.113,-22.949,800.293,0.000
1606133493.735,-171.875,-42.480,-37.598,-345.703,0.000
1606133493.739,-421.387,-53.711,-43.945,-1000.000,0.000
1606133493.743,-156.250,-32.715,-36.133,-428.711,0.000
1606133493.746,260.742,-19.043,-13.184,726.074,0.000
1606133493.750,293.945,-23.438,-6.836,875.000,0.000
1606133493.754,-133.789,-49.805,-32.227,-220.703,0.000
1606133493.758,-431.152,-43.457,-48.340,-1000.000,0.000
1606133493.762,-219.238,-26.855,-36.621,-586.426,0.000
1606133493.766,214.844,-25.879,-17.578,588.379,0.000
1606133493.770,310.059,-22.461,-17.090,933.105,0.000
1606133493.774,-86.426,-51.270,-40.039,-89.844,0.000
1606133493.778,-430.664,-63.477,-56.152,-1000.000,0.000
1606133493.782,-282.715,-44.922,-41.504,-700.195,0.000
1606133493.785,173.340,-18.066,-15.137,471.191,0.000
1606133493.789,338.379,-12.207,-11.230,987.305,0.000
1606133493.793,-6.836,-43.945,-23.438,80.566,0.000
1606133493.797,-391.113,-51.758,-39.551,-968.750,0.000
1606133493.801,-314.453,-30.273,-41.992,-797.852,0.000
1606133493.805,137.695,-15.625,-21.484,354.980,0.000
1606133493.809,347.656,-5.371,-10.742,-975.098,0.000
1606133493.813,46.875,-35.156,-26.367,251.465,0.000
1606133493.817,-346.680,-43.945,-42.480,-860.840,0.000
1606133493.821,-329.102,-20.996,-35.645,-870.117,0.000
1606133493.825,109.375,-12.695,-17.578,247.070,0.000
1606133493.828,376.953,-3.418,-6.348,-953.613,0.000
1606133493.832,128.906,-20.508,-20.508,434.082,0.000
1606133493.836,-298.340,-51.758,-40.039,-720.703,0.000
1606133493.840,-358.398,-53.711,-38.086,-944.336,0.000
1606133493.844,55.176,-24.902,-19.531,112.305,0.000
1606133493.848,370.605,-5.859,-5.859,-960.938,0.000
1606133493.852,179.688,-23.438,-18.066,569.824,0.000
1606133493.856,-261.719,-47.852,-38.574,-596.680,0.000
1606133493.860,-386.230,-32.715,-42.480,-999.023,0.000
1606133493.864,-11.230,-16.113,-26.855,-47.363,0.000
1606133493.868,346.191,-9.277,-9.766,981.934,0.000
1606133493.871,226.074,-18.066,-14.648,679.688,0.000
1606133493.875,-224.609,-50.781,-31.738,-486.816,0.000
1606133493.879,-410.645,-57.617,-41.504,-1000.000,0.000
1606133493.883,-86.914,-32.715,-31.738,-234.375,0.000
1606133493.887,299.805,-10.254,-10.254,879.395,0.000
1606133493.891,247.070,-9.277,-16.602,771.484,0.000
1606133493.895,-200.195,-38.086,-43.945,-380.371,0.000
1606133493.899,-439.941,-20.508,-52.246,-1000.000,0.000
1606133493.903,-152.832,13.184,-32.227,-410.645,0.000
1606133493.907,265.137,-6.836,-10.254,747.070,0.000
1606133493.910,282.227,-15.137,-10.742,856.445,0.000
1606133493.914,-145.020,-41.016,-27.832,-255.859,0.000
1606133493.918,-436.035,-62.988,-45.898,-1000.000,0.000
1606133493.922,-212.402,-40.527,-36.133,-545.898,0.000
1606133493.926,227.539,-12.207,-1.465,624.512,0.000
1606133493.930,316.895,-12.207,5.859,924.316,0.000
1606133493.934,-89.844,-46.875,-29.785,-117.676,0.000
1606133493.938,-418.457,-60.547,-43.945,-1000.000,0.000
1606133493.942,-251.465,-36.133,-33.203,-665.527,0.000
1606133493.946,188.965,-18.066,-20.996,500.000,0.000
1606133493.950,331.543,-10.254,-9.277,978.027,0.000
1606133493.953,-28.320,-33.691,-20.996,54.688,0.000
1606133493.957,-395.996,-31.250,-44.434,-984.863,0.000
1606133493.961,-294.434,-9.766,-36.133,-770.996,0.000
1606133493.965,165.039,-10.254,-8.301,390.625,0.000
1606133493.969,366.211,-7.812,-1.465,-978.516,0.000
1606133493.973,46.875,-25.391,-17.578,227.539,0.000
1606133493.977,-349.121,-49.316,-41.992,-878.906,0.000
1606133493.981,-322.266,-48.340,-44.922,-856.445,0.000
1606133493.985,117.676,-23.438,-25.879,274.414,0.000
1606133493.989,372.070,-6.836,-12.207,-952.637,0.000
1606133493.993,106.445,-21.484,-17.090,396.973,0.000
1606133493.996,-325.195,-51.270,-45.898,-753.906,0.000
1606133494.000,-371.094,-24.414,-47.363,-924.316,0.000
1606133494.004,44.922,-5.859,-20.020,146.973,0.000
1606133494.008,346.680,-15.625,-4.883,-958.496,0.000
1606133494.012,149.414,-29.297,-13.672,535.645,0.000
1606133494.016,-289.551,-54.688,-36.621,-628.418,0.000
1606133494.020,-394.531,-56.152,-41.504,-985.840,0.000
1606133494.024,-5.859,-37.109,-19.531,-10.742,0.000
1606133494.028,335.449,-18.066,-7.812,997.070,0.000
1606133494.032,198.242,-25.391,-17.090,662.109,0.000
1606133494.035,-247.070,-45.410,-38.574,-506.836,0.000
1606133494.039,-418.945,-47.852,-52.734,-1000.000,0.000
1606133494.043,-73.730,-32.227,-25.391,-191.406,0.000
1606133494.047,312.988,-16.602,-0.977,903.320,0.000
1606133494.051,247.070,-21.973,-14.160,761.719,0.000
1606133494.055,-201.660,-56.152,-41.016,-396.484,0.000
1606133494.059,-425.293,-64.941,-46.875,-1000.000,0.000
1606133494.063,-134.277,-33.203,-24.902,-348.633,0.000
1606133494.067,276.367,-9.277,1.953,793.945,0.000
1606133494.071,284.668,-10.742,-1.953,838.867,0.000
1606133494.075,-150.879,-37.598,-32.715,-285.645,0.000
1606133494.078,-421.387,-56.152,-49.316,-1000.000,0.000
1606133494.082,-181.152,-36.621,-33.203,-502.441,0.000
1606133494.086,251.953,-15.625,-9.766,662.598,0.000
1606133494.090,320.801,-16.602,-15.625,905.762,0.000
1606133494.094,-87.402,-41.016,-34.180,-152.832,0.000
1606133494.098,-401.855,-46.387,-46.387,-1000.000,0.000
1606133494.102,-222.656,-25.391,-38.574,-637.695,0.000
1606133494.106,217.773,-17.090,-9.766,531.250,0.000
1606133494.110,344.727,-12.695,-3.418,967.773,0.000
1606133494.114,-26.367,-31.250,-21.973,17.578,0.000
1606133494.118,-386.230,-55.176,-37.109,-1000.000,0.000
1606133494.121,-276.855,-49.316,-39.062,-747.559,0.000
1606133494.125,172.363,-20.996,-19.531,418.457,0.000
1606133494.129,359.863,-9.766,-7.324,-986.816,0.000
1606133494.133,23.438,-38.574,-27.344,181.152,0.000
1606133494.137,-378.906,-59.570,-44.922,-911.621,0.000
1606133494.141,-337.891,-49.316,-42.480,-840.332,0.000
1606133494.145,108.398,-18.555,-16.602,297.363,0.000
1606133494.149,349.609,-3.906,0.977,-957.520,0.000
1606133494.153,73.730,-27.832,-22.461,349.121,0.000
1606133494.157,-340.820,-53.711,-46.875,-790.527,0.000
1606133494.160,-367.188,-54.199,-48.340,-917.969,0.000
1606133494.164,53.711,-29.785,-26.855,162.109,0.000
1606133494.168,341.797,-14.160,-13.672,-960.449,0.000
1606133494.172,139.648,-27.344,-23.926,500.488,0.000
1606133494.176,-293.945,-41.504,-45.898,-649.414,0.000
1606133494.180,-413.086,-18.555,-60.059,-986.816,0.000
1606133494.184,-26.367,-0.488,-40.039,-16.602,0.000
1606133494.188,311.035,-3.906,-18.555,998.535,0.000
1606133494.192,156.738,-8.789,-25.879,596.680,0.000
1606133494.196,-310.059,-36.133,-47.852,-570.801,0.000
1606133494.200,-479.004,-43.945,-51.270,-1000.000,0.000
1606133494.203,-124.512,-24.414,-18.066,-218.262,0.000
1606133494.207,249.023,0.000,-0.488,898.926,0.000
1606133494.211,167.480,-6.348,-17.090,695.312,0.000
1606133494.215,-283.203,-41.992,-45.410,-481.934,0.000
1606133494.219,-486.328,-45.898,-57.129,-1000.000,0.000
1606133494.223,-167.969,-23.438,-30.762,-370.605,0.000
1606133494.227,246.094,-4.395,-15.137,786.621,0.000
1606133494.231,233.887,-6.348,-27.832,795.898,0.000
1606133494.235,-197.754,-38.086,-49.805,-353.516,0.000
1606133494.239,-446.289,-27.344,-63.965,-1000.000,0.000
1606133494.243,-195.801,-10.254,-49.316,-507.324,0.000
1606133494.246,229.004,-11.719,-28.320,662.109,0.000
1606133494.250,293.945,-8.789,-24.414,889.648,0.000
1606133494.254,-107.422,-32.715,-36.133,-178.711,0.000
1606133494.258,-425.293,-54.199,-53.223,-1000.000,0.000
1606133494.262,-207.520,-47.363,-45.410,-558.105,0.000
1606133494.266,250.977,-22.461,-17.090,645.020,0.000
1606133494.270,336.914,-7.324,-10.254,953.613,0.000
1606133494.274,-40.527,-42.480,-31.250,-0.488,0.000
1606133494.278,-397.949,-49.805,-50.293,-1000.000,0.000
1606133494.282,-270.020,-9.277,-42.969,-714.355,0.000
1606133494.285,183.105,-8.789,-14.160,456.055,0.000
1606133494.289,352.539,-13.672,-10.254,-992.676,0.000
1606133494.293,20.508,-37.109,-30.762,170.898,0.000
1606133494.297,-356.445,-61.035,-40.527,-920.898,0.000
1606133494.301,-300.293,-52.734,-43.945,-808.105,0.000
1606133494.305,145.996,-30.762,-31.738,346.191,0.000
1606133494.309,377.441,-16.602,-18.066,-965.332,0.000
1606133494.313,103.516,-31.738,-33.203,348.633,0.000
1606133494.317,-298.340,-48.828,-47.852,-785.645,0.000
1606133494.321,-315.430,-40.527,-40.039,-886.230,0.000
1606133494.325,116.699,-23.926,-13.672,228.516,0.000
1606133494.328,402.832,-9.766,0.488,-951.172,0.000
1606133494.332,171.387,-29.785,-15.625,482.422,0.000
1606133494.336,-258.789,-61.035,-35.645,-675.293,0.000
1606133494.340,-333.984,-56.641,-36.133,-953.125,0.000
1606133494.344,65.918,-22.949,-21.484,79.102,0.000
1606133494.348,387.695,0.488,-9.277,-974.609,0.000
1606133494.352,226.074,-8.301,-16.602,625.000,0.000
1606133494.356,-218.262,-40.527,-32.715,-546.387,0.000
1606133494.360,-353.516,-46.875,-39.551,-1000.000,0.000
1606133494.364,14.648,-24.414,-24.902,-58.594,0.000
1606133494.368,368.164,-6.836,-7.324,968.750,0.000
1606133494.371,264.160,-17.578,-16.113,729.492,0.000
1606133494.375,-185.059,-55.176,-28.809,-429.199,0.000
1606133494.379,-383.301,-56.641,-32.715,-1000.000,0.000
1606133494.383,-62.500,-29.297,-17.090,-230.957,0.000
1606133494.387,334.473,-19.531,-1.953,870.605,0.000
1606133494.391,297.363,-20.996,-3.906,820.801,0.000
1606133494.395,-154.297,-42.969,-26.855,-307.617,0.000
1606133494.399,-413.574,-55.664,-41.016,-1000.000,0.000
1606133494.403,-147.949,-40.527,-22.949,-419.922,0.000
1606133494.407,271.973,-9.766,-3.906,728.027,0.000
1606133494.410,309.570,-1.953,-4.883,883.789,0.000
1606133494.414,-116.699,-40.039,-27.344,-199.219,0.000
1606133494.418,-427.734,-54.688,-45.898,-1000.000,0.000
1606133494.422,-225.098,-37.109,-34.668,-582.520,0.000
1606133494.426,219.238,-22.949,-12.695,595.215,0.000
1606133494.430,317.871,-22.949,-16.113,938.477,0.000
1606133494.434,-78.613,-48.340,-37.109,-71.289,0.000
1606133494.438,-422.852,-67.871,-51.270,-1000.000,0.000
1606133494.442,-283.691,-60.059,-41.504,-702.148,0.000
1606133494.446,168.945,-23.438,-15.137,470.215,0.000
1606133494.450,330.566,-9.277,-13.672,985.352,0.000
1606133494.453,-22.949,-41.504,-42.969,82.520,0.000
1606133494.457,-395.020,-48.828,-54.199,-963.379,0.000
1606133494.461,-315.918,-14.648,-44.922,-801.270,0.000
1606133494.465,135.254,-6.348,-25.879,348.145,0.000
1606133494.469,353.516,-18.066,-16.113,-968.750,0.000
1606133494.473,53.711,-42.480,-25.391,270.508,0.000
1606133494.477,-355.469,-64.453,-48.340,-852.051,0.000
1606133494.481,-350.098,-57.129,-46.875,-882.324,0.000
1606133494.485,90.332,-30.273,-18.066,233.398,0.000
1606133494.489,364.746,-17.578,-9.766,-953.613,0.000
1606133494.493,114.258,-28.320,-26.855,406.738,0.000
1606133494.496,-318.848,-49.316,-48.828,-743.652,0.000
1606133494.500,-365.723,-48.828,-47.363,-943.848,0.000
1606133494.504,42.969,-25.391,-24.414,93.750,0.000
1606133494.508,355.469,-3.906,-8.789,-971.191,0.000
1606133494.512,178.711,-16.113,-20.020,570.312,0.000
1606133494.516,-261.230,-51.758,-40.527,-596.191,0.000
1606133494.520,-383.789,-55.176,-44.922,-1000.000,0.000
1606133494.524,-0.977,-25.391,-24.414,-57.617,0.000
1606133494.528,358.398,-6.348,-8.301,977.051,0.000
1606133494.532,239.746,-14.160,-20.996,687.012,0.000
1606133494.535,-209.961,-36.621,-46.387,-480.469,0.000
1606133494.539,-390.625,-44.434,-53.711,-1000.000,0.000
1606133494.543,-56.641,-25.879,-31.250,-222.656,0.000
1606133494.547,327.148,-3.418,-10.742,877.930,0.000
1606133494.551,275.879,-6.348,-19.043,796.875,0.000
1606133494.555,-168.457,-40.527,-44.434,-344.727,0.000
1606133494.559,-406.738,-58.594,-59.570,-1000.000,0.000
1606133494.563,-126.953,-36.133,-41.016,-386.230,0.000
1606133494.567,286.621,-5.371,-10.254,765.137,0.000
1606133494.571,308.105,-3.906,-8.789,863.281,0.000
1606133494.575,-122.070,-34.180,-39.062,-243.164,0.000
1606133494.578,-410.645,-45.898,-57.617,-1000.000,0.000
1606133494.582,-194.336,-29.297,-42.480,-554.688,0.000
1606133494.586,233.887,-2.441,-15.625,613.281,0.000
1606133494.590,319.336,1.953,-5.859,924.316,0.000
1606133494.594,-79.590,-38.086,-28.320,-107.910,0.000
1606133494.598,-413.086,-46.875,-53.711,-1000.000,0.000
1606133494.602,-258.789,-21.973,-42.480,-683.105,0.000
1606133494.606,184.082,-9.766,-16.602,488.770,0.000
1606133494.610,329.102,-5.859,-9.766,981.445,0.000
1606133494.614,-27.344,-30.273,-29.297,54.199,0.000
1606133494.618,-394.531,-59.082,-49.316,-983.887,0.000
1606133494.621,-301.758,-54.688,-39.551,-779.297,0.000
1606133494.625,141.113,-20.996,-18.066,375.000,0.000
1606133494.629,342.773,-3.906,-11.719,-979.980,0.000
1606133494.633,29.297,-25.391,-33.203,210.938,0.000
1606133494.637,-368.652,-52.246,-54.688,-890.137,0.000
1606133494.641,-335.938,-43.945,-42.480,-863.281,0.000
1606133494.645,113.281,-16.602,-13.672,257.812,0.000
1606133494.649,377.441,-7.324,-2.441,-956.055,0.000
1606133494.653,117.676,-29.297,-18.555,381.348,0.000
1606133494.657,-315.918,-53.711,-39.062,-765.137,0.000
1606133494.660,-358.887,-30.762,-37.109,-930.176,0.000
1606133494.664,56.152,-13.184,-15.625,128.906,0.000
1606133494.668,358.887,-13.184,-4.395,-962.891,0.000
1606133494.672,165.039,-20.020,-15.137,549.805,0.000
1606133494.676,-276.367,-44.922,-35.645,-616.211,0.000
1606133494.680,-384.277,-47.852,-41.016,-984.863,0.000
1606133494.684,-0.488,-21.484,-20.508,-14.160,0.000
1606133494.688,353.027,3.418,-5.859,992.676,0.000
1606133494.692,222.656,-11.230,-14.648,667.480,0.000
1606133494.696,-224.609,-45.410,-39.551,-502.930,0.000
1606133494.700,-394.043,-44.922,-44.922,-1000.000,0.000
1606133494.703,-65.430,-31.250,-22.461,-193.848,0.000
1606133494.707,317.383,-15.137,-12.695,895.996,0.000
1606133494.711,264.160,-10.742,-18.555,778.809,0.000
1606133494.715,-180.664,-38.574,-37.109,-374.023,0.000
1606133494.719,-406.738,-54.199,-47.852,-1000.000,0.000
1606133494.723,-115.234,-30.762,-28.809,-338.867,0.000
1606133494.727,292.480,-7.812,-10.742,794.434,0.000
1606133494.731,298.340,-10.742,-9.277,854.980,0.000
1606133494.735,-131.836,-41.016,-31.250,-251.465,0.000
1606133494.739,-411.621,-50.781,-42.969,-1000.000,0.000
1606133494.743,-185.059,-31.250,-29.297,-511.719,0.000
1606133494.746,241.211,-10.742,-13.672,654.297,0.000
1606133494.750,310.059,-2.930,-6.836,911.621,0.000
1606133494.754,-104.004,-33.691,-26.855,-138.184,0.000
1606133494.758,-429.688,-47.852,-45.898,-1000.000,0.000
1606133494.762,-263.184,-26.855,-32.715,-655.273,0.000
1606133494.766,177.246,-9.766,-7.324,515.137,0.000
1606133494.770,312.012,-4.395,-11.230,964.844,0.000
1606133494.774,-58.594,-39.551,-35.645,5.371,0.000
1606133494.778,-422.363,-67.383,-58.105,-1000.000,0.000
1606133494.782,-321.289,-48.828,-49.316,-766.113,0.000
1606133494.785,125.488,-14.648,-20.020,395.020,0.000
1606133494.789,316.895,-6.348,-17.578,-997.559,0.000
1606133494.793,-7.324,-39.062,-31.250,147.461,0.000
1606133494.797,-403.809,-54.199,-50.293,-918.457,0.000
1606133494.801,-372.070,-45.410,-53.223,-863.281,0.000
1606133494.805,75.684,-31.250,-22.949,256.836,0.000
1606133494.809,333.496,-15.137,-5.371,-964.355,0.000
1606133494.813,64.453,-30.273,-21.484,330.566,0.000
1606133494.817,-354.004,-54.199,-44.922,-799.316,0.000
1606133494.821,-371.582,-53.223,-43.457,-918.945,0.000
1606133494.825,59.082,-22.461,-21.973,148.438,0.000
1606133494.828,350.586,-5.859,-12.207,-959.961,0.000
1606133494.832,148.438,-30.762,-31.250,500.488,0.000
1606133494.836,-279.297,-53.223,-59.570,-661.621,0.000
1606133494.840,-385.254,-16.602,-55.176,-980.957,0.000
1606133494.844,5.371,3.906,-33.691,2.930,0.000
1606133494.848,348.633,-5.859,-22.461,-997.070,0.000
1606133494.852,196.289,-16.602,-24.414,636.719,0.000
1606133494.856,-256.348,-48.828,-42.480,-533.691,0.000
1606133494.860,-409.668,-56.641,-42.480,-1000.000,0.000
1606133494.864,-48.340,-30.273,-22.461,-136.230,0.000
1606133494.868,325.195,-6.836,-7.812,930.664,0.000
1606133494.871,245.605,-12.695,-13.184,748.047,0.000
1606133494.875,-200.684,-37.598,-35.645,-411.133,0.000
1606133494.879,-412.598,-39.062,-45.898,-1000.000,0.000
1606133494.883,-110.840,-23.438,-25.391,-301.270,0.000
1606133494.887,289.062,-11.230,-7.812,819.824,0.000
1606133494.891,269.531,-14.648,-17.090,834.473,0.000
1606133494.895,-171.875,-41.016,-35.645,-289.062,0.000
1606133494.899,-433.105,-54.688,-46.387,-1000.000,0.000
1606133494.903,-184.082,-37.598,-35.156,-482.422,0.000
1606133494.907,239.258,-18.555,-16.113,679.199,0.000
1606133494.910,296.387,-16.113,-12.207,894.531,0.000
1606133494.914,-117.188,-38.574,-29.785,-171.387,0.000
1606133494.918,-437.012,-59.570,-52.246,-1000.000,0.000
1606133494.922,-249.512,-42.969,-39.062,-620.605,0.000
1606133494.926,196.777,-21.973,-16.602,554.199,0.000
1606133494.930,314.941,-20.996,-15.137,949.219,0.000
1606133494.934,-66.406,-48.828,-31.250,-41.992,0.000
1606133494.938,-417.969,-60.059,-47.852,-1000.000,0.000
1606133494.942,-296.387,-41.992,-39.551,-734.375,0.000
1606133494.946,145.996,-26.855,-15.137,427.734,0.000
1606133494.950,325.195,-16.602,-10.742,-1000.000,0.000
1606133494.953,-5.371,-42.480,-29.297,126.953,0.000
1606133494.957,-392.090,-70.801,-42.969,-937.988,0.000
1606133494.961,-337.402,-61.523,-43.457,-829.102,0.000
1606133494.965,104.004,-30.273,-19.043,306.152,0.000
1606133494.969,336.426,-14.648,-7.812,-966.797,0.000
1606133494.973,55.176,-36.133,-30.762,305.176,0.000
1606133494.977,-356.445,-61.523,-49.316,-821.289,0.000
1606133494.981,-360.840,-55.176,-41.992,-900.879,0.000
1606133494.985,72.754,-24.414,-16.113,189.941,0.000
1606133494.989,350.098,-2.441,-3.906,-954.590,0.000
1606133494.993,130.859,-20.508,-22.949,474.609,0.000
1606133494.996,-290.039,-51.270,-41.016,-682.617,0.000
1606133495.000,-375.000,-59.082,-41.992,-964.844,0.000
1606133495.004,15.625,-33.691,-25.879,37.598,0.000
1606133495.008,339.844,-11.719,-14.160,-988.281,0.000
1606133495.012,184.570,-16.602,-24.902,609.863,0.000
1606133495.016,-253.906,-38.086,-42.969,-563.477,0.000
1606133495.020,-396.484,-36.133,-47.363,-1000.000,0.000
1606133495.024,-33.691,-21.484,-23.438,-96.191,0.000
1606133495.028,334.473,-11.719,-2.441,948.242,0.000
1606133495.032,241.699,-14.648,-12.207,724.609,0.000
1606133495.035,-199.219,-35.156,-32.227,-439.453,0.000
1606133495.039,-396.973,-46.387,-37.109,-1000.000,0.000
1606133495.043,-83.496,-29.785,-25.879,-268.555,0.000
1606133495.047,315.430,-0.977,-4.395,844.727,0.000
1606133495.051,287.598,-3.418,-6.836,812.988,0.000
1606133495.055,-154.785,-30.762,-36.621,-321.289,0.000
1606133495.059,-411.133,-46.387,-48.340,-1000.000,0.000
1606133495.063,-149.414,-32.227,-30.762,-439.941,0.000
1606133495.067,274.414,-10.254,-3.418,721.680,0.000
1606133495.071,310.547,-15.137,-10.254,882.812,0.000
1606133495.075,-108.398,-41.016,-37.598,-201.172,0.000
1606133495.078,-415.527,-44.922,-53.711,-1000.000,0.000
1606133495.082,-219.238,-24.902,-44.434,-583.008,0.000
1606133495.086,222.656,-10.742,-20.996,588.867,0.000
1606133495.090,325.684,-7.324,-12.695,942.383,0.000
1606133495.094,-66.895,-35.645,-29.297,-60.547,0.000
1606133495.098,-410.645,-61.035,-45.410,-1000.000,0.000
1606133495.102,-274.902,-50.781,-30.762,-710.938,0.000
1606133495.106,170.410,-24.414,-6.836,457.520,0.000
1606133495.110,329.102,-13.184,-5.371,991.211,0.000
1606133495.114,-17.578,-28.809,-22.949,97.656,0.000
1606133495.118,-392.090,-59.570,-41.992,-953.613,0.000
1606133495.121,-331.055,-49.316,-40.039,-820.801,0.000
1606133495.125,110.840,-11.230,-12.695,323.242,0.000
1606133495.129,337.402,-3.906,2.930,-974.609,0.000
1606133495.133,44.922,-24.902,-16.113,254.883,0.000
1606133495.137,-359.375,-46.875,-41.504,-854.492,0.000
1606133495.141,-354.004,-44.434,-37.598,-889.648,0.000
1606133495.145,85.938,-15.137,-9.766,211.914,0.000
1606133495.149,363.281,1.465,0.488,-957.031,0.000
1606133495.153,116.699,-27.832,-16.602,422.852,0.000
1606133495.157,-315.918,-40.527,-39.551,-726.562,0.000
1606133495.160,-376.465,-18.555,-43.945,-953.125,0.000
1606133495.164,38.086,-17.090,-20.996,73.242,0.000
1606133495.168,356.934,-11.230,-2.930,-976.074,0.000
1606133495.172,175.781,-20.020,-15.625,567.871,0.000
1606133495.176,-261.719,-45.898,-42.969,-595.215,0.000
1606133495.180,-384.277,-52.734,-51.758,-1000.000,0.000
1606133495.184,-11.719,-30.762,-27.832,-87.891,0.000
1606133495.188,346.191,-0.488,-7.324,962.402,0.000
1606133495.192,229.004,-5.371,-19.043,693.359,0.000
1606133495.196,-220.215,-38.574,-44.434,-474.121,0.000
1606133495.200,-412.109,-53.711,-58.594,-1000.000,0.000
1606133495.203,-85.938,-39.551,-37.598,-232.910,0.000
1606133495.207,310.547,-10.742,-16.602,878.906,0.000
1606133495.211,264.160,-13.184,-27.832,786.621,0.000
1606133495.215,-179.688,-53.223,-41.992,-360.352,0.000
1606133495.219,-424.805,-29.297,-43.457,-1000.000,0.000
1606133495.223,-148.438,2.930,-37.598,-411.133,0.000
1606133495.227,259.277,-15.625,-21.484,742.188,0.000
1606133495.231,280.762,-16.113,-10.742,862.305,0.000
1606133495.235,-133.789,-32.715,-29.297,-241.211,0.000
1606133495.239,-417.969,-42.969,-45.410,-1000.000,0.000
1606133495.243,-203.613,-30.273,-31.250,-545.898,0.000
1606133495.246,227.051,-4.883,-5.371,617.188,0.000
1606133495.250,310.059,1.465,-2.930,929.688,0.000
1606133495.254,-91.797,-36.621,-32.227,-88.379,0.000
1606133495.258,-430.176,-45.898,-51.758,-1000.000,0.000
1606133495.262,-279.297,-24.902,-38.086,-684.570,0.000
1606133495.266,174.316,-14.160,-18.066,486.328,0.000
1606133495.270,334.961,-8.301,-11.719,981.445,0.000
1606133495.274,-19.043,-35.645,-31.250,59.082,0.000
1606133495.278,-388.184,-61.035,-55.664,-979.004,0.000
1606133495.282,-304.199,-61.523,-45.410,-789.062,0.000
1606133495.285,142.090,-31.250,-19.043,364.258,0.000
1606133495.289,349.121,-8.301,-13.184,-979.980,0.000
1606133495.293,40.527,-27.344,-27.832,222.656,0.000
1606133495.297,-358.887,-44.922,-44.922,-877.930,0.000
1606133495.301,-338.867,-32.715,-40.527,-868.164,0.000
1606133495.305,106.934,-16.113,-14.648,249.023,0.000
1606133495.309,355.957,-10.742,-12.695,-962.891,0.000
1606133495.313,95.215,-33.691,-30.762,379.395,0.000
1606133495.317,-319.824,-50.293,-44.922,-755.371,0.000
1606133495.321,-365.234,-36.621,-44.922,-935.547,0.000
1606133495.325,49.316,-21.973,-26.367,115.723,0.000
1606133495.328,353.027,-10.742,-14.160,-964.844,0.000
1606133495.332,159.180,-22.949,-16.602,548.828,0.000
1606133495.336,-279.785,-49.316,-35.645,-615.723,0.000
1606133495.340,-393.066,-60.059,-44.434,-990.723,0.000
1606133495.344,-10.254,-36.133,-20.508,-26.367,0.000
1606133495.348,335.449,-10.742,-6.836,990.234,0.000
1606133495.352,203.125,-21.973,-20.508,669.922,0.000
1606133495.356,-248.047,-45.410,-43.457,-498.047,0.000
1606133495.360,-420.898,-40.039,-55.176,-1000.000,0.000
1606133495.364,-78.125,-21.973,-30.273,-195.801,0.000
1606133495.368,301.758,-9.277,-7.812,895.996,0.000
1606133495.371,242.188,-9.277,-6.836,773.438,0.000
1606133495.375,-199.707,-35.156,-30.762,-376.953,0.000
1606133495.379,-425.781,-56.152,-53.711,-1000.000,0.000
1606133495.383,-138.184,-40.527,-39.551,-364.258,0.000
1606133495.387,275.391,-7.812,-14.160,781.738,0.000
1606133495.391,282.715,-2.930,-12.695,851.074,0.000
1606133495.395,-143.555,-35.645,-33.203,-259.766,0.000
1606133495.399,-413.086,-45.898,-48.828,-1000.000,0.000
1606133495.403,-184.570,-23.926,-41.504,-522.949,0.000
1606133495.407,247.070,-9.766,-21.973,644.043,0.000
1606133495.410,320.801,-8.789,-17.578,914.551,0.000
1606133495.414,-83.984,-36.133,-29.785,-127.441,0.000
1606133495.418,-404.297,-55.176,-47.852,-1000.000,0.000
1606133495.422,-235.840,-40.039,-44.434,-650.391,0.000
1606133495.426,210.938,-12.207,-19.531,522.461,0.000
1606133495.430,345.215,-7.324,-11.230,967.773,0.000
1606133495.434,-21.973,-33.691,-31.250,20.508,0.000
1606133495.438,-380.859,-48.828,-47.363,-1000.000,0.000
1606133495.442,-282.715,-42.480,-43.457,-756.836,0.000
1606133495.446,163.086,-16.113,-18.066,402.832,0.000
1606133495.450,355.469,1.953,-3.906,-985.352,0.000
1606133495.453,25.391,-28.320,-21.973,194.824,0.000
1606133495.457,-372.559,-58.594,-42.480,-898.926,0.000
1606133495.461,-330.566,-42.480,-40.039,-849.121,0.000
1606133495.465,107.910,-14.160,-13.672,281.738,0.000
1606133495.469,347.656,-6.836,-6.836,-962.402,0.000
1606133495.473,83.008,-21.973,-24.902,348.633,0.000
1606133495.477,-336.426,-44.434,-41.992,-785.156,0.000
1606133495.481,-369.629,-44.434,-39.551,-919.922,0.000
1606133495.485,62.012,-22.949,-18.066,152.832,0.000
1606133495.489,360.840,-0.977,-1.953,-955.078,0.000
1606133495.493,149.902,-13.184,-15.625,516.602,0.000
1606133495.496,-291.992,-42.969,-39.551,-652.832,0.000
1606133495.500,-391.113,-28.320,-41.016,-973.633,0.000
1606133495.504,7.812,-4.883,-21.484,21.973,0.000
1606133495.508,343.262,-4.395,-6.348,-993.652,0.000
1606133495.512,199.707,-19.531,-11.719,642.090,0.000
1606133495.516,-242.188,-44.434,-35.645,-526.367,0.000
1606133495.520,-406.250,-48.828,-45.898,-1000.000,0.000
1606133495.524,-51.758,-32.227,-24.902,-145.508,0.000
1606133495.528,327.148,-8.301,-8.789,924.805,0.000
1606133495.532,247.070,-12.207,-12.207,752.930,0.000
1606133495.535,-197.754,-42.969,-31.738,-404.297,0.000
1606133495.539,-407.227,-44.434,-40.527,-1000.000,0.000
1606133495.543,-104.004,-29.297,-23.438,-314.453,0.000
1606133495.547,299.316,-16.113,0.488,813.477,0.000
1606133495.551,294.434,-9.766,1.465,835.938,0.000
1606133495.555,-139.160,-33.691,-26.367,-286.133,0.000
1606133495.559,-407.715,-53.711,-45.898,-1000.000,0.000
1606133495.563,-160.156,-42.969,-39.551,-470.703,0.000
1606133495.567,268.066,-19.531,-18.066,687.988,0.000
1606133495.571,320.801,-10.742,-15.137,896.973,0.000
1606133495.575,-89.844,-33.691,-34.180,-164.551,0.000
1606133495.578,-403.320,-53.223,-44.922,-1000.000,0.000
1606133495.582,-226.562,-35.156,-34.668,-614.258,0.000
1606133495.586,209.473,-10.254,-8.301,558.105,0.000
1606133495.590,325.195,-13.184,-2.930,951.660,0.000
1606133495.594,-60.059,-41.504,-29.297,-27.344,0.000
1606133495.598,-403.809,-37.109,-44.434,-1000.000,0.000
1606133495.602,-272.461,-17.090,-32.227,-727.539,0.000
1606133495.606,169.922,-9.277,-15.625,435.059,0.000
1606133495.610,345.703,0.977,-9.277,-996.094,0.000
1606133495.614,18.066,-22.949,-30.273,157.227,0.000
1606133495.618,-363.770,-45.898,-49.805,-922.852,0.000
1606133495.621,-314.941,-40.039,-35.645,-823.242,0.000
1606133495.625,133.301,-11.230,-10.254,322.754,0.000
1606133495.629,371.094,2.930,-6.348,-965.332,0.000
1606133495.633,83.984,-25.879,-26.855,325.684,0.000
1606133495.637,-324.707,-46.875,-45.898,-803.223,0.000
1606133495.641,-337.891,-31.250,-35.645,-896.484,0.000
1606133495.645,83.984,-16.602,-14.648,203.125,0.000
1606133495.649,359.375,-11.230,-10.742,-954.590,0.000
1606133495.653,133.301,-24.414,-24.414,479.980,0.000
1606133495.657,-297.852,-55.176,-50.293,-676.270,0.000
1606133495.660,-376.953,-60.547,-49.316,-961.914,0.000
1606133495.664,24.414,-34.180,-23.926,51.758,0.000
1606133495.668,347.168,-7.324,-9.766,-983.398,0.000
1606133495.672,185.059,-15.137,-20.508,606.934,0.000
1606133495.676,-254.395,-42.480,-41.504,-559.082,0.000
1606133495.680,-396.973,-24.414,-44.922,-1000.000,0.000
1606133495.684,-36.621,-5.859,-25.391,-115.723,0.000
1606133495.688,330.566,-10.254,-5.371,940.430,0.000
1606133495.692,238.281,-18.555,-5.371,720.703,0.000
1606133495.696,-209.473,-40.527,-36.133,-443.848,0.000
1606133495.700,-408.691,-41.992,-56.641,-1000.000,0.000
1606133495.703,-94.727,-21.484,-39.062,-285.645,0.000
1606133495.707,298.828,1.953,-16.602,837.891,0.000
1606133495.711,271.973,-3.906,-15.137,804.688,0.000
1606133495.715,-166.992,-36.621,-37.598,-339.355,0.000
1606133495.719,-413.574,-51.270,-53.711,-1000.000,0.000
1606133495.723,-149.414,-40.527,-41.504,-444.824,0.000
1606133495.727,269.043,-20.020,-21.484,708.008,0.000
1606133495.731,307.617,-16.113,-20.508,879.883,0.000
1606133495.735,-106.934,-41.016,-44.434,-207.031,0.000
1606133495.739,-396.484,-43.945,-59.570,-1000.000,0.000
1606133495.743,-187.012,-27.344,-48.340,-583.008,0.000
1606133495.746,235.840,-12.695,-20.508,582.031,0.000
1606133495.750,325.684,-9.277,-3.418,946.777,0.000
1606133495.754,-53.223,-37.598,-26.855,-40.039,0.000
1606133495.758,-397.461,-58.594,-52.246,-1000.000,0.000
1606133495.762,-264.648,-49.805,-41.504,-708.008,0.000
1606133495.766,186.523,-21.484,-17.578,459.961,0.000
1606133495.770,351.562,-4.883,-11.230,994.629,0.000
1606133495.774,8.789,-32.227,-26.855,117.676,0.000
1606133495.778,-366.699,-46.387,-48.828,-948.242,0.000
1606133495.782,-303.223,-27.344,-56.641,-804.199,0.000
1606133495.785,140.137,-15.625,-29.785,348.633,0.000
1606133495.789,354.980,-12.207,-12.207,-971.680,0.000
1606133495.793,59.082,-23.926,-26.367,274.414,0.000
1606133495.797,-348.633,-43.457,-43.457,-844.238,0.000
1606133495.801,-348.145,-44.434,-38.574,-882.812,0.000
1606133495.805,88.379,-20.996,-16.602,225.586,0.000
1606133495.809,354.492,3.418,-6.348,-957.520,0.000
1606133495.813,118.652,-12.695,-15.137,436.523,0.000
1606133495.817,-307.617,-33.691,-38.574,-713.379,0.000
1606133495.821,-371.094,-18.555,-43.945,-948.730,0.000
1606133495.825,41.504,-7.324,-25.391,82.520,0.000
1606133495.828,359.375,2.930,-16.602,-975.586,0.000
1606133495.832,186.035,-7.812,-21.484,571.777,0.000
1606133495.836,-254.395,-36.133,-40.039,-591.309,0.000
1606133495.840,-387.207,-48.828,-41.992,-1000.000,0.000
1606133495.844,-19.531,-34.668,-21.484,-78.613,0.000
1606133495.848,339.355,-6.348,-5.371,962.891,0.000
1606133495.852,224.609,-14.160,-8.789,691.406,0.000
1606133495.856,-226.562,-45.410,-34.180,-476.562,0.000
1606133495.860,-403.320,-45.898,-45.410,-1000.000,0.000
1606133495.864,-69.336,-23.438,-24.902,-234.375,0.000
1606133495.868,309.082,-6.836,-2.930,875.000,0.000
1606133495.871,255.859,-10.254,-14.648,782.227,0.000
1606133495.875,-181.641,-40.527,-41.016,-366.211,0.000
1606133495.879,-417.969,-38.086,-41.016,-1000.000,0.000
1606133495.883,-143.555,-10.742,-18.066,-401.855,0.000
1606133495.887,275.391,-5.371,-2.930,748.047,0.000
1606133495.891,299.316,-15.625,-12.695,863.281,0.000
1606133495.895,-124.512,-41.504,-35.156,-239.746,0.000
1606133495.899,-405.762,-48.828,-44.922,-1000.000,0.000
1606133495.903,-189.941,-34.180,-30.273,-548.828,0.000
1606133495.907,240.234,-14.648,-11.719,616.699,0.000
1606133495.910,329.102,-6.348,-12.695,924.805,0.000
1606133495.914,-61.523,-25.879,-25.391,-94.238,0.000
1606133495.918,-392.578,-38.574,-43.945,-1000.000,0.000
1606133495.922,-242.676,-29.785,-35.645,-681.152,0.000
1606133495.926,198.242,-9.766,-8.789,492.188,0.000
1606133495.930,343.750,0.488,-3.906,978.027,0.000
1606133495.934,-14.648,-25.879,-26.855,61.523,0.000
1606133495.938,-383.301,-45.898,-45.410,-975.098,0.000
1606133495.942,-294.434,-41.016,-37.109,-782.715,0.000
1606133495.946,154.785,-20.508,-14.160,375.977,0.000
1606133495.950,359.863,-10.254,-9.277,-979.492,0.000
1606133495.953,52.246,-30.273,-24.902,235.840,0.000
1606133495.957,-341.309,-32.715,-47.363,-866.699,0.000
1606133495.961,-318.359,-28.809,-45.898,-866.211,0.000
1606133495.965,115.234,-22.461,-15.625,256.348,0.000
1606133495.969,362.793,-8.301,-12.207,-959.473,0.000
1606133495.973,111.816,-22.949,-28.809,393.555,0.000
1606133495.977,-308.594,-39.062,-47.363,-744.629,0.000
1606133495.981,-359.863,-35.645,-55.176,-938.477,0.000
1606133495.985,58.594,-22.461,-30.273,115.723,0.000
1606133495.989,355.957,-7.812,-14.160,-965.820,0.000
1606133495.993,152.344,-28.320,-35.156,529.297,0.000
1606133495.996,-284.180,-55.664,-55.664,-629.883,0.000
1606133496.000,-393.555,-59.570,-51.270,-987.305,0.000
1606133496.004,-13.672,-39.551,-25.391,-31.738,0.000
1606133496.008,329.102,-12.695,-9.766,984.863,0.000
1606133496.012,202.148,-17.090,-17.578,661.621,0.000
1606133496.016,-241.699,-41.504,-36.621,-508.789,0.000
1606133496.020,-409.668,-39.062,-41.504,-1000.000,0.000
1606133496.024,-71.289,-23.438,-22.949,-202.148,0.000
1606133496.028,306.152,-9.766,-5.371,892.578,0.000
1606133496.032,242.188,-13.184,-14.160,760.742,0.000
1606133496.035,-206.055,-47.363,-42.480,-396.484,0.000
1606133496.039,-429.688,-60.547,-55.176,-1000.000,0.000
1606133496.043,-140.137,-38.086,-32.715,-375.000,0.000
1606133496.047,265.625,-11.230,-8.789,770.996,0.000
1606133496.051,269.043,-13.672,-11.719,840.332,0.000
1606133496.055,-163.574,-53.711,-35.156,-278.320,0.000
1606133496.059,-444.824,-56.641,-49.316,-1000.000,0.000
1606133496.063,-210.938,-26.855,-35.156,-525.391,0.000
1606133496.067,230.957,-17.578,-10.742,643.555,0.000
1606133496.071,306.152,-11.719,-9.277,910.645,0.000
1606133496.075,-98.145,-32.715,-29.297,-135.254,0.000
1606133496.078,-409.668,-50.293,-41.504,-1000.000,0.000
1606133496.082,-235.352,-41.504,-36.621,-644.043,0.000
1606133496.086,208.008,-17.090,-16.602,523.926,0.000
1606133496.090,345.215,-0.488,-9.766,971.191,0.000
1606133496.094,-23.438,-27.344,-31.250,34.180,0.000
1606133496.098,-381.348,-52.734,-46.875,-994.629,0.000
1606133496.102,-273.438,-43.457,-37.598,-750.977,0.000
1606133496.106,168.945,-16.113,-14.648,411.621,0.000
1606133496.110,357.910,-6.836,-8.301,-984.863,0.000
1606133496.114,39.062,-28.809,-30.273,202.148,0.000
1606133496.118,-357.910,-50.781,-41.504,-894.043,0.000
1606133496.121,-326.172,-46.875,-36.133,-845.215,0.000
1606133496.125,109.863,-16.113,-22.949,287.598,0.000
1606133496.129,352.051,0.488,-11.230,-960.449,0.000
1606133496.133,90.820,-24.414,-26.855,362.305,0.000
1606133496.137,-325.684,-51.758,-45.898,-778.809,0.000
1606133496.141,-356.934,-49.316,-48.340,-907.227,0.000
1606133496.145,64.453,-25.879,-30.273,180.664,0.000
1606133496.149,350.098,-7.812,-14.160,-955.566,0.000
1606133496.153,139.160,-20.020,-29.297,502.930,0.000
1606133496.157,-302.734,-50.293,-53.223,-657.227,0.000
1606133496.160,-398.926,-40.039,-52.734,-975.586,0.000
1606133496.164,-0.488,-16.113,-26.367,8.789,0.000
1606133496.168,336.426,-13.184,-11.230,999.023,0.000
1606133496.172,195.312,-18.066,-19.043,638.672,0.000
1606133496.176,-247.559,-42.480,-42.480,-528.320,0.000
1606133496.180,-406.250,-56.152,-53.223,-1000.000,0.000
1606133496.184,-47.852,-33.203,-31.250,-150.391,0.000
1606133496.188,322.754,-12.695,-6.348,924.805,0.000
1606133496.192,235.840,-24.414,-16.602,738.770,0.000
1606133496.196,-211.426,-54.688,-53.223,-424.805,0.000
1606133496.200,-421.387,-53.223,-59.570,-1000.000,0.000
1606133496.203,-111.816,-32.227,-36.133,-325.195,0.000
1606133496.207,294.922,-11.719,-15.625,809.082,0.000
1606133496.211,280.273,-9.277,-19.531,827.148,0.000
1606133496.215,-153.809,-46.875,-35.645,-306.641,0.000
1606133496.219,-413.574,-63.965,-43.945,-1000.000,0.000
1606133496.223,-163.086,-43.457,-31.738,-471.680,0.000
1606133496.227,258.789,-14.160,-14.648,685.547,0.000
1606133496.231,305.176,-10.254,-12.695,897.461,0.000
1606133496.235,-104.492,-37.109,-32.715,-162.598,0.000
1606133496.239,-406.738,-36.621,-41.504,-1000.000,0.000
1606133496.243,-217.773,-16.602,-30.273,-599.609,0.000
1606133496.246,214.355,-14.648,-14.648,565.430,0.000
1606133496.250,329.102,-18.066,-10.254,955.566,0.000
1606133496.254,-48.340,-39.062,-38.574,-9.766,0.000
1606133496.258,-401.367,-57.129,-53.711,-1000.000,0.000
1606133496.262,-278.809,-52.734,-45.410,-725.586,0.000
1606133496.266,169.434,-25.391,-20.996,441.895,0.000
1606133496.270,342.773,-14.648,-8.789,-995.117,0.000
1606133496.274,9.277,-33.203,-20.996,155.273,0.000
1606133496.278,-371.094,-48.828,-40.039,-925.781,0.000
1606133496.282,-317.871,-50.781,-44.434,-819.336,0.000
1606133496.285,123.047,-20.020,-19.043,327.637,0.000
1606133496.289,354.004,0.000,-3.906,-965.820,0.000
1606133496.293,71.777,-22.949,-20.996,313.477,0.000
1606133496.297,-333.496,-39.551,-41.992,-815.918,0.000
1606133496.301,-340.332,-33.691,-42.969,-893.066,0.000
1606133496.305,94.238,-11.719,-11.719,213.379,0.000
1606133496.309,377.441,4.395,7.812,-952.637,0.000
1606133496.313,143.555,-22.949,-16.602,472.656,0.000
1606133496.317,-294.434,-51.758,-37.109,-681.152,0.000
1606133496.321,-371.582,-50.293,-38.086,-958.496,0.000
1606133496.325,33.691,-22.949,-19.043,62.012,0.000
1606133496.328,362.793,0.000,1.465,-978.027,0.000
1606133496.332,200.684,-13.672,-7.324,616.211,0.000
1606133496.336,-250.000,-45.898,-36.621,-552.734,0.000
1606133496.340,-398.926,-35.156,-46.875,-1000.000,0.000
1606133496.344,-33.691,-13.184,-25.879,-104.980,0.000
1606133496.348,333.008,-5.859,-11.230,947.754,0.000
1606133496.352,231.445,-13.184,-15.137,714.355,0.000
1606133496.356,-220.215,-47.363,-40.527,-451.660,0.000
1606133496.360,-421.387,-54.199,-59.570,-1000.000,0.000
1606133496.364,-100.586,-34.180,-33.203,-280.762,0.000
1606133496.368,291.016,-13.672,-9.766,844.238,0.000
1606133496.371,255.859,-11.719,-24.414,798.828,0.000
1606133496.375,-178.223,-35.645,-39.551,-347.168,0.000
1606133496.379,-428.711,-33.203,-41.504,-1000.000,0.000
1606133496.383,-171.875,-22.949,-36.621,-446.777,0.000
1606133496.387,246.094,-18.066,-20.996,708.008,0.000
1606133496.391,287.109,-15.625,-15.137,878.418,0.000
1606133496.395,-127.930,-42.480,-33.203,-207.520,0.000
1606133496.399,-427.246,-64.941,-49.805,-1000.000,0.000
1606133496.403,-225.586,-52.734,-40.527,-582.031,0.000
1606133496.407,211.914,-18.555,-18.066,586.426,0.000
1606133496.410,315.430,-11.230,-10.742,943.848,0.000
1606133496.414,-75.684,-38.086,-36.621,-68.848,0.000
1606133496.418,-401.855,-61.035,-57.617,-1000.000,0.000
1606133496.422,-252.930,-53.223,-44.922,-661.621,0.000
1606133496.426,193.848,-17.090,-15.137,467.773,0.000
1606133496.430,364.746,0.488,-8.301,995.117,0.000
1606133496.434,11.230,-38.574,-29.297,108.398,0.000
1606133496.438,-369.141,-50.293,-47.363,-955.078,0.000
1606133496.442,-295.410,-16.113,-43.945,-796.387,0.000
1606133496.446,153.320,-9.766,-18.066,357.910,0.000
1606133496.450,362.305,-16.113,-10.254,-973.145,0.000
1606133496.453,65.918,-29.785,-27.344,272.461,0.000
1606133496.457,-325.684,-50.781,-36.133,-841.797,0.000
1606133496.461,-325.684,-55.664,-31.738,-881.348,0.000
1606133496.465,101.562,-26.367,-15.625,228.516,0.000
1606133496.469,365.234,-3.418,-6.836,-956.543,0.000
1606133496.473,119.629,-24.902,-20.508,435.059,0.000
1606133496.477,-311.523,-44.922,-33.691,-714.844,0.000
1606133496.481,-379.395,-33.203,-37.598,-950.195,0.000
1606133496.485,29.297,-25.391,-21.484,84.961,0.000
1606133496.489,341.797,-12.207,-3.418,-971.191,0.000
1606133496.493,156.250,-28.809,-16.602,564.941,0.000
1606133496.496,-286.621,-56.152,-39.551,-602.539,0.000
1606133496.500,-405.273,-54.688,-39.062,-999.512,0.000
1606133496.504,-27.832,-29.785,-17.090,-63.477,0.000
1606133496.508,332.520,-8.301,2.441,969.727,0.000
1606133496.512,225.098,-16.113,-6.348,689.941,0.000
1606133496.516,-227.051,-52.246,-39.551,-479.980,0.000
1606133496.520,-408.691,-34.668,-44.434,-1000.000,0.000
1606133496.524,-79.590,-13.184,-26.367,-232.910,0.000
1606133496.528,304.199,-18.555,-11.230,868.652,0.000
1606133496.532,264.160,-20.020,-9.277,782.227,0.000
1606133496.535,-169.434,-42.969,-36.621,-365.723,0.000
1606133496.539,-415.039,-49.316,-52.246,-1000.000,0.000
1606133496.543,-149.414,-39.551,-38.086,-407.715,0.000
1606133496.547,259.766,-15.625,-12.695,742.676,0.000
1606133496.551,282.715,-14.160,-9.277,859.863,0.000
1606133496.555,-139.160,-42.480,-35.156,-246.582,0.000
1606133496.559,-424.805,-54.688,-47.852,-1000.000,0.000
1606133496.563,-207.520,-42.480,-35.645,-551.270,0.000
1606133496.567,226.074,-11.230,-13.672,620.117,0.000
1606133496.571,312.012,-4.883,-9.277,919.922,0.000
1606133496.575,-84.473,-35.645,-28.320,-113.770,0.000
1606133496.578,-407.715,-26.367,-48.340,-1000.000,0.000
1606133496.582,-252.441,-11.230,-41.016,-676.270,0.000
1606133496.586,187.500,-12.695,-14.648,493.652,0.000
1606133496.590,333.008,0.000,-6.348,976.562,0.000
1606133496.594,-27.832,-28.320,-25.879,50.293,0.000
1606133496.598,-391.113,-57.129,-44.434,-982.910,0.000
1606133496.602,-299.805,-47.363,-34.668,-776.367,0.000
1606133496.606,139.160,-22.461,-8.301,380.371,0.000
1606133496.610,339.355,-4.395,-0.977,-977.051,0.000
1606133496.614,34.180,-21.484,-18.555,232.422,0.000
1606133496.618,-363.281,-39.551,-41.504,-873.535,0.000
1606133496.621,-338.867,-14.160,-42.480,-863.770,0.000
1606133496.625,102.539,-7.812,-20.020,254.395,0.000
1606133496.629,357.910,-11.719,-6.348,-958.008,0.000
1606133496.633,109.863,-29.785,-14.160,400.879,0.000
1606133496.637,-301.758,-55.664,-36.621,-746.094,0.000
1606133496.641,-345.215,-53.223,-41.992,-930.176,0.000
1606133496.645,71.289,-23.926,-21.973,135.254,0.000
1606133496.649,368.164,4.395,-8.789,-958.984,0.000
1606133496.653,160.645,-15.137,-18.555,533.691,0.000
1606133496.657,-273.926,-44.922,-44.434,-631.348,0.000
1606133496.660,-379.395,-25.391,-45.898,-987.793,0.000
1606133496.664,6.348,-11.719,-17.578,-21.973,0.000
1606133496.668,347.656,-5.859,0.000,991.699,0.000
1606133496.672,207.031,-16.602,-11.719,658.691,0.000
1606133496.676,-236.328,-43.945,-41.016,-512.207,0.000
1606133496.680,-400.391,-49.805,-45.898,-1000.000,0.000
1606133496.684,-64.941,-33.691,-26.367,-189.453,0.000
1606133496.688,306.641,-13.184,-8.301,897.461,0.000
1606133496.692,239.258,-12.207,-11.230,763.184,0.000
1606133496.696,-196.289,-37.109,-36.621,-390.625,0.000
1606133496.700,-418.945,-51.758,-48.828,-1000.000,0.000
1606133496.703,-131.348,-27.832,-28.809,-364.258,0.000
1606133496.707,277.344,-3.418,-11.230,787.598,0.000
1606133496.711,273.438,-6.836,-17.090,833.008,0.000
1606133496.715,-159.668,-40.039,-39.551,-292.480,0.000
1606133496.719,-428.711,-27.344,-56.152,-1000.000,0.000
1606133496.723,-186.035,3.418,-41.504,-515.625,0.000
1606133496.727,247.070,-10.254,-20.508,648.438,0.000
1606133496.731,311.523,-20.020,-17.578,904.297,0.000
1606133496.735,-91.309,-36.133,-33.691,-143.066,0.000
1606133496.739,-407.715,-48.828,-46.875,-1000.000,0.000
1606133496.743,-235.840,-41.504,-32.715,-640.625,0.000
1606133496.746,204.102,-10.742,-7.324,528.320,0.000
1606133496.750,336.426,-5.371,-9.766,978.027,0.000
1606133496.754,-22.949,-39.551,-35.156,45.898,0.000
1606133496.758,-383.789,-36.621,-57.617,-993.164,0.000
1606133496.762,-284.180,-20.508,-52.246,-751.465,0.000
1606133496.766,161.133,-20.996,-33.691,411.621,0.000
1606133496.770,354.004,-8.301,-25.391,-985.352,0.000
1606133496.774,28.809,-26.855,-37.109,195.801,0.000
1606133496.778,-370.605,-57.617,-57.617,-901.855,0.000
1606133496.782,-325.684,-52.246,-44.922,-834.473,0.000
1606133496.785,113.770,-19.043,-12.695,305.176,0.000
1606133496.789,354.492,-9.277,-5.859,-962.891,0.000
1606133496.793,89.355,-27.832,-30.273,339.355,0.000
1606133496.797,-329.590,-47.852,-54.688,-793.457,0.000
1606133496.801,-357.422,-48.340,-51.270,-910.645,0.000
1606133496.805,64.453,-29.785,-30.273,168.945,0.000
1606133496.809,351.562,-13.184,-24.902,-960.938,0.000
1606133496.813,133.789,-32.715,-32.227,493.164,0.000
1606133496.817,-293.457,-61.035,-50.781,-664.062,0.000
1606133496.821,-379.395,-57.617,-53.711,-970.215,0.000
1606133496.825,17.578,-34.180,-20.508,30.762,0.000
1606133496.828,353.516,-15.137,-4.883,-991.211,0.000
1606133496.832,202.148,-24.414,-17.090,642.578,0.000
1606133496.836,-243.652,-55.664,-39.062,-525.391,0.000
1606133496.840,-386.230,-55.176,-41.504,-1000.000,0.000
1606133496.844,-29.785,-24.414,-22.461,-117.676,0.000
1606133496.848,335.938,-2.930,-8.789,938.477,0.000
1606133496.852,246.094,-13.672,-20.020,739.258,0.000
1606133496.856,-205.078,-43.945,-42.969,-416.504,0.000
1606133496.860,-416.504,-45.898,-50.293,-1000.000,0.000
1606133496.864,-113.281,-24.902,-30.273,-300.781,0.000
1606133496.868,293.945,-4.395,-2.441,823.730,0.000
1606133496.871,282.715,-8.301,-2.930,829.590,0.000
1606133496.875,-160.156,-44.434,-26.855,-296.875,0.000
1606133496.879,-425.781,-55.176,-40.527,-1000.000,0.000
1606133496.883,-172.852,-34.180,-28.320,-461.914,0.000
1606133496.887,249.023,-13.672,-12.695,695.801,0.000
1606133496.891,297.363,-12.207,-8.789,897.461,0.000
1606133496.895,-111.328,-42.969,-33.203,-165.039,0.000
1606133496.899,-421.387,-36.133,-57.617,-1000.000,0.000
1606133496.903,-238.770,-10.254,-41.504,-604.492,0.000
1606133496.907,203.613,-16.602,-9.766,565.918,0.000
1606133496.910,321.777,-17.090,-6.348,956.055,0.000
1606133496.914,-59.082,-37.598,-28.320,-15.625,0.000
1606133496.918,-409.668,-60.059,-43.457,-1000.000,0.000
1606133496.922,-282.227,-57.617,-40.527,-724.609,0.000
1606133496.926,165.527,-28.320,-21.484,443.848,0.000
1606133496.930,342.285,-10.254,-13.672,-997.070,0.000
1606133496.934,13.672,-27.832,-25.391,145.020,0.000
1606133496.938,-376.465,-38.086,-43.457,-930.664,0.000
1606133496.942,-327.637,-33.691,-49.316,-823.730,0.000
1606133496.946,120.117,-20.508,-30.273,323.242,0.000
1606133496.950,350.098,-13.184,-18.066,-967.285,0.000
1606133496.953,60.547,-35.156,-28.809,297.852,0.000
1606133496.957,-353.516,-41.992,-47.852,-825.195,0.000
1606133496.961,-361.816,-35.645,-41.016,-897.461,0.000
1606133496.965,72.266,-25.391,-13.672,204.590,0.000
1606133496.969,349.609,-12.207,-5.859,-953.613,0.000
1606133496.973,119.141,-27.344,-18.555,465.820,0.000
1606133496.977,-305.664,-52.734,-39.551,-686.035,0.000
1606133496.981,-382.324,-56.152,-48.340,-965.332,0.000
1606133496.985,15.137,-29.785,-31.738,48.340,0.000
1606133496.989,340.332,-8.301,-11.230,-978.027,0.000
1606133496.993,172.363,-24.902,-18.555,597.168,0.000
1606133496.996,-272.949,-58.594,-43.945,-574.707,0.000
1606133497.000,-411.621,-34.668,-47.852,-1000.000,0.000
1606133497.004,-39.062,-5.371,-24.902,-96.680,0.000
1606133497.008,328.613,-9.277,-11.719,957.031,0.000
1606133497.012,220.703,-20.996,-20.020,710.938,0.000
1606133497.016,-226.562,-54.199,-37.109,-454.590,0.000
1606133497.020,-420.410,-61.523,-53.223,-1000.000,0.000
1606133497.024,-104.004,-29.785,-32.715,-265.625,0.000
1606133497.028,290.527,-3.906,-4.395,855.469,0.000
1606133497.032,257.324,-8.301,-12.207,805.176,0.000
1606133497.035,-176.270,-31.738,-31.738,-333.008,0.000
1606133497.039,-415.039,-27.832,-45.898,-1000.000,0.000
1606133497.043,-149.414,-20.508,-35.645,-431.641,0.000
1606133497.047,264.648,-12.207,-13.672,725.098,0.000
1606133497.051,295.898,-11.230,-13.184,875.488,0.000
1606133497.055,-129.883,-48.340,-32.715,-217.773,0.000
1606133497.059,-423.340,-64.941,-47.363,-1000.000,0.000
1606133497.063,-208.984,-41.504,-35.156,-583.008,0.000
1606133497.067,229.004,-8.301,-9.277,592.285,0.000
1606133497.071,328.125,-7.812,-7.812,937.500,0.000
1606133497.075,-62.012,-38.086,-41.016,-80.566,0.000
1606133497.078,-397.461,-50.781,-60.059,-1000.000,0.000
1606133497.082,-251.953,-33.203,-40.039,-691.895,0.000
1606133497.086,191.895,-5.859,-19.043,477.051,0.000
1606133497.090,350.586,2.441,-12.207,989.258,0.000
1606133497.094,-3.906,-37.598,-31.250,85.938,0.000
1606133497.098,-378.418,-46.387,-55.664,-968.262,0.000
1606133497.102,-303.223,-13.184,-47.852,-797.363,0.000
1606133497.106,137.695,-5.371,-20.508,354.492,0.000
1606133497.110,352.539,-4.883,-7.812,-970.215,0.000
1606133497.114,54.199,-23.438,-25.391,263.672,0.000
1606133497.118,-344.727,-48.340,-45.898,-856.934,0.000
1606133497.121,-346.191,-48.828,-43.945,-876.953,0.000
1606133497.125,85.449,-24.414,-12.207,243.164,0.000
1606133497.129,357.422,-12.207,0.977,-952.148,0.000
1606133497.133,110.840,-40.039,-19.531,428.223,0.000
1606133497.137,-319.824,-54.199,-38.574,-725.098,0.000
1606133497.141,-376.465,-30.273,-46.875,-938.477,0.000
1606133497.145,42.480,-19.043,-24.902,117.188,0.000
1606133497.149,354.492,-1.953,-3.906,-963.379,0.000
1606133497.153,169.922,-11.230,-16.113,577.637,0.000
1606133497.157,-275.391,-51.270,-37.109,-588.379,0.000
1606133497.160,-399.414,-55.664,-43.945,-1000.000,0.000
1606133497.164,-20.996,-33.203,-24.414,-45.410,0.000
1606133497.168,327.637,-15.137,-3.906,983.887,0.000
1606133497.172,210.449,-21.973,-12.207,690.430,0.000
1606133497.176,-232.422,-49.316,-38.086,-474.609,0.000
1606133497.180,-416.016,-33.203,-52.734,-1000.000,0.000
1606133497.184,-82.031,-13.672,-36.133,-218.262,0.000
1606133497.188,305.176,-17.090,-11.230,888.184,0.000
1606133497.192,256.836,-20.996,-7.812,784.180,0.000
1606133497.196,-185.547,-45.410,-28.809,-367.188,0.000
1606133497.200,-424.316,-55.176,-36.621,-1000.000,0.000
1606133497.203,-145.996,-37.109,-21.484,-383.789,0.000
1606133497.207,265.137,-9.277,-8.301,768.555,0.000
1606133497.211,277.832,-11.230,-14.160,857.910,0.000
1606133497.215,-150.391,-44.434,-39.062,-252.441,0.000
1606133497.219,-422.363,-56.152,-48.340,-1000.000,0.000
1606133497.223,-201.172,-44.434,-33.691,-541.992,0.000
1606133497.227,222.168,-24.414,-18.555,623.535,0.000
1606133497.231,307.129,-17.090,-18.066,919.434,0.000
1606133497.235,-91.309,-41.016,-34.180,-119.629,0.000
1606133497.239,-422.363,-44.434,-50.293,-1000.000,0.000
1606133497.243,-257.812,-38.086,-41.016,-666.992,0.000
1606133497.246,192.383,-23.926,-21.484,506.348,0.000
1606133497.250,332.520,-9.766,-16.602,974.121,0.000
1606133497.254,-27.832,-27.344,-30.273,32.715,0.000
1606133497.258,-386.719,-42.480,-47.852,-992.188,0.000
1606133497.262,-291.992,-42.480,-46.387,-779.785,0.000
1606133497.266,159.180,-16.113,-22.461,375.977,0.000
1606133497.270,358.887,5.859,-11.719,-977.539,0.000
1606133497.274,42.969,-17.578,-31.738,223.145,0.000
1606133497.278,-346.680,-34.180,-49.805,-882.812,0.000
1606133497.282,-326.172,-10.742,-43.457,-860.352,0.000
1606133497.285,116.699,-1.465,-21.484,269.043,0.000
1606133497.289,375.000,-10.254,-8.789,-954.102,0.000
1606133497.293,106.934,-23.926,-25.391,382.812,0.000
1606133497.297,-309.082,-47.852,-46.875,-764.648,0.000
1606133497.301,-350.098,-55.176,-42.480,-926.270,0.000
1606133497.305,64.941,-29.297,-17.090,146.484,0.000
1606133497.309,365.723,-8.301,-6.348,-958.496,0.000
1606133497.313,165.039,-22.949,-22.949,535.156,0.000
1606133497.317,-270.508,-40.039,-41.992,-625.977,0.000
1606133497.321,-378.418,-40.527,-44.922,-984.863,0.000
1606133497.325,9.277,-24.414,-25.879,-3.906,0.000
1606133497.328,345.215,-4.883,-8.789,-998.047,0.000
1606133497.332,200.195,-14.160,-20.020,657.715,0.000
1606133497.336,-238.281,-40.039,-36.621,-510.742,0.000
1606133497.340,-406.250,-54.688,-35.645,-1000.000,0.000
1606133497.344,-69.336,-33.691,-17.090,-183.105,0.000
1606133497.348,309.082,-8.789,-4.883,909.180,0.000
1606133497.352,239.258,-19.531,-15.625,756.836,0.000
1606133497.356,-204.102,-47.852,-36.621,-418.945,0.000
1606133497.360,-404.297,-56.641,-42.480,-1000.000,0.000
1606133497.364,-102.051,-32.715,-29.785,-289.062,0.000
1606133497.368,286.133,-7.812,-11.230,793.457,0.000
1606133497.371,286.133,-13.672,-7.812,841.309,0.000
1606133497.375,-153.320,-53.711,-29.297,-279.785,0.000
1606133497.379,-423.828,-30.762,-46.387,-1000.000,0.000
1606133497.383,-176.758,0.977,-29.297,-487.305,0.000
1606133497.387,255.371,-18.066,-9.277,677.734,0.000
1606133497.391,321.289,-20.020,-19.531,910.156,0.000
1606133497.395,-85.449,-45.410,-46.387,-144.531,0.000
1606133497.399,-399.902,-62.012,-62.012,-1000.000,0.000
1606133497.403,-218.750,-49.316,-46.875,-637.695,0.000
1606133497.407,225.586,-15.625,-21.973,534.668,0.000
1606133497.410,356.445,-0.488,-16.602,966.309,0.000
1606133497.414,-20.996,-36.133,-36.133,2.441,0.000
1606133497.418,-390.625,-29.785,-51.758,-1000.000,0.000
1606133497.422,-281.738,-13.184,-40.039,-749.512,0.000
1606133497.426,170.410,-25.879,-18.066,416.016,0.000
1606133497.430,357.910,-12.695,-12.695,-991.211,0.000
1606133497.434,25.391,-31.250,-33.691,156.738,0.000
1606133497.438,-363.770,-63.477,-54.688,-925.293,0.000
1606133497.442,-318.359,-51.270,-45.898,-840.332,0.000
1606133497.446,121.582,-17.578,-20.020,298.340,0.000
1606133497.450,355.957,-9.277,-10.254,-961.426,0.000
1606133497.453,71.289,-33.691,-28.320,324.219,0.000
1606133497.457,-344.238,-48.828,-44.434,-804.688,0.000
1606133497.461,-365.723,-18.555,-44.434,-916.992,0.000
1606133497.465,55.176,-10.742,-26.367,157.227,0.000
1606133497.469,342.285,-15.625,-15.137,-959.473,0.000
1606133497.473,124.512,-31.738,-26.367,483.887,0.000
1606133497.477,-313.965,-56.641,-45.410,-675.781,0.000
1606133497.481,-404.297,-55.176,-52.246,-976.074,0.000
1606133497.485,-6.836,-31.250,-23.926,17.090,0.000
1606133497.489,323.730,-16.602,-4.883,-991.211,0.000
1606133497.493,168.945,-27.832,-21.973,616.211,0.000
1606133497.496,-271.484,-52.734,-45.898,-553.711,0.000
1606133497.500,-416.016,-59.082,-50.781,-1000.000,0.000
1606133497.504,-52.246,-34.180,-29.297,-132.812,0.000
1606133497.508,315.430,-7.324,-8.301,937.012,0.000
1606133497.512,228.027,-18.555,-5.371,731.934,0.000
1606133497.516,-212.402,-51.270,-26.367,-433.594,0.000
1606133497.520,-415.527,-46.875,-44.434,-1000.000,0.000
1606133497.524,-102.539,-30.762,-27.832,-296.875,0.000
1606133497.528,298.828,-15.625,-0.488,831.055,0.000
1606133497.532,277.344,-15.137,-7.812,814.941,0.000
1606133497.535,-161.621,-42.480,-42.480,-320.801,0.000
1606133497.539,-419.922,-53.223,-53.223,-1000.000,0.000
1606133497.543,-162.109,-41.504,-38.574,-460.449,0.000
1606133497.547,266.602,-17.090,-15.625,700.195,0.000
1606133497.551,318.359,-6.348,-10.254,891.113,0.000
1606133497.555,-98.633,-42.969,-33.691,-184.570,0.000
1606133497.559,-414.062,-47.363,-58.594,-1000.000,0.000
1606133497.563,-225.098,-18.066,-42.969,-606.445,0.000
1606133497.567,207.520,-19.043,-14.648,569.336,0.000
1606133497.571,317.871,-19.531,-11.719,945.312,0.000
1606133497.575,-63.477,-44.922,-30.762,-51.270,0.000
1606133497.578,-414.062,-70.312,-50.293,-1000.000,0.000
1606133497.582,-283.691,-59.082,-41.016,-724.609,0.000
1606133497.586,166.992,-33.691,-19.043,441.406,0.000
1606133497.590,340.332,-23.438,-9.277,998.535,0.000
1606133497.594,3.906,-50.781,-27.344,128.906,0.000
1606133497.598,-368.652,-64.941,-48.340,-937.988,0.000
1606133497.602,-306.152,-44.922,-40.527,-815.430,0.000
1606133497.606,139.160,-15.625,-17.090,334.473,0.000
1606133497.610,359.375,-3.906,-11.230,-968.750,0.000
1606133497.614,59.570,-30.273,-27.832,282.227,0.000
1606133497.618,-351.074,-50.781,-48.828,-834.961,0.000
1606133497.621,-357.422,-50.781,-48.828,-898.926,0.000
1606133497.625,74.707,-28.809,-18.066,197.754,0.000
1606133497.629,350.098,-8.789,-7.812,-955.078,0.000
1606133497.633,120.605,-24.902,-24.902,443.848,0.000
1606133497.637,-307.129,-52.246,-46.387,-709.473,0.000
1606133497.641,-382.324,-51.270,-55.176,-955.078,0.000
1606133497.645,32.227,-17.090,-27.832,67.871,0.000
1606133497.649,355.957,3.418,-10.254,-977.539,0.000
1606133497.653,175.781,-19.531,-24.414,572.266,0.000
1606133497.657,-264.648,-53.223,-45.898,-592.285,0.000
1606133497.660,-394.043,-38.574,-53.223,-1000.000,0.000
1606133497.664,-24.902,-8.301,-28.320,-97.168,0.000
1606133497.668,333.008,-6.836,-17.090,955.566,0.000
1606133497.672,226.562,-17.090,-26.367,705.078,0.000
1606133497.676,-222.168,-41.504,-40.039,-460.938,0.000
1606133497.680,-409.668,-52.734,-55.664,-1000.000,0.000
1606133497.684,-86.914,-34.668,-42.480,-254.395,0.000
1606133497.688,296.387,-16.602,-20.508,858.887,0.000
1606133497.692,258.789,-24.414,-26.855,803.223,0.000
1606133497.696,-182.617,-52.734,-42.969,-338.379,0.000
1606133497.700,-433.105,-61.035,-50.781,-1000.000,0.000
1606133497.703,-170.898,-45.898,-36.133,-427.734,0.000
1606133497.707,242.676,-24.902,-10.742,732.910,0.000
1606133497.711,273.438,-26.367,-13.184,874.512,0.000
1606133497.715,-150.391,-49.805,-34.180,-222.656,0.000
1606133497.719,-446.777,-66.406,-42.969,-1000.000,0.000
1606133497.723,-229.004,-58.594,-29.785,-559.082,0.000
1606133497.727,209.473,-31.250,-20.996,607.422,0.000
1606133497.731,304.199,-16.113,-13.672,935.547,0.000
1606133497.735,-85.938,-38.086,-27.344,-68.359,0.000
1606133497.739,-418.945,-50.781,-48.340,-1000.000,0.000
1606133497.743,-270.508,-31.738,-35.156,-680.176,0.000
1606133497.746,181.152,-14.648,-5.859,489.258,0.000
1606133497.750,334.961,-16.113,-1.465,985.352,0.000
1606133497.754,-21.484,-40.527,-21.484,89.844,0.000
1606133497.758,-385.742,-61.035,-37.598,-963.867,0.000
1606133497.762,-298.340,-49.316,-38.574,-783.691,0.000
1606133497.766,155.762,-13.672,-16.602,373.535,0.000
1606133497.770,376.953,3.906,-8.301,-970.703,0.000
1606133497.774,71.777,-16.113,-26.367,260.254,0.000
1606133497.778,-338.379,-47.363,-48.340,-860.352,0.000
1606133497.782,-322.266,-42.969,-53.223,-873.535,0.000
1606133497.785,116.699,-11.719,-30.762,245.117,0.000
1606133497.789,373.535,0.000,-13.672,-956.543,0.000
1606133497.793,121.582,-17.578,-19.043,404.297,0.000
1606133497.797,-306.152,-49.316,-38.086,-743.164,0.000
1606133497.801,-360.840,-57.129,-44.922,-940.918,0.000
1606133497.805,61.035,-23.926,-25.391,110.352,0.000
1606133497.809,371.094,-3.906,-7.812,-963.867,0.000
1606133497.813,173.340,-16.602,-13.672,554.199,0.000
1606133497.817,-274.414,-50.293,-35.645,-611.816,0.000
1606133497.821,-387.207,-59.082,-40.039,-993.652,0.000
1606133497.825,-6.348,-32.227,-18.066,-37.109,0.000
1606133497.828,341.797,-19.043,-5.371,983.398,0.000
1606133497.832,215.332,-23.438,-10.254,685.547,0.000
1606133497.836,-244.141,-48.828,-39.551,-481.445,0.000
1606133497.840,-428.223,-64.941,-55.176,-1000.000,0.000
1606133497.844,-88.867,-41.504,-24.414,-209.961,0.000
1606133497.848,300.293,-13.672,-1.953,891.602,0.000
1606133497.852,237.305,-14.648,-3.906,776.367,0.000
1606133497.856,-210.449,-52.246,-26.855,-373.047,0.000
1606133497.860,-443.359,-71.777,-46.387,-1000.000,0.000
1606133497.864,-156.738,-45.898,-27.344,-381.348,0.000
1606133497.868,255.371,-19.531,-6.348,768.066,0.000
1606133497.871,267.578,-29.297,-9.766,851.074,0.000
1606133497.875,-151.855,-54.199,-27.344,-262.207,0.000
1606133497.879,-422.852,-51.270,-46.875,-1000.000,0.000
1606133497.883,-193.359,-34.180,-39.551,-534.180,0.000
1606133497.887,239.258,-10.254,-16.113,633.789,0.000
1606133497.891,315.918,-10.254,-10.742,921.387,0.000
1606133497.895,-80.078,-34.180,-22.461,-116.211,0.000
1606133497.899,-411.133,-50.293,-43.945,-1000.000,0.000
1606133497.903,-258.789,-42.969,-47.852,-670.898,0.000
1606133497.907,178.223,-20.508,-26.367,500.000,0.000
1606133497.910,322.754,-8.789,-15.625,969.238,0.000
1606133497.914,-35.156,-28.809,-26.855,26.367,0.000
1606133497.918,-402.832,-63.965,-45.410,-994.141,0.000
1606133497.922,-304.199,-59.082,-43.945,-772.949,0.000
1606133497.926,149.414,-17.090,-13.672,388.672,0.000
1606133497.930,346.191,-2.441,-7.324,-983.398,0.000
1606133497.934,23.438,-36.621,-34.668,195.801,0.000
1606133497.938,-365.723,-52.734,-48.828,-898.926,0.000
1606133497.942,-328.613,-25.879,-45.898,-850.586,0.000
1606133497.946,116.211,-0.977,-20.508,279.297,0.000
1606133497.950,364.258,0.977,-5.859,-959.961,0.000
1606133497.953,96.680,-23.926,-21.484,374.512,0.000
1606133497.957,-322.754,-49.805,-41.504,-763.672,0.000
1606133497.961,-361.328,-54.199,-42.969,-920.898,0.000
1606133497.965,63.965,-22.949,-16.602,152.832,0.000
1606133497.969,361.816,-4.395,-2.441,-957.031,0.000
1606133497.973,157.715,-23.438,-18.066,532.227,0.000
1606133497.977,-281.250,-53.711,-43.457,-631.348,0.000
1606133497.981,-380.859,-57.617,-41.992,-982.910,0.000
1606133497.985,13.184,-27.832,-19.531,0.000,0.000
1606133497.989,356.934,-2.930,0.488,-998.535,0.000
1606133497.993,219.727,-23.926,-2.441,659.180,0.000
1606133497.996,-230.469,-53.223,-36.621,-511.230,0.000
1606133498.000,-402.344,-52.246,-54.688,-1000.000,0.000
1606133498.004,-54.688,-31.738,-30.273,-165.527,0.000
1606133498.008,333.984,-4.395,-5.859,919.434,0.000
1606133498.012,260.254,-9.277,-18.066,751.465,0.000
1606133498.016,-192.383,-37.109,-52.246,-409.180,0.000
1606133498.020,-408.691,-42.480,-58.105,-1000.000,0.000
1606133498.024,-111.816,-29.297,-31.738,-334.961,0.000
1606133498.028,289.062,-9.766,-16.602,801.758,0.000
1606133498.032,286.133,-7.812,-17.578,835.449,0.000
1606133498.035,-147.461,-37.109,-43.457,-288.086,0.000
1606133498.039,-421.387,-55.176,-57.129,-1000.000,0.000
1606133498.043,-178.223,-41.992,-28.320,-488.281,0.000
1606133498.047,240.234,-20.020,-10.742,671.875,0.000
1606133498.051,291.504,-14.648,-20.508,901.855,0.000
1606133498.055,-111.328,-38.086,-40.527,-156.250,0.000
1606133498.059,-416.016,-61.523,-45.898,-1000.000,0.000
1606133498.063,-231.445,-51.758,-26.367,-615.234,0.000
1606133498.067,209.473,-14.160,-5.859,555.664,0.000
1606133498.071,333.496,-4.395,-7.324,967.773,0.000
1606133498.075,-35.645,-37.598,-27.832,19.043,0.000
1606133498.078,-388.672,-66.406,-46.875,-1000.000,0.000
1606133498.082,-274.902,-49.805,-39.551,-732.422,0.000
1606133498.086,174.316,-13.184,-11.719,437.500,0.000
1606133498.090,351.562,-2.441,-1.465,-989.746,0.000
1606133498.094,18.555,-29.297,-22.949,171.875,0.000
1606133498.098,-364.258,-57.617,-46.875,-916.992,0.000
1606133498.102,-313.965,-48.828,-38.574,-829.102,0.000
1606133498.106,126.953,-20.508,-13.672,312.012,0.000
1606133498.110,355.469,-10.254,-5.859,-961.426,0.000
1606133498.114,79.590,-31.738,-18.555,337.891,0.000
1606133498.118,-332.520,-57.617,-43.457,-794.922,0.000
1606133498.121,-363.770,-53.223,-52.246,-917.480,0.000
1606133498.125,64.453,-23.438,-28.809,165.039,0.000
1606133498.129,355.469,-10.254,-9.277,-958.496,0.000
1606133498.133,130.859,-29.297,-18.555,480.469,0.000
1606133498.137,-297.363,-60.059,-41.504,-677.734,0.000
1606133498.141,-377.930,-56.641,-36.133,-964.844,0.000
1606133498.145,18.555,-27.832,-10.742,43.457,0.000
1606133498.149,350.098,-8.301,-3.418,-984.863,0.000
1606133498.153,197.754,-14.160,-18.555,623.535,0.000
1606133498.157,-248.535,-42.969,-38.574,-545.898,0.000
1606133498.160,-392.090,-51.758,-41.016,-1000.000,0.000
1606133498.164,-25.391,-33.691,-13.672,-113.281,0.000
1606133498.168,343.750,-11.230,5.371,944.824,0.000
1606133498.172,245.605,-15.625,-9.766,732.422,0.000
1606133498.176,-205.566,-43.457,-31.250,-428.711,0.000
1606133498.180,-412.598,-53.223,-34.180,-1000.000,0.000
1606133498.184,-104.492,-38.574,-23.926,-292.480,0.000
1606133498.188,297.363,-15.625,-5.859,830.566,0.000
1606133498.192,272.949,-8.789,-8.301,814.453,0.000
1606133498.196,-168.945,-38.574,-34.668,-321.777,0.000
1606133498.200,-425.293,-52.734,-47.852,-1000.000,0.000
1606133498.203,-171.387,-33.691,-37.598,-457.031,0.000
1606133498.207,253.906,-3.418,-13.672,707.031,0.000
1606133498.211,298.340,0.000,-13.672,883.301,0.000
1606133498.215,-124.512,-37.598,-38.086,-204.102,0.000
1606133498.219,-424.805,-38.086,-50.293,-1000.000,0.000
1606133498.223,-222.168,-9.766,-39.551,-598.145,0.000
1606133498.227,217.773,-5.859,-22.461,567.871,0.000
1606133498.231,327.637,-3.906,-9.277,943.848,0.000
1606133498.235,-53.223,-18.555,-24.414,-44.922,0.000
1606133498.239,-396.484,-37.109,-42.480,-1000.000,0.000
1606133498.243,-272.949,-34.668,-35.156,-722.168,0.000
1606133498.246,169.434,-11.719,-23.438,443.848,0.000
1606133498.250,341.797,-0.488,-12.207,-1000.000,0.000
1606133498.254,-7.812,-29.785,-22.461,116.211,0.000
1606133498.258,-391.602,-52.734,-40.527,-951.172,0.000
1606133498.262,-320.801,-45.410,-35.645,-812.500,0.000
1606133498.266,125.488,-31.738,-9.766,333.496,0.000
1606133498.270,351.074,-15.625,-3.906,-970.215,0.000
1606133498.274,58.105,-28.320,-31.250,282.227,0.000
1606133498.278,-357.910,-52.734,-58.105,-838.379,0.000
1606133498.282,-358.398,-48.828,-51.758,-888.672,0.000
1606133498.285,79.590,-18.555,-25.879,216.309,0.000
1606133498.289,357.422,0.977,-11.230,-953.125,0.000
1606133498.293,123.047,-22.949,-21.484,452.148,0.000
1606133498.297,-308.594,-41.504,-43.945,-706.055,0.000
1606133498.301,-367.188,-30.273,-42.969,-946.289,0.000
1606133498.305,45.898,-21.973,-20.508,88.867,0.000
1606133498.309,356.445,-12.207,-11.230,-976.074,0.000
1606133498.313,176.758,-20.020,-25.391,584.473,0.000
1606133498.317,-261.719,-35.156,-47.363,-579.102,0.000
1606133498.321,-387.695,-30.762,-48.828,-1000.000,0.000
1606133498.325,-18.066,-21.484,-20.996,-85.938,0.000
1606133498.328,338.379,-4.883,-4.883,959.473,0.000
1606133498.332,229.980,-9.277,-17.578,698.730,0.000
1606133498.336,-213.867,-38.086,-41.504,-467.285,0.000
1606133498.340,-403.320,-49.805,-52.246,-1000.000,0.000
1606133498.344,-82.031,-28.320,-22.949,-253.906,0.000
1606133498.348,308.105,-2.930,-4.883,863.281,0.000
1606133498.352,266.602,-9.766,-18.555,788.086,0.000
1606133498.356,-175.781,-40.039,-43.945,-360.352,0.000
1606133498.360,-416.992,-30.762,-56.152,-1000.000,0.000
1606133498.364,-151.367,-20.020,-29.297,-415.039,0.000
1606133498.368,267.090,-12.207,-0.488,733.398,0.000
1606133498.371,302.734,-6.836,-1.465,872.559,0.000
1606133498.375,-124.512,-41.504,-29.785,-223.633,0.000
1606133498.379,-414.062,-56.641,-41.992,-1000.000,0.000
1606133498.383,-201.172,-39.062,-29.297,-550.781,0.000
1606133498.387,225.586,-17.578,-13.672,613.770,0.000
1606133498.391,310.059,-13.184,-14.648,932.129,0.000
1606133498.395,-84.473,-40.527,-31.738,-78.613,0.000
1606133498.399,-411.621,-46.387,-38.574,-1000.000,0.000
1606133498.403,-261.719,-25.879,-32.715,-685.059,0.000
1606133498.407,182.129,-12.207,-17.578,484.375,0.000
1606133498.410,340.332,-2.441,-11.230,985.840,0.000
1606133498.414,-10.742,-27.832,-25.391,78.613,0.000
1606133498.418,-375.000,-46.875,-42.480,-970.703,0.000
1606133498.422,-291.504,-39.062,-35.645,-785.156,0.000
1606133498.426,148.438,-16.602,-14.160,370.605,0.000
1606133498.430,353.516,-0.977,-12.695,-979.004,0.000
1606133498.434,44.922,-26.367,-33.203,231.445,0.000
1606133498.438,-354.004,-33.691,-52.246,-871.582,0.000
1606133498.442,-335.938,-24.902,-52.246,-878.906,0.000
1606133498.446,97.656,-26.855,-28.809,234.863,0.000
1606133498.450,357.422,-8.301,-18.066,-959.961,0.000
1606133498.453,103.516,-16.113,-30.762,390.625,0.000
1606133498.457,-324.219,-43.945,-51.270,-750.000,0.000
1606133498.461,-372.559,-48.340,-47.363,-937.012,0.000
1606133498.465,43.945,-20.508,-20.020,108.398,0.000
1606133498.469,350.586,0.977,-8.789,-968.750,0.000
1606133498.473,156.738,-17.578,-27.344,538.086,0.000
1606133498.477,-278.809,-49.316,-47.363,-623.535,0.000
1606133498.481,-388.672,-52.734,-46.875,-997.559,0.000
1606133498.485,-4.883,-25.879,-27.832,-55.664,0.000
1606133498.489,346.680,-8.789,-9.277,979.004,0.000
1606133498.493,214.355,-23.438,-20.020,665.527,0.000
1606133498.496,-234.863,-56.641,-47.852,-505.371,0.000
1606133498.500,-405.273,-45.898,-55.664,-1000.000,0.000
1606133498.504,-62.988,-20.020,-27.832,-220.703,0.000
1606133498.508,320.312,-12.207,-7.324,885.254,0.000
1606133498.512,254.395,-13.672,-16.113,763.184,0.000
1606133498.516,-187.988,-44.922,-40.039,-393.555,0.000
1606133498.520,-408.691,-61.035,-48.340,-1000.000,0.000
1606133498.524,-120.605,-47.363,-32.715,-380.371,0.000
1606133498.528,294.922,-22.461,-10.742,768.066,0.000
1606133498.532,306.641,-18.555,-9.277,849.121,0.000
1606133498.535,-133.301,-51.270,-42.969,-269.531,0.000
1606133498.539,-416.504,-60.059,-51.758,-1000.000,0.000
1606133498.543,-184.570,-37.109,-27.344,-538.086,0.000
1606133498.547,239.746,-15.625,-12.207,629.395,0.000
1606133498.551,314.941,-7.812,-3.906,912.109,0.000
1606133498.555,-94.238,-37.598,-24.902,-145.020,0.000
1606133498.559,-426.758,-64.453,-47.363,-1000.000,0.000
1606133498.563,-260.254,-49.805,-37.109,-664.551,0.000
1606133498.567,187.500,-17.090,-13.184,506.348,0.000
1606133498.571,327.637,-6.348,-9.766,966.797,0.000
1606133498.575,-44.434,-35.645,-33.691,10.742,0.000
1606133498.578,-410.156,-59.082,-54.688,-1000.000,0.000
1606133498.582,-310.059,-46.387,-47.363,-766.113,0.000
1606133498.586,134.766,-16.602,-17.578,393.066,0.000
1606133498.590,322.266,-6.836,-10.254,-990.234,0.000
1606133498.594,-0.488,-32.227,-30.762,175.781,0.000
1606133498.598,-392.578,-49.316,-43.457,-907.715,0.000
1606133498.602,-355.957,-39.062,-38.574,-851.074,0.000
1606133498.606,83.984,-22.949,-20.996,273.926,0.000
1606133498.610,330.566,-14.648,-11.230,-958.984,0.000
1606133498.614,72.754,-31.738,-26.367,370.605,0.000
1606133498.618,-339.844,-59.082,-44.922,-773.438,0.000
1606133498.621,-366.211,-61.523,-38.574,-917.480,0.000
1606133498.625,64.453,-32.715,-12.695,163.086,0.000
1606133498.629,351.074,-9.766,0.000,-958.008,0.000
1606133498.633,133.301,-29.297,-21.484,515.137,0.000
1606133498.637,-296.875,-43.457,-41.992,-642.578,0.000
1606133498.641,-387.207,-30.273,-36.621,-974.609,0.000
1606133498.645,2.441,-18.066,-16.113,9.277,0.000
1606133498.649,337.891,-9.766,0.000,-998.535,0.000
1606133498.653,190.430,-26.367,-13.184,632.324,0.000
1606133498.657,-260.742,-52.246,-41.992,-539.062,0.000
1606133498.660,-415.527,-57.129,-40.039,-1000.000,0.000
1606133498.664,-62.988,-42.480,-18.066,-169.922,0.000
1606133498.668,310.059,-17.578,-10.742,912.598,0.000
1606133498.672,234.863,-16.602,-12.695,743.164,0.000
1606133498.676,-209.473,-42.480,-30.762,-416.504,0.000
1606133498.680,-422.852,-24.902,-44.434,-1000.000,0.000
1606133498.684,-119.141,-2.930,-20.020,-332.031,0.000
1606133498.688,279.785,-10.742,-3.418,797.852,0.000
1606133498.692,272.461,-14.648,-11.230,827.637,0.000
1606133498.696,-156.250,-41.992,-30.273,-300.781,0.000
1606133498.700,-420.898,-60.547,-47.852,-1000.000,0.000
1606133498.703,-171.387,-40.039,-36.133,-478.516,0.000
1606133498.707,263.184,-9.277,-13.184,683.594,0.000
1606133498.711,315.918,-15.625,-11.230,895.996,0.000
1606133498.715,-101.074,-40.039,-24.414,-169.434,0.000
1606133498.719,-404.297,-48.340,-33.691,-1000.000,0.000
1606133498.723,-214.355,-36.133,-25.391,-611.816,0.000
1606133498.727,224.609,-10.742,1.465,551.758,0.000
1606133498.731,340.332,-10.742,3.906,952.637,0.000
1606133498.735,-50.781,-39.551,-25.391,-18.555,0.000
1606133498.739,-401.367,-45.410,-50.781,-1000.000,0.000
1606133498.743,-275.391,-46.875,-43.945,-732.422,0.000
1606133498.746,164.551,-32.227,-18.555,432.617,0.000
1606133498.750,339.355,-14.648,-10.254,-993.652,0.000
1606133498.754,6.348,-37.109,-20.020,157.227,0.000
1606133498.758,-381.348,-51.270,-34.668,-922.363,0.000
1606133498.762,-332.520,-45.898,-35.645,-831.543,0.000
1606133498.766,109.375,-21.484,-17.578,308.105,0.000
1606133498.770,343.262,-0.977,-8.301,-963.379,0.000
1606133498.774,54.199,-25.391,-33.691,306.152,0.000
1606133498.778,-362.793,-46.387,-59.570,-821.289,0.000
1606133498.782,-379.395,-30.762,-51.270,-907.715,0.000
1606133498.785,49.316,-26.855,-30.273,177.734,0.000
1606133498.789,338.867,-23.438,-15.625,-958.496,0.000
1606133498.793,119.141,-33.691,-23.926,463.379,0.000
1606133498.797,-311.035,-54.688,-45.898,-690.918,0.000
1606133498.801,-390.625,-56.641,-46.387,-965.332,0.000
1606133498.805,11.719,-30.762,-27.832,39.062,0.000
1606133498.809,342.285,-5.859,-19.531,-986.816,0.000
1606133498.813,183.594,-17.090,-22.949,607.910,0.000
1606133498.817,-262.207,-37.109,-41.504,-558.594,0.000
1606133498.821,-402.832,-38.574,-53.223,-1000.000,0.000
1606133498.825,-29.297,-32.227,-26.367,-102.539,0.000
1606133498.828,338.379,-13.184,-2.441,951.660,0.000
1606133498.832,233.887,-10.742,-13.184,717.773,0.000
1606133498.836,-209.473,-38.086,-39.551,-445.312,0.000
1606133498.840,-398.438,-53.223,-48.828,-1000.000,0.000
1606133498.844,-82.031,-34.180,-34.180,-276.855,0.000
1606133498.848,310.059,-9.766,-15.625,839.844,0.000
1606133498.852,280.762,-20.020,-13.672,813.965,0.000
1606133498.856,-155.273,-50.781,-35.645,-321.777,0.000
1606133498.860,-409.180,-48.340,-47.363,-1000.000,0.000
1606133498.864,-147.949,-29.297,-27.832,-417.969,0.000
1606133498.868,269.531,-9.277,-8.301,728.516,0.000
1606133498.871,300.781,-7.812,-7.324,883.301,0.000
1606133498.875,-117.676,-42.480,-26.367,-192.871,0.000
1606133498.879,-416.016,-29.297,-44.434,-1000.000,0.000
1606133498.883,-218.262,-1.953,-35.645,-577.148,0.000
1606133498.887,216.797,-12.207,-14.160,591.309,0.000
1606133498.891,327.148,-15.137,-11.719,944.336,0.000
1606133498.895,-56.152,-35.156,-30.762,-44.434,0.000
1606133498.899,-401.855,-63.965,-46.387,-1000.000,0.000
1606133498.903,-269.043,-55.176,-36.621,-701.660,0.000
1606133498.907,179.199,-15.625,-7.812,467.773,0.000
1606133498.910,343.750,1.953,-1.465,992.676,0.000
1606133498.914,-13.672,-33.203,-29.297,101.562,0.000
1606133498.918,-398.438,-44.922,-47.363,-956.543,0.000
1606133498.922,-325.684,-25.879,-37.109,-808.594,0.000
1606133498.926,119.629,-20.508,-18.066,341.309,0.000
1606133498.930,328.613,-17.578,-17.090,-976.074,0.000
1606133498.934,28.809,-44.434,-29.785,251.465,0.000
1606133498.938,-370.117,-62.500,-42.969,-853.027,0.000
1606133498.942,-369.141,-54.688,-42.969,-892.578,0.000
1606133498.946,61.523,-32.227,-17.578,208.008,0.000
1606133498.950,326.660,-21.484,-9.766,-963.867,0.000
1606133498.953,89.844,-36.621,-28.809,410.645,0.000
1606133498.957,-328.125,-50.293,-50.781,-725.098,0.000
1606133498.961,-387.695,-30.273,-62.500,-954.102,0.000
1606133498.965,26.855,-14.160,-33.691,65.918,0.000
1606133498.969,344.238,-18.066,-15.625,-980.469,0.000
1606133498.973,173.828,-21.484,-33.691,566.406,0.000
1606133498.977,-264.160,-49.805,-46.875,-597.656,0.000
1606133498.981,-388.672,-61.035,-47.363,-1000.000,0.000
1606133498.985,-7.812,-30.273,-30.273,-63.477,0.000
1606133498.989,345.215,-6.348,-14.648,971.191,0.000
1606133498.993,224.121,-20.996,-29.785,684.570,0.000
1606133498.996,-216.309,-47.363,-50.781,-482.910,0.000
1606133499.000,-392.578,-55.664,-50.293,-1000.000,0.000
1606133499.004,-69.824,-42.969,-30.273,-223.145,0.000
1606133499.008,311.523,-23.438,-8.301,876.953,0.000
1606133499.012,261.230,-25.879,-10.254,790.527,0.000
1606133499.016,-177.246,-45.410,-31.738,-352.539,0.000
1606133499.020,-413.574,-53.223,-47.363,-1000.000,0.000
1606133499.024,-137.207,-41.016,-31.738,-380.859,0.000
1606133499.028,280.762,-12.695,-5.371,760.254,0.000
1606133499.032,303.711,-5.859,-8.301,871.582,0.000
1606133499.035,-123.047,-35.645,-36.133,-220.703,0.000
1606133499.039,-411.133,-59.570,-46.875,-1000.000,0.000
1606133499.043,-187.988,-46.875,-33.203,-537.598,0.000
1606133499.047,247.070,-9.766,-7.324,625.488,0.000
1606133499.051,328.125,4.883,-12.207,923.828,0.000
1606133499.055,-71.289,-26.367,-45.410,-93.262,0.000
1606133499.059,-401.855,-40.039,-55.664,-1000.000,0.000
1606133499.063,-246.094,-26.367,-47.363,-676.758,0.000
1606133499.067,202.637,-13.184,-20.508,495.605,0.000
1606133499.071,353.516,-4.395,-11.230,977.051,0.000
1606133499.075,-10.254,-35.156,-32.227,57.129,0.000
1606133499.078,-384.277,-52.734,-45.410,-978.516,0.000
1606133499.082,-293.945,-43.457,-37.109,-775.879,0.000
1606133499.086,153.320,-22.949,-19.531,379.395,0.000
1606133499.090,353.516,-6.836,-11.230,-979.980,0.000
1606133499.094,41.504,-30.762,-26.855,229.004,0.000
1606133499.098,-361.328,-50.293,-53.223,-874.512,0.000
1606133499.102,-339.355,-40.527,-47.852,-866.211,0.000
1606133499.106,98.633,-35.645,-22.949,253.906,0.000
1606133499.110,354.980,-15.137,-10.742,-959.473,0.000
1606133499.114,104.492,-16.602,-19.531,392.090,0.000
1606133499.118,-322.754,-44.434,-48.828,-751.465,0.000
1606133499.121,-369.141,-49.316,-45.898,-932.617,0.000
1606133499.125,53.223,-25.879,-17.090,128.418,0.000
1606133499.129,356.934,-7.324,-2.441,-962.402,0.000
1606133499.133,156.250,-22.949,-19.043,534.668,0.000
1606133499.137,-280.762,-52.734,-43.457,-630.371,0.000
1606133499.141,-386.230,-54.688,-32.227,-976.562,0.000
1606133499.145,0.977,-30.273,-9.277,-3.906,0.000
1606133499.149,346.680,-11.230,1.953,992.188,0.000
1606133499.153,208.984,-18.066,-6.836,663.086,0.000
1606133499.157,-236.816,-45.410,-32.715,-505.371,0.000
1606133499.160,-404.297,-41.992,-44.922,-1000.000,0.000
1606133499.164,-58.594,-18.555,-17.578,-177.246,0.000
1606133499.168,321.777,-8.301,6.348,903.320,0.000
1606133499.172,250.977,-23.926,-6.348,768.555,0.000
1606133499.176,-190.918,-56.152,-28.809,-381.836,0.000
1606133499.180,-409.668,-59.082,-37.109,-1000.000,0.000
1606133499.184,-114.746,-31.250,-23.438,-334.473,0.000
1606133499.188,296.387,-2.930,-2.441,796.387,0.000
1606133499.192,295.898,-4.395,-0.488,850.098,0.000
1606133499.196,-137.207,-39.062,-27.344,-259.766,0.000
1606133499.200,-411.621,-48.340,-51.758,-1000.000,0.000
1606133499.203,-173.828,-38.086,-40.039,-507.812,0.000
1606133499.207,250.488,-20.996,-18.066,655.762,0.000
1606133499.211,316.895,-4.883,-20.020,909.668,0.000
1606133499.215,-87.891,-34.180,-41.016,-142.090,0.000
1606133499.219,-408.691,-58.105,-50.293,-1000.000,0.000
1606133499.223,-229.492,-37.598,-39.551,-638.672,0.000
1606133499.227,209.961,-4.395,-16.602,529.785,0.000
1606133499.231,329.590,0.000,-10.742,963.867,0.000
1606133499.235,-38.574,-27.832,-29.297,26.855,0.000
1606133499.239,-392.090,-45.410,-47.852,-992.188,0.000
1606133499.243,-291.504,-38.086,-56.152,-750.488,0.000
1606133499.246,150.879,-19.531,-27.344,414.551,0.000
1606133499.250,337.402,-13.184,-13.672,-992.188,0.000
1606133499.254,11.719,-35.156,-33.691,178.223,0.000
1606133499.258,-380.371,-57.129,-41.992,-904.297,0.000
1606133499.262,-334.473,-51.758,-35.645,-845.215,0.000
1606133499.266,116.211,-21.973,-11.230,289.062,0.000
1606133499.270,352.051,-8.301,-7.324,-964.844,0.000
1606133499.274,73.730,-26.367,-22.461,340.820,0.000
1606133499.278,-340.332,-47.363,-29.785,-789.062,0.000
1606133499.282,-369.141,-47.363,-39.551,-910.645,0.000
1606133499.285,53.711,-23.438,-24.902,172.363,0.000
1606133499.289,334.961,-12.207,-13.184,-961.426,0.000
1606133499.293,121.582,-20.508,-29.785,480.469,0.000
1606133499.297,-306.152,-38.574,-45.410,-669.922,0.000
1606133499.301,-390.625,-41.504,-46.875,-976.074,0.000
1606133499.305,11.719,-18.555,-24.414,7.324,0.000
1606133499.309,347.168,0.000,-3.906,-996.582,0.000
1606133499.313,195.801,-15.625,-12.695,620.117,0.000
1606133499.317,-248.535,-44.922,-39.062,-550.293,0.000
1606133499.321,-398.438,-48.828,-40.527,-1000.000,0.000
1606133499.325,-44.434,-27.344,-25.879,-154.297,0.000
1606133499.328,323.242,-3.906,-19.043,919.434,0.000
1606133499.332,236.328,-5.859,-22.949,732.910,0.000
1606133499.336,-207.520,-40.527,-40.039,-429.688,0.000
1606133499.340,-416.992,-29.297,-52.734,-1000.000,0.000
1606133499.344,-109.863,-6.348,-40.527,-320.312,0.000
1606133499.348,295.410,-10.254,-20.020,814.453,0.000
1606133499.352,281.250,-11.230,-20.020,823.730,0.000
1606133499.356,-152.832,-39.062,-35.156,-313.477,0.000
1606133499.360,-417.480,-55.176,-43.457,-1000.000,0.000
1606133499.364,-166.016,-36.621,-33.203,-460.449,0.000
1606133499.368,257.812,-6.348,-8.789,696.289,0.000
1606133499.371,303.711,-6.836,-10.742,886.719,0.000
1606133499.375,-109.863,-39.551,-38.574,-185.547,0.000
1606133499.379,-421.875,-42.969,-54.688,-1000.000,0.000
1606133499.383,-236.816,-36.133,-39.062,-604.980,0.000
1606133499.387,208.008,-20.996,-17.090,565.430,0.000
1606133499.391,321.777,-10.742,-17.090,944.336,0.000
1606133499.395,-57.129,-41.504,-35.156,-38.574,0.000
1606133499.399,-393.555,-61.035,-52.734,-1000.000,0.000
1606133499.403,-258.301,-42.969,-42.480,-719.238,0.000
1606133499.407,185.547,-15.625,-15.137,450.684,0.000
1606133499.410,350.098,-13.672,0.977,998.535,0.000
1606133499.414,4.395,-39.551,-18.066,129.395,0.000
1606133499.418,-377.930,-57.129,-44.922,-937.500,0.000
1606133499.422,-316.895,-53.223,-42.969,-815.918,0.000
1606133499.426,131.348,-27.832,-20.508,331.055,0.000
1606133499.430,356.934,-10.254,-10.742,-969.727,0.000
1606133499.434,64.941,-34.668,-20.020,289.062,0.000
1606133499.438,-347.656,-47.363,-39.062,-829.102,0.000
1606133499.442,-358.887,-16.602,-43.945,-893.555,0.000
1606133499.446,68.848,-11.230,-16.602,205.078,0.000
1606133499.450,342.285,-13.672,-4.883,-956.543,0.000
1606133499.453,115.234,-28.809,-20.508,457.031,0.000
1606133499.457,-310.547,-56.152,-35.156,-694.336,0.000
1606133499.461,-381.348,-61.035,-44.434,-952.637,0.000
1606133499.465,21.973,-35.645,-24.414,71.289,0.000
1606133499.469,340.332,-11.719,-4.395,-977.539,0.000
1606133499.473,172.363,-22.461,-20.508,598.633,0.000
1606133499.477,-267.090,-57.129,-45.898,-568.848,0.000
1606133499.481,-401.855,-56.641,-47.363,-1000.000,0.000
1606133499.485,-31.738,-25.391,-20.020,-93.750,0.000
1606133499.489,328.125,-8.789,-11.230,952.637,0.000
1606133499.493,227.051,-13.672,-20.996,705.078,0.000
1606133499.496,-209.961,-32.715,-37.598,-460.449,0.000
1606133499.500,-395.508,-42.969,-41.016,-1000.000,0.000
1606133499.504,-68.359,-32.227,-18.555,-255.859,0.000
1606133499.508,318.848,-16.113,-12.207,854.004,0.000
1606133499.512,276.855,-21.484,-20.996,791.504,0.000
1606133499.516,-151.367,-44.922,-32.715,-349.609,0.000
1606133499.520,-387.207,-34.668,-45.410,-1000.000,0.000
1606133499.524,-122.070,-20.508,-37.598,-422.852,0.000
1606133499.528,290.527,-8.789,-17.090,724.121,0.000
1606133499.532,321.289,-3.418,-14.160,872.070,0.000
1606133499.535,-95.703,-29.297,-35.645,-215.332,0.000
1606133499.539,-387.207,-42.480,-44.434,-1000.000,0.000
1606133499.543,-176.758,-37.598,-30.762,-557.617,0.000
1606133499.547,251.953,-13.184,-15.625,606.445,0.000
1606133499.551,341.797,0.000,-11.230,939.453,0.000
1606133499.555,-48.828,-29.297,-29.785,-52.734,0.000
1606133499.559,-390.137,-57.617,-50.781,-1000.000,0.000
1606133499.563,-248.535,-47.363,-37.598,-668.945,0.000
1606133499.567,192.383,-21.484,-7.324,502.930,0.000
1606133499.571,342.773,-11.719,-6.836,988.770,0.000
1606133499.575,-12.207,-41.016,-30.762,95.703,0.000
1606133499.578,-385.742,-55.176,-45.898,-963.867,0.000
1606133499.582,-311.035,-44.434,-42.969,-785.645,0.000
1606133499.586,135.742,-27.344,-20.020,370.605,0.000
1606133499.590,349.609,-14.160,-10.742,-976.074,0.000
1606133499.594,43.945,-34.668,-31.738,252.441,0.000
1606133499.598,-354.004,-50.293,-52.246,-857.422,0.000
1606133499.602,-337.891,-53.223,-52.246,-875.000,0.000
1606133499.606,97.656,-26.855,-23.438,240.723,0.000
1606133499.610,363.770,-3.418,-10.254,-958.496,0.000
1606133499.614,121.582,-22.949,-28.809,418.945,0.000
1606133499.618,-298.828,-41.992,-43.945,-723.633,0.000
1606133499.621,-365.723,-40.039,-49.805,-942.871,0.000
1606133499.625,37.109,-26.367,-26.367,101.074,0.000
1606133499.629,347.168,-13.672,-1.465,-967.773,0.000
1606133499.633,160.645,-28.320,-15.625,559.082,0.000
1606133499.637,-284.180,-55.176,-46.875,-607.422,0.000
1606133499.641,-405.762,-60.547,-54.199,-992.676,0.000
1606133499.645,-25.879,-34.180,-33.691,-44.922,0.000
1606133499.649,319.336,-9.766,-16.602,977.051,0.000
1606133499.653,194.824,-20.508,-20.508,672.852,0.000
1606133499.657,-249.023,-43.945,-38.574,-495.117,0.000
1606133499.660,-423.340,-48.828,-46.387,-1000.000,0.000
1606133499.664,-88.867,-35.156,-31.250,-223.633,0.000
1606133499.668,297.852,-10.254,-18.555,880.859,0.000
1606133499.672,244.629,-19.043,-17.090,769.531,0.000
1606133499.676,-198.730,-47.363,-35.645,-383.789,0.000
1606133499.680,-429.199,-59.570,-56.641,-1000.000,0.000
1606133499.684,-146.484,-43.945,-45.898,-392.090,0.000
1606133499.688,268.066,-17.090,-21.484,759.277,0.000
1606133499.692,284.668,-17.090,-20.996,855.469,0.000
1606133499.696,-143.555,-38.574,-44.922,-257.324,0.000
1606133499.700,-419.434,-48.828,-48.828,-1000.000,0.000
1606133499.703,-181.152,-27.832,-24.902,-510.742,0.000
1606133499.707,254.883,-5.371,-4.883,654.785,0.000
1606133499.711,322.754,-9.766,-11.230,915.527,0.000
1606133499.715,-80.078,-31.738,-36.621,-117.676,0.000
1606133499.719,-400.391,-41.016,-46.875,-1000.000,0.000
1606133499.723,-237.305,-20.508,-37.109,-663.086,0.000
1606133499.727,207.520,-8.789,-11.719,507.324,0.000
1606133499.731,341.797,-13.184,-1.953,966.309,0.000
1606133499.735,-26.855,-32.227,-30.273,25.391,0.000
1606133499.739,-376.953,-45.410,-49.316,-991.699,0.000
1606133499.743,-270.996,-41.992,-40.039,-764.160,0.000
1606133499.746,172.852,-18.555,-15.137,394.531,0.000
1606133499.750,363.281,0.000,-10.742,-982.910,0.000
1606133499.754,43.457,-20.508,-29.297,198.242,0.000
1606133499.758,-354.004,-41.504,-46.875,-895.508,0.000
1606133499.762,-327.148,-33.203,-48.828,-859.375,0.000
1606133499.766,112.305,-10.254,-25.879,266.113,0.000
1606133499.770,360.352,4.883,-12.207,-964.355,0.000
1606133499.774,88.379,-20.996,-22.461,352.051,0.000
1606133499.778,-338.379,-54.199,-45.898,-776.855,0.000
1606133499.782,-374.512,-48.340,-44.434,-926.758,0.000
1606133499.785,49.316,-21.973,-17.090,133.789,0.000
1606133499.789,347.168,-2.930,-5.371,-964.355,0.000
1606133499.793,139.160,-19.531,-17.090,507.324,0.000
1606133499.797,-304.199,-38.574,-41.016,-654.785,0.000
1606133499.801,-402.344,-27.344,-45.410,-980.469,0.000
1606133499.805,-14.648,-24.414,-29.297,-16.113,0.000
1606133499.809,312.500,-16.602,-20.020,989.258,0.000
1606133499.813,166.992,-30.762,-25.391,621.094,0.000
1606133499.817,-275.879,-52.246,-49.805,-548.828,0.000
1606133499.821,-426.270,-37.598,-56.641,-1000.000,0.000
1606133499.825,-70.801,-22.949,-32.715,-174.316,0.000
1606133499.828,301.758,-13.672,-15.625,908.203,0.000
1606133499.832,225.098,-23.438,-21.484,737.793,0.000
1606133499.836,-212.402,-48.828,-41.992,-423.828,0.000
1606133499.840,-423.828,-57.129,-48.340,-1000.000,0.000
1606133499.844,-125.977,-38.086,-35.156,-330.078,0.000
1606133499.848,280.762,-17.578,-23.926,804.199,0.000
1606133499.852,274.902,-25.391,-19.043,829.590,0.000
1606133499.856,-153.809,-57.129,-30.762,-295.410,0.000
1606133499.860,-416.504,-45.410,-47.363,-1000.000,0.000
1606133499.864,-172.363,-26.367,-40.039,-482.910,0.000
1606133499.868,259.277,-17.578,-10.742,676.758,0.000
1606133499.871,320.801,-12.207,-1.465,902.344,0.000
1606133499.875,-85.449,-37.598,-27.344,-157.715,0.000
1606133499.879,-396.484,-52.246,-46.875,-1000.000,0.000
1606133499.883,-215.332,-43.945,-34.180,-616.211,0.000
1606133499.887,222.656,-19.531,-18.555,552.246,0.000
1606133499.891,343.262,-3.418,-14.160,957.031,0.000
1606133499.895,-35.645,-31.738,-29.297,-6.348,0.000
1606133499.899,-395.508,-43.457,-52.734,-1000.000,0.000
1606133499.903,-274.902,-21.484,-41.016,-738.770,0.000
1606133499.907,174.316,-20.020,-16.602,426.270,0.000
1606133499.910,352.051,-18.555,-11.230,-997.070,0.000
1606133499.914,16.602,-30.762,-20.996,157.715,0.000
1606133499.918,-367.676,-55.664,-41.992,-920.410,0.000
1606133499.922,-320.312,-60.059,-43.945,-826.660,0.000
1606133499.926,115.723,-28.809,-23.926,313.965,0.000
1606133499.930,356.934,-6.836,-14.648,-964.355,0.000
1606133499.934,70.312,-30.273,-29.785,319.336,0.000
1606133499.938,-346.191,-46.387,-45.410,-810.547,0.000
1606133499.942,-361.816,-34.180,-44.922,-905.273,0.000
1606133499.946,61.035,-24.902,-26.367,181.641,0.000
1606133499.950,347.656,-16.602,-9.766,-961.426,0.000
1606133499.953,126.953,-39.062,-25.391,463.867,0.000
1606133499.957,-305.176,-63.965,-50.781,-685.547,0.000
1606133499.961,-382.324,-55.664,-46.387,-960.938,0.000
1606133499.965,20.508,-27.344,-21.484,45.410,0.000
1606133499.969,346.191,-7.812,-10.254,-986.816,0.000
1606133499.973,182.129,-18.555,-16.602,610.352,0.000
1606133499.977,-268.555,-48.828,-34.180,-556.152,0.000
1606133499.981,-410.156,-58.594,-39.062,-1000.000,0.000
1606133499.985,-45.410,-36.133,-20.996,-125.000,0.000
1606133499.989,317.383,-11.719,-9.277,939.453,0.000
1606133499.993,222.656,-22.461,-16.113,711.914,0.000
1606133499.996,-212.402,-47.363,-41.992,-453.613,0.000
1606133500.000,-403.809,-23.926,-51.758,-1000.000,0.000
1606133500.004,-91.309,-2.930,-29.297,-280.762,0.000
1606133500.008,300.293,-11.719,-3.906,839.844,0.000
1606133500.012,264.648,-18.066,-7.812,805.664,0.000
1606133500.016,-173.828,-45.898,-31.738,-331.055,0.000
1606133500.020,-424.316,-67.383,-42.480,-1000.000,0.000
1606133500.024,-162.109,-45.410,-24.414,-437.012,0.000
1606133500.028,258.789,-10.254,0.000,715.820,0.000
1606133500.032,296.387,-8.789,-4.395,889.648,0.000
1606133500.035,-115.234,-42.480,-20.996,-182.129,0.000
1606133500.039,-411.133,-52.246,-36.133,-1000.000,0.000
1606133500.043,-211.914,-34.668,-31.738,-572.266,0.000
1606133500.047,229.980,-13.672,-6.836,591.309,0.000
1606133500.051,337.402,-5.371,-3.906,945.801,0.000
1606133500.055,-47.363,-37.598,-28.320,-38.574,0.000
1606133500.059,-383.301,-62.500,-43.457,-1000.000,0.000
1606133500.063,-238.281,-44.434,-28.809,-687.988,0.000
1606133500.067,206.543,-9.277,-2.930,482.910,0.000
1606133500.071,366.211,-2.441,5.371,994.629,0.000
1606133500.075,12.695,-35.156,-22.949,111.328,0.000
1606133500.078,-369.141,-53.711,-47.363,-955.566,0.000
1606133500.082,-296.387,-37.109,-43.945,-798.828,0.000
1606133500.086,149.902,-8.789,-25.879,351.562,0.000
1606133500.090,370.605,3.906,-17.090,-970.215,0.000
1606133500.094,73.730,-26.855,-36.133,274.414,0.000
1606133500.098,-336.426,-35.645,-54.688,-847.168,0.000
1606133500.102,-336.426,-10.254,-47.852,-882.812,0.000
1606133500.106,98.633,-9.277,-20.996,226.562,0.000
1606133500.110,363.281,-13.672,-6.836,-956.543,0.000
1606133500.114,116.211,-27.832,-23.926,421.875,0.000
1606133500.118,-309.570,-46.387,-50.781,-726.562,0.000
1606133500.121,-364.746,-47.852,-45.410,-949.219,0.000
1606133500.125,46.875,-25.391,-25.391,85.938,0.000
1606133500.129,362.793,-3.418,-19.043,-970.703,0.000
1606133500.133,185.547,-16.113,-21.484,564.941,0.000
1606133500.137,-263.672,-32.715,-44.434,-601.074,0.000
1606133500.141,-388.672,-26.855,-49.316,-999.512,0.000
1606133500.145,-8.789,-17.578,-27.344,-70.801,0.000
1606133500.149,336.914,-8.301,-8.789,967.285,0.000
1606133500.153,208.496,-29.297,-12.207,680.664,0.000
1606133500.157,-251.953,-61.035,-41.992,-494.629,0.000
1606133500.160,-435.059,-66.406,-42.969,-1000.000,0.000
1606133500.164,-98.145,-44.922,-20.508,-229.004,0.000
1606133500.168,281.738,-24.902,-5.859,874.023,0.000
1606133500.172,225.098,-30.762,-5.859,784.180,0.000
1606133500.176,-214.844,-54.688,-25.879,-364.746,0.000
1606133500.180,-441.895,-33.203,-41.992,-1000.000,0.000
1606133500.184,-157.227,-9.766,-32.715,-390.137,0.000
1606133500.188,263.672,-18.555,-3.418,759.766,0.000
1606133500.192,280.273,-19.531,-3.418,864.258,0.000
1606133500.196,-150.879,-44.922,-33.203,-239.746,0.000
1606133500.200,-433.594,-65.430,-46.875,-1000.000,0.000
1606133500.203,-208.008,-49.316,-30.273,-535.645,0.000
1606133500.207,236.328,-19.043,-3.418,631.836,0.000
1606133500.211,324.707,-13.184,-0.977,926.270,0.000
1606133500.215,-82.520,-41.992,-22.461,-102.051,0.000
1606133500.219,-407.715,-53.711,-33.203,-1000.000,0.000
1606133500.223,-246.094,-47.363,-33.203,-668.945,0.000
1606133500.227,195.312,-31.738,-14.648,500.000,0.000
1606133500.231,351.074,-17.090,-1.953,981.445,0.000
1606133500.235,-6.348,-35.156,-17.090,64.453,0.000
1606133500.239,-380.371,-45.898,-39.062,-980.469,0.000
1606133500.243,-283.691,-41.504,-33.203,-770.020,0.000
1606133500.246,162.109,-23.926,-11.230,392.090,0.000
1606133500.250,353.027,-11.230,-7.812,-979.980,0.000
1606133500.254,34.668,-30.273,-24.902,217.773,0.000
1606133500.258,-359.375,-54.688,-51.270,-883.301,0.000
1606133500.262,-337.891,-60.059,-52.246,-865.234,0.000
1606133500.266,107.422,-33.691,-20.508,258.789,0.000
1606133500.270,371.582,-1.465,-6.348,-956.055,0.000
1606133500.274,106.934,-24.902,-32.715,387.695,0.000
1606133500.278,-319.336,-41.504,-62.012,-757.324,0.000
1606133500.282,-357.422,-4.883,-53.223,-927.734,0.000
1606133500.285,67.871,-6.348,-25.879,135.742,0.000
1606133500.289,372.559,-13.184,-18.555,-961.426,0.000
1606133500.293,166.504,-22.949,-31.250,536.133,0.000
1606133500.297,-280.273,-50.293,-44.922,-631.348,0.000
1606133500.301,-389.160,-48.828,-44.434,-981.934,0.000
1606133500.305,7.812,-28.320,-22.461,3.906,0.000
1606133500.309,348.633,-8.301,-6.348,-1000.000,0.000
1606133500.313,203.125,-16.602,-12.207,666.016,0.000
1606133500.317,-239.258,-41.016,-35.156,-499.023,0.000
1606133500.321,-404.785,-28.320,-49.805,-1000.000,0.000
1606133500.325,-55.176,-21.973,-20.508,-162.109,0.000
1606133500.328,329.102,-10.254,1.465,916.504,0.000
1606133500.332,260.742,-8.301,-12.695,763.184,0.000
1606133500.336,-184.082,-41.016,-37.109,-391.602,0.000
1606133500.340,-398.926,-54.199,-41.992,-1000.000,0.000
1606133500.344,-100.098,-39.551,-23.438,-339.355,0.000
1606133500.348,301.758,-10.742,-10.254,797.363,0.000
1606133500.352,299.316,-4.883,-12.207,842.285,0.000
1606133500.356,-134.766,-42.480,-38.574,-281.250,0.000
1606133500.360,-407.715,-55.176,-52.734,-1000.000,0.000
1606133500.364,-163.086,-30.762,-27.832,-494.141,0.000
1606133500.368,266.113,-3.906,-4.883,666.016,0.000
1606133500.371,327.148,-1.465,-7.812,902.832,0.000
1606133500.375,-87.402,-35.156,-33.203,-157.227,0.000
1606133500.379,-405.762,-37.109,-48.828,-1000.000,0.000
1606133500.383,-231.445,-19.531,-31.250,-639.648,0.000
1606133500.387,204.102,-10.254,-17.090,529.297,0.000
1606133500.391,338.379,-1.953,-11.719,961.426,0.000
1606133500.395,-40.039,-33.203,-23.926,-3.418,0.000
1606133500.399,-410.645,-56.152,-44.922,-1000.000,0.000
1606133500.403,-291.992,-45.898,-35.156,-746.582,0.000
1606133500.407,161.133,-18.555,-9.766,413.574,0.000
1606133500.410,341.797,-5.859,-0.977,-987.793,0.000
1606133500.414,13.184,-34.668,-19.531,171.875,0.000
1606133500.418,-377.930,-40.527,-43.457,-916.992,0.000
1606133500.422,-333.984,-24.902,-47.852,-838.379,0.000
1606133500.426,109.863,-18.555,-17.578,299.316,0.000
1606133500.430,343.262,-12.695,-3.906,-964.355,0.000
1606133500.434,65.430,-36.133,-23.926,322.754,0.000
1606133500.438,-345.215,-58.105,-43.457,-807.617,0.000
1606133500.442,-365.723,-52.246,-43.945,-907.227,0.000
1606133500.446,49.805,-30.762,-24.902,178.223,0.000
1606133500.450,334.961,-12.207,-18.066,-959.961,0.000
1606133500.453,124.023,-28.809,-24.902,482.910,0.000
1606133500.457,-312.012,-44.434,-48.340,-669.434,0.000
1606133500.461,-406.738,-8.301,-45.410,-976.074,0.000
1606133500.465,-9.766,-3.906,-20.996,9.766,0.000
1606133500.469,329.102,-13.672,-11.719,-994.629,0.000
1606133500.473,172.852,-21.973,-19.531,603.027,0.000
1606133500.477,-274.414,-50.781,-47.363,-567.383,0.000
1606133500.481,-420.410,-62.500,-51.270,-1000.000,0.000
1606133500.485,-53.223,-41.504,-26.367,-144.043,0.000
1606133500.489,329.590,-10.254,-18.066,934.082,0.000
1606133500.493,242.676,-17.578,-27.832,718.750,0.000
1606133500.496,-197.266,-42.969,-40.039,-439.941,0.000
1606133500.500,-401.367,-53.223,-42.969,-1000.000,0.000
1606133500.504,-97.168,-38.086,-27.344,-298.340,0.000
1606133500.508,317.383,-10.742,-2.930,834.961,0.000
1606133500.512,298.340,-10.254,-9.277,812.500,0.000
1606133500.516,-147.461,-39.062,-38.574,-325.684,0.000
1606133500.520,-400.879,-49.805,-55.176,-1000.000,0.000
1606133500.524,-144.043,-40.039,-36.133,-454.102,0.000
1606133500.528,276.367,-16.113,-10.254,705.566,0.000
1606133500.532,312.988,-13.184,-18.555,888.672,0.000
1606133500.535,-113.281,-39.062,-43.945,-187.500,0.000
1606133500.539,-412.109,-49.316,-43.457,-1000.000,0.000
1606133500.543,-208.496,-35.645,-25.391,-583.984,0.000
1606133500.547,230.957,-14.160,-9.766,582.520,0.000
1606133500.551,337.402,-8.301,-9.277,951.660,0.000
1606133500.555,-49.805,-39.551,-31.250,-29.297,0.000
1606133500.559,-397.461,-49.316,-47.852,-1000.000,0.000
1606133500.563,-262.207,-28.320,-40.527,-703.125,0.000
1606133500.567,197.266,-18.555,-6.836,465.820,0.000
1606133500.571,364.258,-14.160,-0.488,998.535,0.000
1606133500.575,17.090,-36.133,-26.367,131.348,0.000
1606133500.578,-361.816,-62.012,-50.293,-941.895,0.000
1606133500.582,-299.805,-55.664,-41.992,-805.664,0.000
1606133500.586,150.391,-17.578,-12.695,346.191,0.000
1606133500.590,370.117,-4.883,-11.230,-970.215,0.000
1606133500.594,68.359,-24.414,-26.855,287.109,0.000
1606133500.598,-341.309,-37.598,-50.781,-831.543,0.000
1606133500.602,-346.680,-40.527,-50.781,-893.066,0.000
1606133500.606,91.309,-25.879,-19.531,210.449,0.000
1606133500.610,374.512,0.000,-6.836,-954.590,0.000
1606133500.614,136.230,-10.742,-20.020,442.383,0.000
1606133500.618,-301.270,-46.875,-39.551,-709.961,0.000
1606133500.621,-374.512,-50.781,-40.039,-955.078,0.000
1606133500.625,36.133,-26.367,-22.461,68.848,0.000
1606133500.629,351.562,-11.230,-5.371,-977.051,0.000
1606133500.633,171.875,-21.484,-19.531,579.102,0.000
