timestamps,TP9,AF7,AF8,TP10,Right AUX
1606138239.364,0.000,0.000,0.000,0.000,0.000
1606138239.368,-0.488,-0.488,0.000,0.000,0.000
1606138239.372,-1.953,-1.465,-0.977,-4.395,0.000
1606138239.376,5.371,2.441,1.465,11.230,0.000
1606138239.379,-24.902,-14.648,-9.277,-51.270,0.000
1606138239.383,-53.711,-33.203,-24.414,-103.516,0.000
1606138239.387,3.418,-25.391,-26.855,-6.836,0.000
1606138239.391,20.020,-21.973,-29.297,69.824,0.000
1606138239.395,-6.836,-25.391,-31.738,41.504,0.000
1606138239.399,-35.156,-30.273,-32.227,-79.590,0.000
1606138239.403,-56.152,-24.902,-25.391,-118.652,0.000
1606138239.407,-22.949,-23.926,-24.414,-33.203,0.000
1606138239.411,6.348,-30.762,-26.367,42.480,0.000
1606138239.415,-1.953,-30.762,-33.691,25.391,0.000
1606138239.418,-39.551,-31.738,-30.273,-83.496,0.000
1606138239.422,-55.176,-36.621,-25.879,-125.977,0.000
1606138239.426,-28.320,-38.574,-32.227,-52.734,0.000
1606138239.430,-1.465,-33.203,-29.785,41.992,0.000
1606138239.434,7.324,-24.902,-22.949,58.105,0.000
1606138239.438,-21.973,-28.320,-20.508,-46.387,0.000
1606138239.442,-47.363,-38.086,-23.438,-124.023,0.000
1606138239.446,-24.414,-33.203,-25.391,-75.684,0.000
1606138239.450,-12.207,-24.414,-24.902,33.203,0.000
1606138239.454,-13.672,-25.391,-20.996,56.641,0.000
1606138239.458,-45.410,-28.320,-22.461,-47.852,0.000
1606138239.461,-81.055,-29.785,-22.461,-125.000,0.000
1606138239.465,-69.336,-31.250,-21.973,-83.496,0.000
1606138239.469,-19.531,-32.715,-21.973,25.391,0.000
1606138239.473,-16.602,-33.691,-24.902,55.664,0.000
1606138239.477,-49.805,-32.227,-26.855,-28.320,0.000
1606138239.481,-62.012,-10.254,-27.344,-97.168,0.000
1606138239.485,-52.246,-4.395,-29.297,-84.961,0.000
1606138239.489,2.441,-20.996,-26.855,12.695,0.000
1606138239.493,16.602,-22.949,-20.508,65.430,0.000
1606138239.497,-22.461,-25.391,-28.809,-9.277,0.000
1606138239.501,-52.246,-31.738,-35.645,-106.445,0.000
1606138239.504,-56.152,-39.551,-32.227,-108.887,0.000
1606138239.508,-36.621,-39.551,-26.367,-9.766,0.000
1606138239.512,-36.133,-38.086,-13.672,47.852,0.000
1606138239.516,-56.152,-37.109,-15.137,-13.184,0.000
1606138239.520,-89.844,-38.086,-23.438,-118.164,0.000
1606138239.524,-79.102,-41.016,-15.625,-125.977,0.000
1606138239.528,-33.203,-34.668,-4.395,-17.578,0.000
1606138239.532,-16.113,-30.762,-17.090,41.504,0.000
1606138239.536,-29.297,-41.016,-25.391,-4.395,0.000
1606138239.540,-63.965,-44.922,-20.996,-108.398,0.000
1606138239.543,-73.730,-35.156,-17.578,-129.395,0.000
1606138239.547,-44.922,-34.668,-17.090,-32.227,0.000
1606138239.551,-13.184,-41.016,-20.508,46.387,0.000
1606138239.555,-19.531,-46.387,-24.414,15.137,0.000
1606138239.559,-78.613,-49.316,-24.414,-92.773,0.000
1606138239.563,-80.078,-47.363,-24.414,-129.395,0.000
1606138239.567,-40.039,-44.434,-20.996,-44.434,0.000
1606138239.571,-15.625,-39.062,-16.602,57.617,0.000
1606138239.575,-18.066,-37.598,-14.648,58.594,0.000
1606138239.579,-57.617,-33.691,-17.578,-58.594,0.000
1606138239.583,-77.637,-34.668,-20.996,-125.488,0.000
1606138239.586,-47.363,-35.645,-17.090,-52.734,0.000
1606138239.590,-11.719,-29.297,-18.555,53.223,0.000
1606138239.594,-11.230,-33.203,-18.066,64.453,0.000
1606138239.598,-32.227,-38.574,-20.996,-40.039,0.000
1606138239.602,-64.941,-41.504,-20.020,-106.445,0.000
1606138239.606,-55.664,-39.062,-17.578,-52.246,0.000
1606138239.610,-6.836,-33.203,-15.137,54.199,0.000
1606138239.614,-0.488,-30.762,-11.230,74.219,0.000
1606138239.618,-30.273,-28.809,-11.230,-29.297,0.000
1606138239.622,-49.316,-30.273,-16.602,-109.863,0.000
1606138239.626,-52.246,-34.668,-23.438,-84.961,0.000
1606138239.629,-18.555,-19.043,-20.996,20.020,0.000
1606138239.633,10.742,-18.555,-19.531,55.664,0.000
1606138239.637,-27.344,-29.297,-19.531,-30.273,0.000
1606138239.641,-55.664,-28.320,-19.531,-117.188,0.000
1606138239.645,-37.109,-26.855,-16.602,-96.191,0.000
1606138239.649,-15.137,-21.973,-16.113,10.254,0.000
1606138239.653,0.977,-19.043,-19.531,51.758,0.000
1606138239.657,-24.414,-22.949,-17.578,-17.090,0.000
1606138239.661,-57.617,-30.762,-20.020,-116.699,0.000
1606138239.665,-48.828,-39.551,-18.066,-101.562,0.000
1606138239.668,1.465,-32.715,-14.648,40.039,0.000
1606138239.672,22.949,-14.648,-20.020,75.684,0.000
1606138239.676,-28.809,-10.254,-20.996,-41.992,0.000
1606138239.680,-109.863,-14.648,-23.926,-180.664,0.000
1606138239.684,-141.602,-23.438,-29.785,-208.984,0.000
1606138239.688,-120.117,-24.902,-31.250,-121.094,0.000
1606138239.692,-109.375,-17.578,-36.133,-68.359,0.000
1606138239.696,-131.348,-18.066,-31.250,-118.652,0.000
1606138239.700,-167.480,-16.113,-26.855,-225.098,0.000
1606138239.704,-179.688,-20.508,-34.180,-262.695,0.000
1606138239.708,-148.438,-18.066,-37.598,-177.246,0.000
1606138239.711,-123.047,-14.648,-36.621,-93.262,0.000
1606138239.715,-141.113,-22.461,-33.691,-114.746,0.000
1606138239.719,-158.203,-22.461,-34.668,-215.332,0.000
1606138239.723,-164.062,-21.484,-34.668,-250.977,0.000
1606138239.727,-157.715,-19.043,-32.715,-173.828,0.000
1606138239.731,-114.746,-9.766,-32.715,-64.453,0.000
1606138239.735,-116.211,-18.066,-25.879,-57.129,0.000
1606138239.739,-163.574,-19.043,-29.785,-184.082,0.000
1606138239.743,-187.988,-19.531,-40.527,-248.047,0.000
1606138239.747,-151.367,-35.156,-37.598,-171.875,0.000
1606138239.751,-105.469,-33.203,-38.086,-60.547,0.000
1606138239.754,-96.680,-24.414,-34.668,-39.062,0.000
1606138239.758,-127.441,-28.320,-32.715,-140.137,0.000
1606138239.762,-145.508,-27.344,-36.133,-193.848,0.000
1606138239.766,-106.934,-23.438,-30.273,-125.488,0.000
1606138239.770,-50.781,-24.414,-29.297,-14.160,0.000
1606138239.774,-33.691,-25.879,-35.156,10.254,0.000
1606138239.778,-71.289,-25.879,-32.715,-81.055,0.000
1606138239.782,-114.746,-27.344,-34.668,-154.297,0.000
1606138239.786,-92.285,-35.645,-39.551,-119.141,0.000
1606138239.790,-31.250,-24.902,-34.668,7.324,0.000
1606138239.793,-11.230,-13.184,-33.203,55.176,0.000
1606138239.797,-30.762,-25.391,-30.273,-27.344,0.000
1606138239.801,-43.945,-28.320,-28.809,-103.027,0.000
1606138239.805,-31.250,-21.484,-28.320,-70.801,0.000
1606138239.809,18.066,-19.043,-27.832,41.016,0.000
1606138239.813,28.809,-25.391,-28.809,82.520,0.000
1606138239.817,-14.160,-30.762,-30.762,15.625,0.000
1606138239.821,-21.484,-30.762,-30.273,-78.613,0.000
1606138239.825,-18.555,-29.785,-32.227,-78.125,0.000
1606138239.829,-3.418,-26.855,-35.156,35.156,0.000
1606138239.833,34.668,-21.973,-34.180,98.145,0.000
1606138239.836,3.906,-25.391,-37.598,29.297,0.000
1606138239.840,-42.480,-29.297,-38.086,-74.707,0.000
1606138239.844,-41.504,-29.785,-36.621,-90.332,0.000
1606138239.848,-2.930,-24.902,-38.574,12.207,0.000
1606138239.852,22.949,-15.625,-38.086,85.449,0.000
1606138239.856,3.418,-22.461,-33.203,41.504,0.000
1606138239.860,-26.855,-31.250,-30.762,-63.965,0.000
1606138239.864,-25.391,-31.738,-32.227,-96.680,0.000
1606138239.868,-2.930,-34.180,-39.062,-8.301,0.000
1606138239.872,18.555,-35.156,-40.527,71.777,0.000
1606138239.876,12.207,-30.762,-30.762,44.922,0.000
1606138239.879,-44.922,-30.273,-32.715,-78.125,0.000
1606138239.883,-58.105,-33.691,-36.621,-128.906,0.000
1606138239.887,-14.648,-27.832,-35.645,-39.062,0.000
1606138239.891,27.832,-27.344,-37.598,51.758,0.000
1606138239.895,16.602,-26.367,-38.574,38.086,0.000
1606138239.899,-32.715,-25.391,-38.086,-63.477,0.000
1606138239.903,-40.527,-28.320,-37.598,-109.863,0.000
1606138239.907,-15.137,-30.762,-37.109,-46.875,0.000
1606138239.911,15.137,-34.180,-33.691,51.758,0.000
1606138239.915,7.812,-32.715,-33.203,53.711,0.000
1606138239.918,-25.391,-32.227,-30.273,-49.805,0.000
1606138239.922,-46.875,-30.762,-30.762,-106.445,0.000
1606138239.926,-16.113,-29.297,-33.691,-57.129,0.000
1606138239.930,28.809,-29.297,-30.273,47.363,0.000
1606138239.934,12.695,-28.320,-21.973,78.125,0.000
1606138239.938,-22.461,-34.180,-18.555,-15.625,0.000
1606138239.942,-38.086,-36.133,-27.344,-95.703,0.000
1606138239.946,-13.184,-31.250,-27.832,-61.035,0.000
1606138239.950,9.766,-20.020,-26.855,54.199,0.000
1606138239.954,3.418,-20.996,-24.902,83.008,0.000
1606138239.958,-25.391,-25.879,-23.926,-16.602,0.000
1606138239.961,-57.129,-25.879,-32.227,-107.422,0.000
1606138239.965,-49.316,-26.855,-34.180,-87.402,0.000
1606138239.969,-15.625,-25.879,-33.203,18.066,0.000
1606138239.973,-6.348,-28.809,-32.715,64.941,0.000
1606138239.977,-30.762,-27.832,-33.691,-10.254,0.000
1606138239.981,-53.223,-24.902,-30.762,-102.051,0.000
1606138239.985,-40.039,-26.855,-25.879,-101.074,0.000
1606138239.989,-22.949,-33.203,-28.809,-13.184,0.000
1606138239.993,-3.418,-31.250,-29.297,50.781,0.000
1606138239.997,-28.809,-26.367,-25.391,7.812,0.000
1606138240.001,-68.848,-33.203,-24.414,-100.098,0.000
1606138240.004,-60.547,-33.203,-23.926,-117.188,0.000
1606138240.008,-27.832,-34.668,-29.297,-11.230,0.000
1606138240.012,0.000,-38.574,-32.715,64.941,0.000
1606138240.016,-5.859,-29.297,-29.785,27.344,0.000
1606138240.020,-41.992,-24.902,-32.227,-82.031,0.000
1606138240.024,-52.734,-25.391,-36.621,-116.699,0.000
1606138240.028,-22.461,-25.391,-34.668,-28.320,0.000
1606138240.032,3.418,-22.949,-31.738,48.828,0.000
1606138240.036,3.418,-25.391,-28.320,21.484,0.000
1606138240.040,-45.410,-28.809,-24.902,-82.520,0.000
1606138240.043,-70.312,-26.855,-29.785,-114.746,0.000
1606138240.047,-31.250,-26.367,-32.715,-38.574,0.000
1606138240.051,-8.301,-36.621,-32.227,41.504,0.000
1606138240.055,7.812,-40.527,-33.203,41.016,0.000
1606138240.059,-14.648,-35.156,-37.598,-56.641,0.000
1606138240.063,-48.340,-27.344,-38.086,-120.605,0.000
1606138240.067,-20.020,-24.902,-39.062,-59.082,0.000
1606138240.071,9.766,-31.250,-42.480,43.945,0.000
1606138240.075,0.488,-33.691,-36.621,55.664,0.000
1606138240.079,-39.062,-40.527,-37.109,-47.363,0.000
1606138240.083,-61.035,-34.668,-36.621,-105.469,0.000
1606138240.086,-13.672,-23.926,-32.227,-46.875,0.000
1606138240.090,20.996,-31.738,-27.344,52.246,0.000
1606138240.094,-4.395,-34.180,-22.949,70.801,0.000
1606138240.098,-32.227,-35.645,-31.250,-27.832,0.000
1606138240.102,-56.152,-36.133,-35.645,-107.910,0.000
1606138240.106,-32.227,-30.273,-31.250,-65.430,0.000
1606138240.110,23.926,-25.879,-27.832,51.758,0.000
1606138240.114,26.367,-27.344,-24.902,84.473,0.000
1606138240.118,-14.160,-31.738,-27.344,-5.371,0.000
1606138240.122,-38.086,-31.250,-31.738,-97.168,0.000
1606138240.126,-30.273,-31.250,-31.738,-85.449,0.000
1606138240.129,8.789,-25.391,-27.344,26.855,0.000
1606138240.133,31.250,-20.508,-25.391,88.379,0.000
1606138240.137,1.465,-28.809,-30.762,21.484,0.000
1606138240.141,-13.672,-31.250,-33.691,-81.055,0.000
1606138240.145,-14.648,-30.762,-32.715,-91.797,0.000
1606138240.149,-28.809,-33.203,-29.785,10.254,0.000
1606138240.153,-7.324,-31.250,-30.762,73.242,0.000
1606138240.157,-16.602,-28.809,-31.250,18.066,0.000
1606138240.161,-49.805,-30.273,-26.367,-84.473,0.000
1606138240.165,-52.246,-32.715,-22.949,-106.934,0.000
1606138240.168,-16.113,-26.367,-22.949,-6.836,0.000
1606138240.172,10.254,-22.461,-18.066,70.801,0.000
1606138240.176,-11.719,-26.367,-19.043,24.414,0.000
1606138240.180,-48.340,-25.391,-25.879,-82.520,0.000
1606138240.184,-47.363,-17.578,-22.949,-99.609,0.000
1606138240.188,-15.625,-17.578,-20.020,-14.648,0.000
1606138240.192,10.254,-20.020,-21.484,64.941,0.000
1606138240.196,3.906,-15.625,-15.137,46.875,0.000
1606138240.200,-12.695,-18.066,-19.531,-61.523,0.000
1606138240.204,-35.645,-25.391,-26.855,-104.980,0.000
1606138240.208,-32.715,-23.926,-25.879,-34.668,0.000
1606138240.211,4.883,-22.949,-30.762,52.734,0.000
1606138240.215,2.441,-21.484,-27.832,50.781,0.000
1606138240.219,-33.691,-24.414,-29.785,-52.246,0.000
1606138240.223,-43.945,-28.320,-32.715,-113.770,0.000
1606138240.227,-11.719,-21.484,-26.367,-50.781,0.000
1606138240.231,5.371,-18.555,-25.391,58.105,0.000
1606138240.235,-4.883,-27.344,-24.902,54.688,0.000
1606138240.239,-44.922,-32.715,-27.832,-64.941,0.000
1606138240.243,-64.453,-29.785,-26.367,-128.418,0.000
1606138240.247,-38.574,-24.414,-26.855,-81.055,0.000
1606138240.251,-4.395,-14.160,-30.762,21.484,0.000
1606138240.254,4.883,-18.555,-29.297,45.410,0.000
1606138240.258,-11.230,-27.832,-27.832,-48.828,0.000
1606138240.262,-45.410,-30.273,-24.414,-118.652,0.000
1606138240.266,-39.062,-29.785,-31.250,-90.820,0.000
1606138240.270,3.418,-27.344,-34.180,13.184,0.000
1606138240.274,15.137,-27.832,-29.297,57.617,0.000
1606138240.278,-9.277,-27.832,-34.180,-21.484,0.000
1606138240.282,-37.109,-31.738,-38.086,-118.164,0.000
1606138240.286,-28.809,-33.691,-37.598,-103.027,0.000
1606138240.290,8.789,-26.367,-37.598,11.719,0.000
1606138240.293,21.484,-17.578,-34.668,71.777,0.000
1606138240.297,-8.301,-18.066,-26.367,0.977,0.000
1606138240.301,-46.875,-22.949,-24.414,-103.027,0.000
1606138240.305,-55.176,-27.344,-27.832,-105.957,0.000
1606138240.309,-8.301,-26.367,-25.879,-2.441,0.000
1606138240.313,3.906,-24.902,-23.438,63.477,0.000
1606138240.317,-37.598,-29.785,-28.320,8.789,0.000
1606138240.321,-59.570,-28.809,-30.273,-93.750,0.000
1606138240.325,-41.504,-20.508,-20.508,-99.121,0.000
1606138240.329,-11.230,-16.602,-20.508,-4.395,0.000
1606138240.333,-11.230,-20.508,-27.344,44.922,0.000
1606138240.336,-20.020,-29.297,-27.344,-3.418,0.000
1606138240.340,-43.945,-26.855,-29.297,-97.656,0.000
1606138240.344,-43.457,-22.461,-25.879,-118.164,0.000
1606138240.348,-17.578,-19.043,-25.879,-28.809,0.000
1606138240.352,21.484,-16.113,-24.902,60.547,0.000
1606138240.356,4.395,-20.020,-23.438,45.898,0.000
1606138240.360,-58.594,-22.461,-32.715,-62.500,0.000
1606138240.364,-63.965,-30.273,-32.715,-110.840,0.000
1606138240.368,-33.691,-38.086,-35.156,-36.621,0.000
1606138240.372,-10.254,-39.551,-31.738,48.828,0.000
1606138240.376,-12.207,-35.156,-23.438,42.480,0.000
1606138240.379,-46.387,-34.180,-29.785,-57.129,0.000
1606138240.383,-67.383,-36.133,-26.855,-124.023,0.000
1606138240.387,-33.691,-33.691,-20.020,-62.012,0.000
1606138240.391,-7.324,-31.250,-19.531,51.270,0.000
1606138240.395,-17.578,-35.156,-21.484,63.477,0.000
1606138240.399,-53.223,-38.574,-27.832,-42.480,0.000
1606138240.403,-60.059,-31.738,-24.902,-105.957,0.000
1606138240.407,-50.781,-26.367,-23.926,-57.129,0.000
1606138240.411,-27.832,-31.250,-27.344,46.387,0.000
1606138240.415,-4.395,-31.250,-19.531,77.148,0.000
1606138240.418,-36.133,-24.902,-21.484,-8.789,0.000
1606138240.422,-65.918,-31.250,-28.320,-94.727,0.000
1606138240.426,-55.664,-36.133,-29.785,-79.590,0.000
1606138240.430,-19.043,-45.898,-28.809,18.066,0.000
1606138240.434,-1.465,-51.758,-31.250,62.988,0.000
1606138240.438,-20.508,-40.527,-30.273,-12.695,0.000
1606138240.442,-48.828,-37.109,-29.297,-109.863,0.000
1606138240.446,-42.969,-34.668,-30.762,-103.027,0.000
1606138240.450,-8.789,-30.762,-27.344,7.324,0.000
1606138240.454,9.766,-28.320,-21.973,62.012,0.000
1606138240.458,-19.043,-30.762,-27.832,-8.789,0.000
1606138240.461,-41.504,-36.133,-31.250,-111.328,0.000
1606138240.465,-40.039,-25.879,-32.227,-104.980,0.000
1606138240.469,-31.738,-43.457,-31.250,1.465,0.000
1606138240.473,-9.277,-53.711,-29.785,58.105,0.000
1606138240.477,-23.438,-34.668,-25.879,6.348,0.000
1606138240.481,-56.152,-32.715,-22.949,-96.191,0.000
1606138240.485,-62.012,-32.227,-22.461,-117.676,0.000
1606138240.489,-28.809,-32.715,-25.879,-22.461,0.000
1606138240.493,-6.836,-23.438,-34.180,53.223,0.000
1606138240.497,-20.020,-20.996,-27.832,25.391,0.000
1606138240.501,-61.035,-28.809,-27.344,-88.379,0.000
1606138240.504,-75.684,-28.809,-35.156,-126.465,0.000
1606138240.508,-40.527,-38.086,-38.574,-34.668,0.000
1606138240.512,-10.742,-37.598,-35.156,56.152,0.000
1606138240.516,5.371,-23.438,-24.902,39.062,0.000
1606138240.520,-34.180,-26.855,-23.926,-76.660,0.000
1606138240.524,-74.707,-21.973,-26.855,-126.465,0.000
1606138240.528,-42.480,-29.785,-29.297,-52.734,0.000
1606138240.532,-12.207,-46.875,-33.203,39.062,0.000
1606138240.536,2.441,-29.297,-36.133,34.180,0.000
1606138240.540,-33.691,-24.414,-29.297,-74.707,0.000
1606138240.543,-63.965,-30.762,-25.879,-128.418,0.000
1606138240.547,-31.738,-28.809,-31.250,-68.848,0.000
1606138240.551,4.883,-23.438,-23.926,34.668,0.000
1606138240.555,13.184,-19.531,-21.484,54.199,0.000
1606138240.559,-16.602,-21.484,-25.391,-41.016,0.000
1606138240.563,-65.430,-26.855,-25.879,-116.699,0.000
1606138240.567,-52.734,-36.133,-31.738,-78.613,0.000
1606138240.571,-8.301,-44.434,-29.785,35.156,0.000
1606138240.575,1.953,-33.691,-26.855,75.195,0.000
1606138240.579,-31.738,-32.227,-32.715,-20.996,0.000
1606138240.583,-62.500,-39.062,-30.273,-111.328,0.000
1606138240.586,-49.316,-35.156,-29.297,-84.473,0.000
1606138240.590,-4.883,-27.344,-31.250,28.320,0.000
1606138240.594,9.766,-29.297,-27.832,72.266,0.000
1606138240.598,-20.020,-39.062,-28.809,-4.883,0.000
1606138240.602,-45.410,-38.086,-32.715,-91.309,0.000
1606138240.606,-41.504,-30.273,-26.367,-72.266,0.000
1606138240.610,-18.555,-49.316,-28.320,36.133,0.000
1606138240.614,14.160,-53.223,-32.715,79.102,0.000
1606138240.618,-11.230,-29.297,-25.391,3.906,0.000
1606138240.622,-60.547,-27.344,-20.996,-93.262,0.000
1606138240.626,-49.805,-26.855,-24.902,-97.168,0.000
1606138240.629,-19.043,-29.785,-27.344,3.906,0.000
1606138240.633,-3.906,-33.203,-25.879,64.453,0.000
1606138240.637,-21.484,-30.762,-26.855,11.719,0.000
1606138240.641,-53.223,-36.133,-31.250,-98.633,0.000
1606138240.645,-57.129,-38.574,-39.551,-127.441,0.000
1606138240.649,-22.949,-39.551,-38.086,-22.461,0.000
1606138240.653,8.789,-34.180,-31.250,67.383,0.000
1606138240.657,-7.324,-23.926,-36.133,25.391,0.000
1606138240.661,-35.645,-23.438,-33.203,-89.355,0.000
1606138240.665,-49.805,-27.344,-26.367,-122.070,0.000
1606138240.668,-34.668,-32.227,-27.832,-33.203,0.000
1606138240.672,4.883,-26.367,-27.832,58.105,0.000
1606138240.676,-5.859,-20.020,-26.367,37.598,0.000
1606138240.680,-26.367,-22.949,-26.855,-78.125,0.000
1606138240.684,-37.109,-24.414,-27.344,-123.535,0.000
1606138240.688,-36.621,-22.461,-22.461,-44.922,0.000
1606138240.692,-1.953,-24.902,-18.555,51.758,0.000
1606138240.696,-6.836,-26.855,-20.508,51.270,0.000
1606138240.700,-43.457,-26.855,-29.785,-43.945,0.000
1606138240.704,-61.035,-28.809,-31.250,-104.492,0.000
1606138240.708,-40.039,-37.109,-27.344,-64.453,0.000
1606138240.711,-11.230,-53.711,-29.785,40.527,0.000
1606138240.715,-13.184,-39.062,-29.297,63.477,0.000
1606138240.719,-48.340,-27.832,-26.855,-43.945,0.000
1606138240.723,-73.242,-37.598,-28.320,-119.629,0.000
1606138240.727,-54.199,-35.156,-28.809,-75.195,0.000
1606138240.731,-9.766,-27.344,-21.973,41.016,0.000
1606138240.735,2.441,-27.344,-28.809,60.547,0.000
1606138240.739,-47.363,-30.273,-29.297,-37.598,0.000
1606138240.743,-76.172,-31.250,-26.855,-113.770,0.000
1606138240.747,-53.223,-32.715,-33.203,-90.820,0.000
1606138240.751,-18.066,-47.363,-35.645,12.207,0.000
1606138240.754,0.000,-39.062,-32.715,52.734,0.000
1606138240.758,-23.926,-22.949,-27.832,-25.879,0.000
1606138240.762,-57.129,-29.297,-38.086,-121.582,0.000
1606138240.766,-51.758,-33.691,-40.039,-117.188,0.000
1606138240.770,-15.137,-30.273,-29.785,-3.418,0.000
1606138240.774,-2.441,-21.973,-27.832,52.734,0.000
1606138240.778,-34.180,-23.438,-31.250,-15.137,0.000
1606138240.782,-40.527,-26.367,-33.691,-108.887,0.000
1606138240.786,-41.016,-26.367,-35.645,-112.305,0.000
1606138240.790,-30.762,-25.879,-32.227,-3.906,0.000
1606138240.793,13.184,-19.531,-20.996,68.848,0.000
1606138240.797,-13.184,-22.461,-22.949,10.742,0.000
1606138240.801,-60.547,-34.180,-28.809,-106.934,0.000
1606138240.805,-64.453,-36.621,-20.996,-131.836,0.000
1606138240.809,-31.250,-48.828,-21.484,-27.832,0.000
1606138240.813,-1.465,-51.758,-26.855,55.176,0.000
1606138240.817,-6.348,-25.391,-18.555,24.414,0.000
1606138240.821,-41.504,-21.484,-19.531,-85.938,0.000
1606138240.825,-62.012,-25.879,-29.297,-120.605,0.000
1606138240.829,-34.668,-27.832,-26.367,-32.227,0.000
1606138240.833,-6.836,-32.227,-22.461,52.734,0.000
1606138240.836,-15.137,-26.367,-21.484,40.039,0.000
1606138240.840,-45.898,-22.949,-24.414,-63.477,0.000
1606138240.844,-62.988,-27.832,-27.832,-118.652,0.000
1606138240.848,-24.414,-36.133,-29.785,-52.246,0.000
1606138240.852,3.418,-43.945,-25.879,40.039,0.000
1606138240.856,-23.926,-36.621,-20.020,43.945,0.000
1606138240.860,-53.223,-31.250,-27.344,-66.406,0.000
1606138240.864,-65.918,-29.297,-28.320,-130.859,0.000
1606138240.868,-41.992,-30.273,-24.902,-71.777,0.000
1606138240.872,-10.254,-31.250,-31.738,22.949,0.000
1606138240.876,-9.277,-33.203,-36.133,36.621,0.000
1606138240.879,-40.039,-31.250,-31.738,-59.570,0.000
1606138240.883,-62.988,-30.762,-32.715,-126.465,0.000
1606138240.887,-44.922,-30.762,-28.320,-78.613,0.000
1606138240.891,-1.953,-26.855,-23.926,30.273,0.000
1606138240.895,7.812,-26.367,-33.203,52.246,0.000
1606138240.899,-25.879,-29.785,-38.574,-43.457,0.000
1606138240.903,-55.664,-31.738,-35.156,-118.652,0.000
1606138240.907,-29.297,-29.297,-28.320,-80.078,0.000
1606138240.911,1.953,-26.855,-28.320,30.273,0.000
1606138240.915,6.836,-27.344,-27.344,72.754,0.000
1606138240.918,-26.855,-34.668,-22.461,-7.812,0.000
1606138240.922,-66.406,-32.715,-21.484,-102.051,0.000
1606138240.926,-50.293,-29.785,-23.926,-95.215,0.000
1606138240.930,-12.207,-28.809,-20.020,18.555,0.000
1606138240.934,-3.906,-24.414,-19.043,75.195,0.000
1606138240.938,-33.691,-31.738,-20.996,6.348,0.000
1606138240.942,-67.383,-36.621,-22.949,-92.285,0.000
1606138240.946,-64.941,-29.785,-23.438,-99.609,0.000
1606138240.950,-23.438,-23.438,-25.879,16.113,0.000
1606138240.954,5.371,-25.391,-24.414,90.332,0.000
1606138240.958,-17.578,-33.203,-24.902,36.133,0.000
1606138240.961,-56.641,-29.297,-29.297,-78.613,0.000
1606138240.965,-56.152,-21.484,-29.297,-101.074,0.000
1606138240.969,-33.691,-29.785,-30.273,-16.113,0.000
1606138240.973,18.066,-31.250,-32.715,54.688,0.000
1606138240.977,0.000,-29.785,-37.109,29.785,0.000
1606138240.981,-70.801,-34.180,-37.109,-78.613,0.000
1606138240.985,-68.848,-31.250,-31.250,-123.047,0.000
1606138240.989,-31.738,-39.062,-33.203,-42.480,0.000
1606138240.993,3.418,-47.852,-37.109,51.270,0.000
1606138240.997,0.488,-37.598,-31.250,36.133,0.000
1606138241.001,-33.203,-27.832,-32.715,-78.613,0.000
1606138241.004,-54.199,-28.320,-39.062,-130.859,0.000
1606138241.008,-26.855,-26.855,-35.645,-51.758,0.000
1606138241.012,9.766,-20.020,-26.855,54.688,0.000
1606138241.016,8.301,-20.996,-27.344,57.617,0.000
1606138241.020,-23.926,-26.367,-29.785,-55.664,0.000
1606138241.024,-38.086,-23.926,-29.785,-115.234,0.000
1606138241.028,-17.090,-23.926,-33.203,-44.922,0.000
1606138241.032,6.348,-30.762,-32.227,51.270,0.000
1606138241.036,8.789,-23.438,-29.297,61.035,0.000
1606138241.040,-30.762,-24.902,-32.227,-40.039,0.000
1606138241.043,-45.410,-28.320,-31.250,-115.723,0.000
1606138241.047,-37.598,-31.738,-34.180,-76.172,0.000
1606138241.051,-20.508,-32.715,-34.668,35.156,0.000
1606138241.055,-6.836,-32.227,-31.250,62.988,0.000
1606138241.059,-24.414,-29.785,-31.738,-28.809,0.000
1606138241.063,-41.992,-22.461,-28.809,-103.516,0.000
1606138241.067,-44.434,-24.902,-29.785,-74.707,0.000
1606138241.071,-7.812,-25.391,-32.715,37.109,0.000
1606138241.075,4.883,-21.484,-28.809,84.473,0.000
1606138241.079,-24.414,-25.879,-31.738,2.930,0.000
1606138241.083,-49.316,-33.203,-37.598,-96.191,0.000
1606138241.086,-40.039,-34.180,-38.574,-94.238,0.000
1606138241.090,-10.742,-36.133,-35.156,20.020,0.000
1606138241.094,5.371,-35.156,-26.367,83.496,0.000
1606138241.098,5.371,-28.809,-20.020,12.695,0.000
1606138241.102,-38.574,-29.297,-27.344,-99.121,0.000
1606138241.106,-64.453,-27.344,-29.297,-106.445,0.000
1606138241.110,-26.367,-29.785,-26.367,-0.977,0.000
1606138241.114,-9.277,-33.691,-26.367,65.430,0.000
1606138241.118,-10.742,-38.574,-21.973,40.039,0.000
1606138241.122,-28.809,-30.273,-30.273,-61.523,0.000
1606138241.126,-54.199,-16.113,-39.062,-123.535,0.000
1606138241.129,-49.316,-21.973,-44.434,-63.477,0.000
1606138241.133,-18.066,-21.484,-43.945,15.625,0.000
1606138241.137,-15.137,-12.695,-38.574,5.859,0.000
1606138241.141,-62.988,-14.648,-42.480,-95.703,0.000
1606138241.145,-67.383,-16.602,-44.922,-133.301,0.000
1606138241.149,-30.762,-15.137,-45.898,-53.711,0.000
1606138241.153,-20.996,-15.137,-42.480,41.504,0.000
1606138241.157,-19.531,-24.414,-40.039,39.551,0.000
1606138241.161,-49.316,-25.879,-42.969,-70.801,0.000
1606138241.165,-52.734,-19.531,-37.109,-110.352,0.000
1606138241.168,-19.043,-26.367,-39.062,-31.250,0.000
1606138241.172,3.906,-34.180,-41.992,52.246,0.000
1606138241.176,1.953,-27.832,-35.645,45.898,0.000
1606138241.180,-24.414,-27.344,-35.645,-58.105,0.000
1606138241.184,-42.969,-22.461,-36.133,-115.234,0.000
1606138241.188,-27.832,-21.973,-39.062,-61.035,0.000
1606138241.192,4.395,-21.973,-33.203,41.992,0.000
1606138241.196,1.465,-21.484,-22.949,62.500,0.000
1606138241.200,-33.203,-22.949,-28.320,-30.273,0.000
1606138241.204,-54.199,-23.438,-33.691,-100.098,0.000
1606138241.208,-38.574,-26.855,-31.250,-70.801,0.000
1606138241.211,0.000,-20.020,-24.902,40.039,0.000
1606138241.215,5.859,-18.066,-19.043,75.195,0.000
1606138241.219,-14.648,-22.949,-20.996,-20.508,0.000
1606138241.223,-53.711,-24.902,-34.668,-111.816,0.000
1606138241.227,-63.477,-26.855,-43.457,-104.492,0.000
1606138241.231,-12.695,-24.414,-39.062,12.207,0.000
1606138241.235,6.348,-23.438,-35.645,71.777,0.000
1606138241.239,-27.832,-29.297,-38.574,-9.277,0.000
1606138241.243,-62.500,-31.250,-41.504,-107.422,0.000
1606138241.247,-45.898,-24.414,-40.039,-98.145,0.000
1606138241.251,-7.812,-24.902,-33.691,8.301,0.000
1606138241.254,8.301,-25.879,-34.668,62.500,0.000
1606138241.258,-5.371,-24.414,-39.062,2.930,0.000
1606138241.262,-28.320,-22.949,-42.480,-95.215,0.000
1606138241.266,-39.551,-20.508,-41.504,-104.980,0.000
1606138241.270,-20.508,-31.738,-44.922,-8.789,0.000
1606138241.274,21.484,-32.715,-47.852,43.457,0.000
1606138241.278,7.324,-22.949,-41.504,1.953,0.000
1606138241.282,-48.340,-18.555,-32.227,-93.262,0.000
1606138241.286,-48.828,-16.113,-31.250,-121.582,0.000
1606138241.290,-23.438,-18.555,-36.133,-32.715,0.000
1606138241.293,3.418,-20.508,-29.297,54.688,0.000
1606138241.297,-2.441,-20.996,-30.273,32.715,0.000
1606138241.301,-42.969,-21.973,-41.992,-84.473,0.000
1606138241.305,-54.688,-24.902,-42.969,-123.047,0.000
1606138241.309,-14.648,-22.461,-49.805,-23.438,0.000
1606138241.313,31.250,-20.020,-47.363,73.730,0.000
1606138241.317,12.695,-23.438,-28.809,50.293,0.000
1606138241.321,-29.297,-27.344,-23.438,-65.918,0.000
1606138241.325,-38.086,-29.297,-24.414,-111.328,0.000
1606138241.329,-29.297,-27.832,-19.531,-27.832,0.000
1606138241.333,11.230,-30.273,-15.625,77.637,0.000
1606138241.336,24.414,-39.062,-15.625,80.566,0.000
1606138241.340,2.930,-36.133,-19.531,-8.789,0.000
1606138241.344,0.000,-35.645,-24.414,-68.848,0.000
1606138241.348,18.066,-37.598,-19.531,-29.785,0.000
1606138241.352,24.902,-35.645,-14.160,79.102,0.000
1606138241.356,22.949,-36.621,-16.113,109.375,0.000
1606138241.360,-5.859,-37.109,-16.602,4.883,0.000
1606138241.364,-34.180,-47.852,-20.020,-83.008,0.000
1606138241.368,-15.137,-49.805,-22.461,-52.246,0.000
1606138241.372,28.809,-34.668,-18.066,63.965,0.000
1606138241.376,38.086,-29.297,-8.301,105.469,0.000
1606138241.379,0.488,-32.227,-13.672,12.695,0.000
1606138241.383,-23.926,-37.109,-23.926,-83.496,0.000
1606138241.387,-12.207,-35.645,-12.695,-57.129,0.000
1606138241.391,19.531,-25.879,-5.859,56.152,0.000
1606138241.395,34.180,-23.438,-11.230,92.773,0.000
1606138241.399,15.137,-27.344,-12.207,17.578,0.000
1606138241.403,-13.672,-32.715,-14.160,-72.266,0.000
1606138241.407,-31.250,-35.156,-16.602,-71.289,0.000
1606138241.411,3.418,-38.086,-16.602,33.691,0.000
1606138241.415,23.926,-33.203,-16.602,80.078,0.000
1606138241.418,-1.465,-29.785,-15.137,21.484,0.000
1606138241.422,-32.715,-33.203,-14.648,-76.172,0.000
1606138241.426,-30.762,-28.809,-13.672,-94.238,0.000
1606138241.430,4.395,-25.391,-17.090,9.766,0.000
1606138241.434,26.855,-22.461,-17.090,90.820,0.000
1606138241.438,17.578,-26.855,-12.207,37.598,0.000
1606138241.442,-20.020,-35.156,-21.973,-78.613,0.000
1606138241.446,-41.504,-35.645,-21.484,-98.145,0.000
1606138241.450,-9.766,-32.715,-20.996,-2.441,0.000
1606138241.454,14.160,-29.297,-27.832,75.195,0.000
1606138241.458,-10.742,-29.785,-12.695,45.410,0.000
1606138241.461,-31.738,-31.738,-19.531,-76.172,0.000
1606138241.465,-46.875,-34.668,-34.668,-121.094,0.000
1606138241.469,-39.062,-34.180,-29.297,-37.598,0.000
1606138241.473,-1.953,-34.180,-22.949,48.828,0.000
1606138241.477,-15.625,-33.691,-20.020,39.062,0.000
1606138241.481,-55.664,-35.645,-21.973,-68.359,0.000
1606138241.485,-60.547,-44.434,-24.902,-117.188,0.000
1606138241.489,-28.320,-39.062,-27.832,-50.781,0.000
1606138241.493,-3.906,-35.156,-24.414,48.340,0.000
1606138241.497,-8.789,-38.086,-16.602,67.871,0.000
1606138241.501,-43.457,-34.668,-11.230,-36.133,0.000
1606138241.504,-63.965,-32.227,-19.043,-114.258,0.000
1606138241.508,-50.293,-43.945,-31.738,-75.195,0.000
1606138241.512,-22.461,-51.270,-31.738,26.855,0.000
1606138241.516,0.488,-44.434,-20.508,73.730,0.000
1606138241.520,-15.137,-36.133,-26.367,-15.625,0.000
1606138241.524,-64.453,-29.297,-39.551,-122.070,0.000
1606138241.528,-44.922,-22.949,-38.574,-100.586,0.000
1606138241.532,3.418,-16.602,-34.668,12.695,0.000
1606138241.536,-20.508,-22.461,-33.691,41.992,0.000
1606138241.540,-47.852,-32.227,-31.738,-41.504,0.000
1606138241.543,-57.617,-26.855,-30.762,-112.305,0.000
1606138241.547,-58.594,-28.320,-34.668,-99.609,0.000
1606138241.551,-21.484,-27.344,-36.621,8.301,0.000
1606138241.555,3.906,-21.973,-35.156,63.477,0.000
1606138241.559,-17.578,-26.855,-32.227,-11.230,0.000
1606138241.563,-49.316,-30.273,-33.691,-108.398,0.000
1606138241.567,-45.898,-29.297,-32.715,-107.910,0.000
1606138241.571,-18.066,-25.391,-30.762,-0.488,0.000
1606138241.575,-6.348,-27.832,-32.227,56.152,0.000
1606138241.579,-34.668,-32.227,-30.762,2.441,0.000
1606138241.583,-65.918,-34.668,-32.227,-100.586,0.000
1606138241.586,-53.711,-36.133,-39.062,-115.234,0.000
1606138241.590,-29.785,-30.762,-36.621,-12.207,0.000
1606138241.594,-14.160,-31.250,-29.297,57.129,0.000
1606138241.598,-28.809,-39.062,-27.832,17.090,0.000
1606138241.602,-61.523,-39.551,-33.203,-89.844,0.000
1606138241.606,-47.852,-32.715,-30.762,-115.723,0.000
1606138241.610,-21.484,-30.762,-28.320,-22.461,0.000
1606138241.614,-3.418,-30.273,-30.273,63.965,0.000
1606138241.618,-4.395,-27.832,-30.273,34.180,0.000
1606138241.622,-47.852,-31.250,-30.762,-77.637,0.000
1606138241.626,-56.152,-32.715,-26.367,-110.840,0.000
1606138241.629,-27.832,-33.203,-30.273,-36.621,0.000
1606138241.633,4.883,-28.320,-27.344,52.246,0.000
1606138241.637,-8.789,-28.809,-20.020,53.223,0.000
1606138241.641,-54.688,-31.738,-23.926,-61.523,0.000
1606138241.645,-69.336,-33.691,-27.344,-126.953,0.000
1606138241.649,-47.363,-31.250,-32.227,-64.941,0.000
1606138241.653,-8.301,-20.020,-29.785,43.945,0.000
1606138241.657,0.488,-21.484,-20.508,64.453,0.000
1606138241.661,-40.527,-33.691,-31.738,-56.641,0.000
1606138241.665,-65.918,-34.180,-32.227,-127.930,0.000
1606138241.668,-36.621,-21.973,-20.508,-55.664,0.000
1606138241.672,-5.371,-23.926,-26.367,40.039,0.000
1606138241.676,16.602,-29.297,-29.785,41.504,0.000
1606138241.680,-19.531,-23.438,-26.367,-52.734,0.000
1606138241.684,-72.754,-21.484,-24.902,-123.047,0.000
1606138241.688,-53.223,-26.367,-28.320,-98.145,0.000
1606138241.692,-22.461,-25.391,-34.668,2.930,0.000
1606138241.696,1.465,-24.414,-28.320,45.898,0.000
1606138241.700,-23.926,-31.738,-29.297,-34.668,0.000
1606138241.704,-62.988,-32.715,-31.738,-117.676,0.000
1606138241.708,-53.711,-26.855,-26.367,-97.168,0.000
1606138241.711,-19.043,-32.227,-29.297,12.207,0.000
1606138241.715,-0.977,-33.691,-26.367,62.988,0.000
1606138241.719,-26.855,-27.344,-23.438,-9.277,0.000
1606138241.723,-65.430,-33.691,-22.949,-106.445,0.000
1606138241.727,-59.082,-35.645,-18.555,-97.656,0.000
1606138241.731,-21.484,-32.715,-20.996,13.184,0.000
1606138241.735,-4.395,-25.879,-24.902,70.312,0.000
1606138241.739,-29.785,-30.273,-26.367,0.000,0.000
1606138241.743,-69.336,-34.668,-24.414,-113.770,0.000
1606138241.747,-66.895,-25.391,-26.855,-122.070,0.000
1606138241.751,-2.441,-29.297,-31.250,-14.160,0.000
1606138241.754,29.297,-27.832,-20.996,63.477,0.000
1606138241.758,-27.344,-24.902,-13.184,12.207,0.000
1606138241.762,-83.984,-32.715,-12.207,-107.422,0.000
1606138241.766,-98.145,-38.574,-16.602,-139.648,0.000
1606138241.770,-63.477,-41.016,-14.648,-46.875,0.000
1606138241.774,-25.391,-37.598,-5.859,37.598,0.000
1606138241.778,-33.691,-38.574,-2.441,14.648,0.000
1606138241.782,-85.449,-45.898,-1.465,-98.633,0.000
1606138241.786,-90.332,-37.598,1.953,-132.324,0.000
1606138241.790,-57.617,-51.758,-3.418,-48.828,0.000
1606138241.793,-27.344,-59.570,-7.812,35.156,0.000
1606138241.797,-23.926,-36.621,-1.465,25.879,0.000
1606138241.801,-68.848,-36.621,-6.836,-91.309,0.000
1606138241.805,-81.055,-36.621,-10.742,-144.531,0.000
1606138241.809,-45.898,-32.715,-6.348,-67.871,0.000
1606138241.813,-12.207,-33.691,-6.836,37.598,0.000
1606138241.817,-14.648,-33.203,-12.207,48.340,0.000
1606138241.821,-51.270,-36.621,-16.113,-55.176,0.000
1606138241.825,-68.848,-35.645,-20.020,-108.887,0.000
1606138241.829,-48.340,-50.293,-23.926,-59.570,0.000
1606138241.833,-19.531,-68.359,-18.066,31.738,0.000
1606138241.836,-13.672,-50.781,-11.719,51.270,0.000
1606138241.840,-40.039,-39.551,-16.602,-37.598,0.000
1606138241.844,-65.430,-38.574,-19.043,-108.887,0.000
1606138241.848,-27.832,-33.691,-15.137,-66.895,0.000
1606138241.852,1.465,-33.203,-20.508,34.668,0.000
1606138241.856,-23.926,-34.668,-30.273,54.199,0.000
1606138241.860,-43.457,-34.668,-27.832,-29.785,0.000
1606138241.864,-63.477,-35.156,-27.832,-109.375,0.000
1606138241.868,-62.500,-35.156,-30.762,-90.332,0.000
1606138241.872,-32.227,-39.062,-25.391,19.531,0.000
1606138241.876,-19.043,-41.992,-23.438,64.453,0.000
1606138241.879,-34.668,-40.527,-26.855,-6.348,0.000
1606138241.883,-64.941,-42.969,-29.785,-104.004,0.000
1606138241.887,-68.359,-40.527,-29.297,-98.633,0.000
1606138241.891,-25.391,-34.180,-33.691,14.648,0.000
1606138241.895,-7.812,-33.203,-32.227,64.453,0.000
1606138241.899,-25.879,-33.691,-31.250,2.930,0.000
1606138241.903,-57.129,-34.668,-35.156,-92.773,0.000
1606138241.907,-56.152,-30.762,-28.809,-100.098,0.000
1606138241.911,-23.438,-29.785,-26.367,-4.883,0.000
1606138241.915,-3.418,-32.227,-24.414,59.082,0.000
1606138241.918,-19.043,-28.809,-20.996,25.391,0.000
1606138241.922,-59.082,-29.297,-29.297,-93.262,0.000
1606138241.926,-71.777,-36.621,-31.250,-137.207,0.000
1606138241.930,-38.574,-31.738,-24.414,-44.434,0.000
1606138241.934,-10.742,-25.391,-22.461,44.922,0.000
1606138241.938,-23.926,-27.832,-19.531,29.785,0.000
1606138241.942,-56.152,-30.273,-19.531,-81.543,0.000
1606138241.946,-70.312,-31.738,-17.578,-124.023,0.000
1606138241.950,-46.387,-30.762,-20.020,-45.410,0.000
1606138241.954,0.977,-30.762,-22.949,45.410,0.000
1606138241.958,-12.207,-35.645,-24.902,29.785,0.000
1606138241.961,-64.941,-41.016,-33.203,-82.520,0.000
1606138241.965,-68.848,-36.621,-32.715,-119.141,0.000
1606138241.969,-50.293,-33.691,-31.250,-57.129,0.000
1606138241.973,-21.484,-39.551,-30.762,29.297,0.000
1606138241.977,-12.695,-40.039,-21.973,45.410,0.000
1606138241.981,-51.270,-37.598,-18.555,-55.176,0.000
1606138241.985,-66.895,-41.504,-22.461,-113.770,0.000
1606138241.989,-36.133,-36.133,-32.227,-57.617,0.000
1606138241.993,5.371,-24.902,-38.086,40.039,0.000
1606138241.997,17.578,-22.461,-35.645,56.152,0.000
1606138242.001,-28.320,-29.297,-29.785,-44.922,0.000
1606138242.004,-64.453,-27.832,-28.809,-121.582,0.000
1606138242.008,-58.594,-26.367,-39.062,-91.797,0.000
1606138242.012,-17.090,-25.391,-38.086,28.320,0.000
1606138242.016,2.441,-26.855,-33.203,68.848,0.000
1606138242.020,-30.762,-36.621,-35.156,-28.809,0.000
1606138242.024,-58.594,-41.016,-34.668,-121.094,0.000
1606138242.028,-48.340,-39.551,-35.645,-104.492,0.000
1606138242.032,-3.418,-35.645,-33.203,3.906,0.000
1606138242.036,18.555,-30.273,-30.273,47.363,0.000
1606138242.040,-37.109,-32.715,-33.203,-31.250,0.000
1606138242.043,-76.660,-34.180,-32.227,-122.070,0.000
1606138242.047,-48.828,-32.715,-38.086,-118.652,0.000
1606138242.051,-7.324,-27.832,-37.109,-7.324,0.000
1606138242.055,4.883,-21.973,-31.250,69.336,0.000
1606138242.059,-16.113,-28.809,-28.320,12.207,0.000
1606138242.063,-48.340,-29.297,-26.367,-100.098,0.000
1606138242.067,-48.340,-28.320,-27.832,-114.746,0.000
1606138242.071,-15.625,-32.715,-23.926,-5.859,0.000
1606138242.075,5.371,-29.297,-26.367,67.383,0.000
1606138242.079,-17.578,-31.738,-23.438,13.184,0.000
1606138242.083,-51.270,-32.715,-16.113,-92.285,0.000
1606138242.086,-60.547,-35.156,-19.531,-125.488,0.000
1606138242.090,-43.457,-44.434,-25.391,-38.086,0.000
1606138242.094,-11.230,-38.574,-21.484,49.316,0.000
1606138242.098,-16.602,-30.273,-21.973,20.020,0.000
1606138242.102,-41.992,-31.738,-29.785,-90.332,0.000
1606138242.106,-46.387,-28.320,-24.902,-125.000,0.000
1606138242.110,-40.527,-43.945,-26.855,-52.734,0.000
1606138242.114,-9.277,-49.805,-32.715,28.809,0.000
1606138242.118,-0.977,-31.738,-22.949,28.320,0.000
1606138242.122,-47.363,-26.855,-14.160,-75.195,0.000
1606138242.126,-51.270,-30.273,-18.066,-130.859,0.000
1606138242.129,-34.668,-30.273,-17.578,-63.477,0.000
1606138242.133,-32.715,-27.344,-15.625,29.785,0.000
1606138242.137,-23.438,-27.832,-20.996,37.598,0.000
1606138242.141,-56.152,-26.367,-29.785,-62.988,0.000
1606138242.145,-73.730,-25.879,-28.320,-132.812,0.000
1606138242.149,-52.246,-29.297,-32.715,-87.891,0.000
1606138242.153,-18.066,-27.344,-37.598,16.602,0.000
1606138242.157,-7.324,-24.902,-29.297,40.527,0.000
1606138242.161,-36.133,-25.391,-32.715,-52.246,0.000
1606138242.165,-67.871,-27.344,-36.621,-126.953,0.000
1606138242.168,-59.570,-44.434,-25.879,-80.078,0.000
1606138242.172,-3.418,-45.410,-27.832,43.945,0.000
1606138242.176,28.809,-20.508,-33.691,78.125,0.000
1606138242.180,-31.738,-17.578,-35.156,-27.832,0.000
1606138242.184,-46.875,-18.066,-37.598,-122.070,0.000
1606138242.188,-18.555,-14.648,-40.527,-101.074,0.000
1606138242.192,-29.297,-20.996,-44.434,-0.977,0.000
1606138242.196,-25.391,-18.066,-41.504,48.340,0.000
1606138242.200,-36.621,-14.648,-36.133,-6.348,0.000
1606138242.204,-58.105,-20.020,-36.133,-101.074,0.000
1606138242.208,-57.617,-35.156,-42.969,-117.188,0.000
1606138242.211,-27.832,-53.223,-41.504,-14.648,0.000
1606138242.215,-2.930,-39.551,-34.668,54.688,0.000
1606138242.219,-17.578,-24.902,-34.180,0.977,0.000
1606138242.223,-54.199,-31.738,-39.551,-103.027,0.000
1606138242.227,-40.527,-32.715,-40.039,-117.676,0.000
1606138242.231,-4.395,-26.367,-34.668,-7.324,0.000
1606138242.235,-2.441,-19.043,-28.809,72.266,0.000
1606138242.239,-2.930,-19.043,-27.832,19.531,0.000
1606138242.243,-27.344,-21.973,-37.109,-92.285,0.000
1606138242.247,-40.527,-25.391,-49.316,-124.023,0.000
1606138242.251,-10.742,-41.504,-49.805,-48.340,0.000
1606138242.254,6.348,-37.109,-37.109,34.668,0.000
1606138242.258,-20.508,-26.367,-32.227,16.113,0.000
1606138242.262,-63.965,-29.785,-34.668,-86.426,0.000
1606138242.266,-65.918,-32.227,-35.645,-125.488,0.000
1606138242.270,-36.133,-32.227,-32.227,-48.340,0.000
1606138242.274,-11.230,-30.273,-24.902,43.457,0.000
1606138242.278,-7.324,-27.344,-27.832,40.527,0.000
1606138242.282,-41.016,-25.391,-23.438,-63.965,0.000
1606138242.286,-48.828,-21.973,-20.508,-114.258,0.000
1606138242.290,-17.578,-24.902,-26.855,-50.781,0.000
1606138242.293,-2.930,-25.879,-25.391,55.664,0.000
1606138242.297,-9.766,-26.367,-28.320,62.012,0.000
1606138242.301,-38.086,-28.320,-31.738,-51.758,0.000
1606138242.305,-56.641,-24.902,-33.203,-119.141,0.000
1606138242.309,-42.480,-33.691,-35.156,-73.730,0.000
1606138242.313,0.488,-41.016,-35.156,25.879,0.000
1606138242.317,5.371,-26.855,-31.250,58.105,0.000
1606138242.321,-34.180,-23.926,-30.762,-33.203,0.000
1606138242.325,-49.316,-30.762,-32.715,-116.699,0.000
1606138242.329,-32.715,-29.785,-34.668,-82.031,0.000
1606138242.333,0.488,-24.902,-36.133,25.391,0.000
1606138242.336,10.254,-22.949,-24.414,67.383,0.000
1606138242.340,-25.391,-29.785,-25.879,-19.531,0.000
1606138242.344,-64.941,-34.668,-37.598,-116.699,0.000
1606138242.348,-41.016,-34.180,-40.039,-105.957,0.000
1606138242.352,6.836,-26.855,-36.621,4.883,0.000
1606138242.356,-0.488,-22.949,-31.738,63.965,0.000
1606138242.360,-37.109,-31.250,-31.738,-9.277,0.000
1606138242.364,-74.219,-38.574,-30.762,-111.328,0.000
1606138242.368,-65.430,-35.156,-30.762,-118.652,0.000
1606138242.372,-20.996,-28.320,-30.762,-9.766,0.000
1606138242.376,1.465,-23.438,-24.902,65.918,0.000
1606138242.379,-17.578,-25.879,-27.344,14.648,0.000
1606138242.383,-41.992,-25.879,-28.320,-83.008,0.000
1606138242.387,-35.645,-20.996,-20.020,-83.496,0.000
1606138242.391,-12.695,-34.668,-31.250,2.930,0.000
1606138242.395,14.648,-30.762,-35.156,63.477,0.000
1606138242.399,5.859,-21.484,-28.320,28.320,0.000
1606138242.403,-43.945,-31.250,-31.250,-87.891,0.000
1606138242.407,-70.801,-29.297,-24.414,-125.000,0.000
1606138242.411,-38.574,-28.320,-18.066,-26.855,0.000
1606138242.415,11.719,-34.668,-20.996,53.711,0.000
1606138242.418,-18.555,-35.645,-20.020,31.738,0.000
1606138242.422,-74.219,-39.062,-21.973,-72.266,0.000
1606138242.426,-67.383,-34.668,-22.949,-117.188,0.000
1606138242.430,-32.227,-32.227,-21.484,-34.180,0.000
1606138242.434,-7.324,-32.227,-18.555,62.500,0.000
1606138242.438,-7.812,-30.762,-16.602,52.734,0.000
1606138242.442,-38.574,-32.715,-26.855,-59.570,0.000
1606138242.446,-60.547,-35.645,-32.715,-118.164,0.000
1606138242.450,-39.551,-27.344,-27.832,-54.688,0.000
1606138242.454,-8.789,-16.113,-23.926,48.828,0.000
1606138242.458,-15.625,-20.020,-25.879,55.176,0.000
1606138242.461,-42.969,-29.297,-28.320,-57.129,0.000
1606138242.465,-49.316,-33.691,-29.297,-130.371,0.000
1606138242.469,-42.969,-28.320,-23.926,-79.102,0.000
1606138242.473,-14.160,-25.879,-21.973,30.762,0.000
1606138242.477,-0.977,-25.391,-19.531,53.711,0.000
1606138242.481,-34.668,-25.391,-26.367,-42.480,0.000
1606138242.485,-60.059,-27.832,-31.250,-118.164,0.000
1606138242.489,-49.805,-36.133,-28.809,-91.309,0.000
1606138242.493,-12.207,-38.574,-33.203,14.160,0.000
1606138242.497,5.859,-32.227,-26.855,62.012,0.000
1606138242.501,-22.461,-32.715,-27.832,-22.461,0.000
1606138242.504,-58.105,-30.762,-28.809,-107.422,0.000
1606138242.508,-24.902,-28.809,-21.973,-90.820,0.000
1606138242.512,7.324,-27.832,-22.461,18.555,0.000
1606138242.516,-14.160,-27.344,-22.949,71.289,0.000
1606138242.520,-32.715,-20.508,-15.137,1.465,0.000
1606138242.524,-56.152,-21.484,-17.578,-92.773,0.000
1606138242.528,-60.059,-30.273,-35.156,-98.633,0.000
1606138242.532,-35.645,-40.527,-42.969,-6.836,0.000
1606138242.536,-14.648,-40.039,-33.203,56.152,0.000
1606138242.540,-33.203,-34.180,-28.320,6.836,0.000
1606138242.543,-69.336,-38.574,-30.762,-97.656,0.000
1606138242.547,-73.242,-38.086,-31.738,-119.141,0.000
1606138242.551,-24.414,-31.738,-28.320,-17.090,0.000
1606138242.555,-2.930,-31.738,-26.367,56.152,0.000
1606138242.559,-35.156,-35.156,-26.367,13.672,0.000
1606138242.563,-73.730,-39.551,-27.344,-86.914,0.000
1606138242.567,-63.965,-45.410,-29.297,-100.586,0.000
1606138242.571,-9.277,-31.250,-38.574,0.000,0.000
1606138242.575,13.672,-14.648,-39.062,71.777,0.000
1606138242.579,2.930,-19.043,-41.504,37.109,0.000
1606138242.583,-18.066,-26.367,-52.734,-68.359,0.000
1606138242.586,-18.066,-28.320,-50.293,-97.656,0.000
1606138242.590,9.277,-30.762,-50.293,-12.207,0.000
1606138242.594,40.039,-28.809,-51.270,85.449,0.000
1606138242.598,43.457,-21.973,-47.363,82.520,0.000
1606138242.602,33.203,-23.438,-41.016,-20.996,0.000
1606138242.606,5.371,-28.809,-44.922,-76.172,0.000
1606138242.610,5.859,-24.414,-43.945,-5.859,0.000
1606138242.614,54.688,-17.578,-37.598,94.238,0.000
1606138242.618,52.246,-18.066,-40.527,94.238,0.000
1606138242.622,7.812,-18.066,-40.039,-6.348,0.000
1606138242.626,-4.395,-24.414,-37.598,-72.266,0.000
1606138242.629,17.090,-17.090,-39.551,-26.367,0.000
1606138242.633,41.992,-14.648,-37.598,77.148,0.000
1606138242.637,55.664,-26.367,-28.809,101.562,0.000
1606138242.641,44.434,-24.414,-30.273,7.812,0.000
1606138242.645,-11.230,-22.949,-32.227,-68.359,0.000
1606138242.649,-14.648,-26.367,-33.203,-39.551,0.000
1606138242.653,31.250,-27.832,-31.738,70.801,0.000
1606138242.657,35.156,-26.855,-30.762,111.816,0.000
1606138242.661,20.508,-25.879,-33.691,23.926,0.000
1606138242.665,-4.883,-24.414,-30.762,-63.477,0.000
1606138242.668,1.465,-23.438,-33.203,-42.480,0.000
1606138242.672,36.621,-20.508,-36.621,61.035,0.000
1606138242.676,26.855,-26.367,-31.738,103.516,0.000
1606138242.680,0.000,-29.785,-27.832,30.273,0.000
1606138242.684,-18.066,-29.785,-33.691,-68.359,0.000
1606138242.688,-14.160,-30.273,-33.203,-67.383,0.000
1606138242.692,5.859,-31.250,-30.273,40.527,0.000
1606138242.696,28.809,-33.203,-29.785,91.309,0.000
1606138242.700,18.555,-34.180,-23.438,33.691,0.000
1606138242.704,-9.277,-30.762,-15.137,-61.523,0.000
1606138242.708,-12.207,-24.902,-13.184,-85.938,0.000
1606138242.711,3.418,-24.414,-15.625,7.812,0.000
1606138242.715,37.109,-24.414,-18.066,84.473,0.000
1606138242.719,19.531,-29.297,-18.066,36.621,0.000
1606138242.723,-47.852,-38.574,-20.996,-67.383,0.000
1606138242.727,-39.551,-28.809,-21.484,-94.727,0.000
1606138242.731,-7.324,-11.719,-22.949,-7.812,0.000
1606138242.735,2.930,-20.508,-26.367,75.684,0.000
1606138242.739,-7.812,-29.297,-28.320,48.828,0.000
1606138242.743,-46.387,-29.785,-30.273,-68.359,0.000
1606138242.747,-53.711,-31.738,-27.832,-112.305,0.000
1606138242.751,-25.391,-28.320,-27.344,-32.715,0.000
1606138242.754,-2.441,-31.250,-27.832,55.664,0.000
1606138242.758,-13.184,-37.598,-30.273,43.945,0.000
1606138242.762,-35.156,-36.621,-34.180,-57.617,0.000
1606138242.766,-49.805,-39.551,-24.414,-106.934,0.000
1606138242.770,-55.664,-36.133,-30.762,-62.012,0.000
1606138242.774,-33.203,-32.715,-40.039,32.227,0.000
1606138242.778,-19.043,-32.715,-24.902,60.059,0.000
1606138242.782,-45.410,-31.738,-27.832,-43.945,0.000
1606138242.786,-55.176,-32.227,-31.738,-119.141,0.000
1606138242.790,-35.645,-33.203,-26.855,-73.242,0.000
1606138242.793,4.883,-31.250,-23.926,35.156,0.000
1606138242.797,16.602,-27.832,-21.484,61.523,0.000
1606138242.801,-35.156,-31.250,-17.090,-38.086,0.000
1606138242.805,-45.410,-33.203,-14.648,-104.492,0.000
1606138242.809,-27.344,-34.180,-25.391,-63.477,0.000
1606138242.813,-24.414,-36.621,-35.156,27.832,0.000
1606138242.817,-10.742,-31.738,-33.203,54.199,0.000
1606138242.821,-38.086,-30.762,-29.785,-28.320,0.000
1606138242.825,-70.312,-29.785,-32.227,-109.375,0.000
1606138242.829,-60.059,-34.668,-26.367,-89.844,0.000
1606138242.833,-24.902,-35.156,-19.531,14.160,0.000
1606138242.836,-5.859,-29.297,-22.949,62.012,0.000
1606138242.840,-34.668,-35.645,-28.320,-7.324,0.000
1606138242.844,-60.059,-37.598,-30.762,-101.562,0.000
1606138242.848,-38.086,-30.762,-32.227,-104.980,0.000
1606138242.852,-22.461,-25.879,-34.180,3.906,0.000
1606138242.856,-11.230,-22.949,-29.297,80.566,0.000
1606138242.860,-21.973,-25.391,-28.320,18.555,0.000
1606138242.864,-67.383,-29.297,-37.109,-101.074,0.000
1606138242.868,-68.359,-36.133,-37.109,-121.582,0.000
1606138242.872,-38.086,-46.387,-40.527,-27.832,0.000
1606138242.876,-20.996,-36.621,-42.969,43.945,0.000
1606138242.879,-27.344,-27.832,-34.668,7.812,0.000
1606138242.883,-57.129,-27.344,-33.691,-96.680,0.000
1606138242.887,-54.199,-26.855,-35.645,-124.023,0.000
1606138242.891,-21.484,-25.391,-29.785,-31.250,0.000
1606138242.895,-3.906,-30.762,-28.320,50.781,0.000
1606138242.899,-20.508,-39.062,-30.273,31.738,0.000
1606138242.903,-39.551,-31.250,-32.227,-72.754,0.000
1606138242.907,-53.223,-29.297,-28.809,-123.047,0.000
1606138242.911,-53.223,-42.480,-29.297,-55.664,0.000
1606138242.915,-14.160,-35.156,-31.250,43.457,0.000
1606138242.918,-18.555,-27.344,-29.297,45.898,0.000
1606138242.922,-58.594,-35.156,-30.273,-69.336,0.000
1606138242.926,-73.242,-37.109,-29.785,-124.512,0.000
1606138242.930,-51.270,-37.598,-27.832,-62.012,0.000
1606138242.934,-4.395,-33.203,-25.879,43.457,0.000
1606138242.938,-12.695,-27.832,-28.320,53.223,0.000
1606138242.942,-64.941,-31.738,-28.809,-58.105,0.000
1606138242.946,-76.172,-25.391,-28.320,-117.188,0.000
1606138242.950,-53.223,-46.875,-30.273,-67.871,0.000
1606138242.954,-7.324,-61.523,-31.250,22.949,0.000
1606138242.958,-12.695,-38.086,-24.414,44.434,0.000
1606138242.961,-60.059,-35.645,-30.762,-51.270,0.000
1606138242.965,-77.148,-36.133,-41.016,-126.953,0.000
1606138242.969,-56.152,-29.785,-41.992,-89.844,0.000
1606138242.973,-9.277,-25.879,-37.598,22.461,0.000
1606138242.977,-0.977,-29.297,-30.273,62.988,0.000
1606138242.981,-40.039,-34.180,-20.020,-18.066,0.000
1606138242.985,-83.496,-42.969,-14.648,-116.699,0.000
1606138242.989,-86.914,-48.828,-20.020,-113.281,0.000
1606138242.993,-36.621,-39.551,-14.160,7.324,0.000
1606138242.997,0.488,-32.227,-6.836,68.848,0.000
1606138243.001,-49.316,-39.551,-2.930,-6.836,0.000
1606138243.004,-105.469,-47.852,-2.441,-113.770,0.000
1606138243.008,-78.613,-63.965,-3.906,-117.676,0.000
1606138243.012,-33.691,-72.266,-0.977,-3.906,0.000
1606138243.016,-25.391,-51.758,-0.977,58.594,0.000
1606138243.020,-47.363,-40.527,0.000,6.348,0.000
1606138243.024,-60.547,-38.086,-7.324,-95.215,0.000
1606138243.028,-65.918,-33.203,-13.672,-107.422,0.000
1606138243.032,-41.016,-27.832,-11.230,-1.953,0.000
1606138243.036,-2.930,-32.227,-14.160,67.871,0.000
1606138243.040,-11.230,-34.180,-20.508,26.855,0.000
1606138243.043,-45.898,-24.414,-19.043,-68.848,0.000
1606138243.047,-58.594,-24.902,-15.625,-94.238,0.000
1606138243.051,-30.273,-54.199,-18.555,-15.137,0.000
1606138243.055,-4.883,-54.688,-13.184,66.406,0.000
1606138243.059,-12.695,-30.762,-10.742,50.781,0.000
1606138243.063,-45.410,-30.273,-17.090,-62.988,0.000
1606138243.067,-49.805,-37.598,-24.414,-118.652,0.000
1606138243.071,-40.039,-40.527,-23.438,-47.363,0.000
1606138243.075,-23.438,-33.203,-20.508,52.246,0.000
1606138243.079,-12.695,-33.691,-22.461,51.270,0.000
1606138243.083,-46.875,-35.645,-18.555,-55.176,0.000
1606138243.086,-64.453,-31.250,-14.648,-110.352,0.000
1606138243.090,-40.039,-45.410,-23.438,-57.129,0.000
1606138243.094,4.395,-43.457,-26.367,46.875,0.000
1606138243.098,1.953,-32.227,-22.461,57.129,0.000
1606138243.102,-36.133,-40.039,-25.391,-60.547,0.000
1606138243.106,-54.199,-37.109,-29.785,-120.605,0.000
1606138243.110,-42.969,-32.227,-29.785,-67.871,0.000
1606138243.114,12.695,-22.461,-20.508,31.738,0.000
1606138243.118,3.906,-20.020,-17.578,53.711,0.000
1606138243.122,-56.641,-25.879,-25.879,-40.039,0.000
1606138243.126,-64.453,-22.949,-21.973,-114.746,0.000
1606138243.129,-43.945,-28.320,-21.973,-82.520,0.000
1606138243.133,-22.949,-30.273,-25.391,28.320,0.000
1606138243.137,7.812,-21.973,-21.484,68.359,0.000
1606138243.141,-18.066,-22.949,-16.602,-9.277,0.000
1606138243.145,-75.684,-31.738,-20.020,-109.863,0.000
1606138243.149,-70.801,-46.387,-21.484,-108.398,0.000
1606138243.153,-20.020,-60.547,-13.672,32.227,0.000
1606138243.157,19.043,-38.574,-21.484,100.586,0.000
1606138243.161,-24.414,-18.555,-29.297,-8.789,0.000
1606138243.165,-98.633,-19.043,-32.227,-152.344,0.000
1606138243.168,-109.375,-20.020,-35.156,-175.293,0.000
1606138243.172,-87.402,-20.020,-33.691,-87.891,0.000
1606138243.176,-93.750,-16.602,-33.203,-54.688,0.000
1606138243.180,-113.770,-15.137,-36.133,-121.094,0.000
1606138243.184,-173.340,-15.137,-34.180,-226.074,0.000
1606138243.188,-201.660,-14.160,-36.621,-272.461,0.000
1606138243.192,-182.617,-16.113,-33.203,-187.012,0.000
1606138243.196,-163.086,-20.508,-27.832,-109.863,0.000
1606138243.200,-164.551,-15.137,-27.832,-135.254,0.000
1606138243.204,-194.824,-15.137,-29.785,-238.281,0.000
1606138243.208,-215.820,-15.137,-32.227,-283.691,0.000
1606138243.211,-162.598,-11.230,-33.691,-195.312,0.000
1606138243.215,-124.512,-19.043,-40.527,-101.074,0.000
1606138243.219,-146.484,-24.902,-43.457,-102.051,0.000
1606138243.223,-152.344,-28.320,-43.945,-196.777,0.000
1606138243.227,-153.809,-26.855,-47.363,-229.492,0.000
1606138243.231,-121.094,-30.273,-48.828,-130.859,0.000
1606138243.235,-74.219,-32.715,-47.363,-22.949,0.000
1606138243.239,-67.871,-31.250,-48.340,-17.578,0.000
1606138243.243,-91.797,-33.203,-44.922,-112.793,0.000
1606138243.247,-102.539,-33.691,-46.875,-148.926,0.000
1606138243.251,-50.293,-32.715,-42.480,-74.707,0.000
1606138243.254,10.742,-25.879,-28.320,36.621,0.000
1606138243.258,-18.555,-26.367,-37.598,53.223,0.000
1606138243.262,-61.035,-30.273,-49.805,-49.805,0.000
1606138243.266,-71.777,-33.203,-46.387,-111.328,0.000
1606138243.270,-53.711,-28.809,-41.504,-62.988,0.000
1606138243.274,-4.395,-20.020,-34.180,49.316,0.000
1606138243.278,14.160,-24.414,-35.156,77.637,0.000
1606138243.282,-32.715,-33.691,-44.922,-29.785,0.000
1606138243.286,-64.941,-31.738,-47.363,-108.398,0.000
1606138243.290,-27.832,-40.039,-44.434,-83.984,0.000
1606138243.293,4.883,-38.086,-40.527,27.832,0.000
1606138243.297,6.836,-25.879,-41.504,78.613,0.000
1606138243.301,0.000,-26.855,-42.480,-8.789,0.000
1606138243.305,-34.180,-21.484,-31.738,-97.656,0.000
1606138243.309,-28.320,-33.203,-29.785,-75.195,0.000
1606138243.313,18.066,-32.227,-35.645,34.668,0.000
1606138243.317,33.203,-16.113,-38.086,85.938,0.000
1606138243.321,9.766,-20.508,-40.039,12.207,0.000
1606138243.325,-6.836,-19.531,-39.551,-86.914,0.000
1606138243.329,-17.090,-35.156,-41.016,-95.215,0.000
1606138243.333,-2.930,-64.941,-49.316,-10.742,0.000
1606138243.336,15.137,-52.734,-44.434,55.176,0.000
1606138243.340,4.395,-31.738,-37.109,18.555,0.000
1606138243.344,-30.273,-26.855,-35.645,-79.590,0.000
1606138243.348,-35.156,-25.879,-36.133,-98.633,0.000
1606138243.352,-1.953,-29.785,-33.691,4.395,0.000
1606138243.356,28.809,-25.391,-28.320,93.262,0.000
1606138243.360,11.230,-27.832,-26.855,56.641,0.000
1606138243.364,-25.879,-28.809,-29.297,-58.594,0.000
1606138243.368,-31.250,-32.715,-31.250,-86.426,0.000
1606138243.372,-27.832,-46.387,-28.809,1.953,0.000
1606138243.376,10.742,-30.273,-24.414,77.148,0.000
1606138243.379,5.859,-18.066,-26.855,51.758,0.000
1606138243.383,-47.852,-21.973,-31.738,-63.477,0.000
1606138243.387,-60.547,-26.855,-32.227,-104.980,0.000
1606138243.391,-30.762,-32.227,-30.762,-23.438,0.000
1606138243.395,3.906,-31.250,-24.902,72.754,0.000
1606138243.399,-1.465,-28.320,-25.391,62.988,0.000
1606138243.403,-41.992,-28.809,-29.297,-51.270,0.000
1606138243.407,-54.688,-33.691,-25.879,-109.863,0.000
1606138243.411,-13.672,-34.180,-26.855,-50.781,0.000
1606138243.415,19.043,-30.273,-26.855,53.711,0.000
1606138243.418,14.160,-26.367,-28.320,80.078,0.000
1606138243.422,-23.438,-23.926,-33.203,-29.785,0.000
1606138243.426,-62.500,-19.531,-31.738,-124.023,0.000
1606138243.430,-57.617,-43.457,-35.645,-95.215,0.000
1606138243.434,-18.066,-48.828,-36.621,18.555,0.000
1606138243.438,-4.395,-21.973,-31.738,57.129,0.000
1606138243.442,-28.320,-18.066,-29.297,-33.203,0.000
1606138243.446,-53.711,-18.066,-30.762,-108.887,0.000
1606138243.450,-33.691,-25.391,-35.156,-82.031,0.000
1606138243.454,9.766,-25.391,-30.762,24.414,0.000
1606138243.458,1.953,-19.531,-26.367,72.266,0.000
1606138243.461,-29.297,-22.461,-28.320,-3.418,0.000
1606138243.465,-46.875,-23.926,-29.297,-87.402,0.000
1606138243.469,-35.156,-24.902,-26.367,-77.637,0.000
1606138243.473,12.207,-17.578,-23.926,28.809,0.000
1606138243.477,18.555,-17.578,-27.344,74.707,0.000
1606138243.481,-28.809,-29.297,-32.715,2.930,0.000
1606138243.485,-49.316,-29.785,-35.156,-87.891,0.000
1606138243.489,-51.758,-35.645,-38.574,-98.145,0.000
1606138243.493,-9.277,-31.738,-33.203,10.254,0.000
1606138243.497,27.832,-19.531,-26.855,81.055,0.000
1606138243.501,-18.066,-24.902,-31.738,20.508,0.000
1606138243.504,-49.805,-27.344,-39.551,-90.332,0.000
1606138243.508,-44.434,-36.133,-39.062,-107.910,0.000
1606138243.512,-17.578,-34.668,-32.715,-1.465,0.000
1606138243.516,0.977,-20.020,-27.832,67.383,0.000
1606138243.520,-17.578,-23.926,-23.926,20.020,0.000
1606138243.524,-42.969,-25.879,-24.902,-90.820,0.000
1606138243.528,-52.246,-29.785,-22.949,-116.211,0.000
1606138243.532,-37.598,-35.645,-30.273,-24.902,0.000
1606138243.536,-7.324,-29.785,-33.691,56.152,0.000
1606138243.540,-14.160,-30.762,-27.832,35.645,0.000
1606138243.543,-34.180,-25.391,-30.762,-75.684,0.000
1606138243.547,-56.641,-31.738,-28.809,-124.023,0.000
1606138243.551,-44.434,-44.434,-27.832,-49.316,0.000
1606138243.555,1.465,-28.320,-26.855,51.758,0.000
1606138243.559,-1.465,-22.461,-24.902,55.176,0.000
1606138243.563,-37.598,-29.785,-21.973,-62.988,0.000
1606138243.567,-53.223,-27.344,-25.391,-126.465,0.000
1606138243.571,-33.203,-45.410,-31.738,-69.824,0.000
1606138243.575,0.488,-39.062,-24.414,30.273,0.000
1606138243.579,23.438,-12.695,-22.461,57.129,0.000
1606138243.583,-11.719,-16.602,-29.297,-47.852,0.000
1606138243.586,-67.871,-25.391,-31.250,-125.488,0.000
1606138243.590,-47.852,-27.344,-36.133,-73.242,0.000
1606138243.594,-3.418,-22.949,-33.691,44.922,0.000
1606138243.598,3.418,-19.531,-28.809,77.637,0.000
1606138243.602,-28.320,-20.508,-31.250,-26.855,0.000
1606138243.606,-58.105,-20.508,-28.809,-100.098,0.000
1606138243.610,-45.410,-17.090,-35.645,-71.777,0.000
1606138243.614,-13.184,-23.926,-40.527,19.531,0.000
1606138243.618,-24.414,-27.832,-26.367,57.129,0.000
1606138243.622,-46.387,-25.879,-25.391,-19.531,0.000
1606138243.626,-63.477,-28.320,-30.273,-104.492,0.000
1606138243.629,-63.965,-29.297,-25.391,-96.191,0.000
1606138243.633,-32.227,-30.273,-27.832,0.977,0.000
1606138243.637,-17.090,-23.926,-31.738,51.270,0.000
1606138243.641,-22.461,-25.879,-37.598,-8.301,0.000
1606138243.645,-45.898,-34.180,-42.969,-95.703,0.000
1606138243.649,-43.457,-43.945,-31.738,-101.562,0.000
1606138243.653,-21.973,-41.504,-17.090,1.465,0.000
1606138243.657,-9.277,-35.156,-16.602,81.543,0.000
1606138243.661,-4.883,-40.527,-19.043,44.922,0.000
1606138243.665,-31.738,-45.898,-10.742,-50.293,0.000
1606138243.668,-22.461,-45.898,-13.672,-46.875,0.000
1606138243.672,32.227,-36.133,-17.090,71.777,0.000
1606138243.676,62.012,-29.785,-12.695,153.320,0.000
1606138243.680,46.387,-34.180,-7.812,117.188,0.000
1606138243.684,-6.348,-41.992,-5.859,11.719,0.000
1606138243.688,-13.184,-44.434,-9.766,-18.066,0.000
1606138243.692,29.785,-41.992,-7.324,60.059,0.000
1606138243.696,36.621,-40.527,-6.836,144.043,0.000
1606138243.700,33.203,-39.551,-7.812,134.277,0.000
1606138243.704,2.930,-39.551,-4.395,16.602,0.000
1606138243.708,-14.648,-41.016,-8.301,-45.898,0.000
1606138243.711,9.766,-57.129,-17.578,18.555,0.000
1606138243.715,48.340,-48.828,-11.719,113.281,0.000
1606138243.719,62.012,-27.832,-4.883,117.188,0.000
1606138243.723,20.020,-32.227,-8.789,8.301,0.000
1606138243.727,-8.789,-34.180,-10.254,-52.246,0.000
1606138243.731,-0.977,-28.809,-9.766,2.930,0.000
1606138243.735,23.926,-30.273,-8.301,91.797,0.000
1606138243.739,29.785,-37.598,-16.113,92.773,0.000
1606138243.743,-21.973,-35.156,-23.926,-14.160,0.000
1606138243.747,-50.293,-30.762,-21.484,-85.449,0.000
1606138243.751,-28.320,-35.645,-26.367,-52.734,0.000
1606138243.754,5.859,-32.715,-26.367,48.828,0.000
1606138243.758,24.414,-24.902,-20.508,78.613,0.000
1606138243.762,-16.113,-28.320,-25.879,-15.625,0.000
1606138243.766,-69.336,-32.227,-23.438,-98.145,0.000
1606138243.770,-54.688,-33.691,-19.043,-73.242,0.000
1606138243.774,-11.719,-29.297,-17.578,36.133,0.000
1606138243.778,-10.254,-27.832,-16.602,81.543,0.000
1606138243.782,-41.992,-34.668,-20.020,-7.324,0.000
1606138243.786,-64.453,-34.668,-18.066,-98.145,0.000
1606138243.790,-56.152,-30.273,-17.090,-71.777,0.000
1606138243.793,-15.625,-28.809,-27.832,31.250,0.000
1606138243.797,1.465,-31.250,-33.203,74.219,0.000
1606138243.801,-26.855,-37.109,-28.320,-1.465,0.000
1606138243.805,-63.477,-36.621,-27.832,-102.539,0.000
1606138243.809,-57.129,-48.340,-31.250,-104.492,0.000
1606138243.813,2.441,-60.547,-28.320,6.836,0.000
1606138243.817,6.836,-41.504,-20.996,75.684,0.000
1606138243.821,-23.926,-26.367,-12.695,25.879,0.000
1606138243.825,-52.246,-34.668,-14.160,-77.148,0.000
1606138243.829,-67.871,-38.086,-21.973,-99.609,0.000
1606138243.833,-27.832,-26.367,-20.508,-5.371,0.000
1606138243.836,-4.395,-25.391,-19.043,65.918,0.000
1606138243.840,-9.766,-31.250,-22.949,26.855,0.000
1606138243.844,-51.758,-28.809,-23.438,-85.449,0.000
1606138243.848,-72.266,-41.504,-23.438,-118.652,0.000
1606138243.852,-30.762,-58.105,-22.949,-33.203,0.000
1606138243.856,1.953,-31.738,-11.230,59.082,0.000
1606138243.860,3.418,-22.461,-20.020,41.016,0.000
1606138243.864,-40.527,-35.645,-32.715,-79.590,0.000
1606138243.868,-74.219,-37.598,-29.297,-133.301,0.000
1606138243.872,-52.734,-37.109,-28.320,-61.035,0.000
1606138243.876,-6.836,-32.715,-26.855,34.180,0.000
1606138243.879,-5.859,-31.738,-22.461,27.344,0.000
1606138243.883,-62.988,-34.668,-27.344,-76.660,0.000
1606138243.887,-64.941,-28.809,-28.320,-115.234,0.000
1606138243.891,-36.621,-70.312,-25.879,-55.176,0.000
1606138243.895,0.000,-69.824,-28.320,35.645,0.000
1606138243.899,18.066,-18.555,-24.414,50.293,0.000
1606138243.903,-28.320,-15.625,-20.508,-44.434,0.000
1606138243.907,-56.641,-19.043,-21.973,-111.328,0.000
1606138243.911,-33.691,-25.391,-27.344,-66.895,0.000
1606138243.915,-8.301,-26.855,-19.531,36.133,0.000
1606138243.918,-21.484,-30.762,-16.113,51.758,0.000
1606138243.922,-57.617,-32.715,-20.020,-39.551,0.000
1606138243.926,-60.059,-37.598,-20.020,-104.980,0.000
1606138243.930,-49.316,-41.992,-19.531,-72.754,0.000
1606138243.934,-29.297,-35.156,-12.695,28.809,0.000
1606138243.938,-19.043,-28.809,-6.348,58.594,0.000
1606138243.942,-48.340,-30.273,-10.742,-26.367,0.000
1606138243.946,-79.590,-32.227,-26.367,-118.164,0.000
1606138243.950,-68.848,-41.016,-25.391,-104.980,0.000
1606138243.954,-29.785,-41.992,-19.531,5.859,0.000
1606138243.958,-11.719,-33.691,-30.273,50.293,0.000
1606138243.961,-34.180,-36.133,-33.203,-24.414,0.000
1606138243.965,-70.312,-34.668,-30.762,-115.723,0.000
1606138243.969,-49.805,-27.344,-25.879,-110.352,0.000
1606138243.973,0.000,-24.414,-17.090,-0.488,0.000
1606138243.977,-4.395,-27.832,-15.137,53.711,0.000
1606138243.981,-14.160,-29.785,-17.090,8.789,0.000
1606138243.985,-41.992,-34.668,-16.602,-83.008,0.000
1606138243.989,-57.129,-50.781,-20.508,-121.582,0.000
1606138243.993,-29.785,-55.176,-31.738,-31.738,0.000
1606138243.997,-2.441,-29.785,-25.879,55.664,0.000
1606138244.001,-12.207,-20.996,-19.043,23.926,0.000
1606138244.004,-39.551,-22.461,-20.508,-82.031,0.000
1606138244.008,-51.758,-23.438,-22.949,-111.816,0.000
1606138244.012,-28.320,-22.949,-23.926,-27.832,0.000
1606138244.016,3.418,-20.020,-16.602,61.523,0.000
1606138244.020,-9.766,-24.902,-20.996,40.527,0.000
1606138244.024,-30.273,-28.809,-30.762,-73.730,0.000
1606138244.028,-42.480,-33.691,-31.250,-107.910,0.000
1606138244.032,-39.551,-43.457,-32.715,-34.668,0.000
1606138244.036,-0.977,-31.250,-22.461,50.781,0.000
1606138244.040,3.906,-17.578,-18.555,46.875,0.000
1606138244.043,-44.922,-16.113,-26.367,-62.012,0.000
1606138244.047,-66.406,-25.391,-26.367,-124.512,0.000
1606138244.051,-35.156,-25.879,-22.461,-61.035,0.000
1606138244.055,-6.836,-19.531,-15.625,42.480,0.000
1606138244.059,-17.090,-21.973,-17.090,53.223,0.000
1606138244.063,-45.410,-26.367,-26.367,-45.898,0.000
1606138244.067,-51.270,-28.320,-30.762,-119.141,0.000
1606138244.071,-47.363,-29.785,-31.250,-75.684,0.000
1606138244.075,-16.113,-20.996,-25.391,38.574,0.000
1606138244.079,5.859,-20.996,-21.973,61.523,0.000
1606138244.083,-33.691,-31.250,-21.973,-36.621,0.000
1606138244.086,-56.641,-31.250,-26.855,-123.047,0.000
1606138244.090,-46.387,-51.270,-40.527,-102.539,0.000
1606138244.094,-19.043,-47.852,-35.156,16.113,0.000
1606138244.098,29.297,-20.996,-20.996,69.336,0.000
1606138244.102,1.953,-27.344,-24.902,-12.207,0.000
1606138244.106,-62.500,-33.203,-25.391,-103.027,0.000
1606138244.110,-53.711,-32.227,-24.414,-86.426,0.000
1606138244.114,-6.836,-25.879,-22.949,26.367,0.000
1606138244.118,10.742,-22.461,-26.367,76.660,0.000
1606138244.122,-7.324,-20.508,-30.273,18.066,0.000
1606138244.126,-33.203,-20.996,-26.855,-71.777,0.000
1606138244.129,-46.875,-40.039,-28.320,-86.914,0.000
1606138244.133,-20.020,-42.480,-20.020,13.184,0.000
1606138244.137,-12.695,-33.203,-6.348,71.289,0.000
1606138244.141,-45.898,-38.574,-2.441,9.766,0.000
1606138244.145,-75.684,-38.086,-0.977,-91.797,0.000
1606138244.149,-83.008,-42.480,-4.883,-118.652,0.000
1606138244.153,-61.523,-43.945,-7.812,-28.809,0.000
1606138244.157,-3.418,-37.109,-4.883,46.387,0.000
1606138244.161,-13.184,-33.691,-10.742,13.672,0.000
1606138244.165,-76.660,-30.273,-11.230,-83.496,0.000
1606138244.168,-77.148,-35.156,-5.371,-104.980,0.000
1606138244.172,-47.363,-46.875,-12.695,-25.391,0.000
1606138244.176,-15.625,-41.992,-13.672,50.293,0.000
1606138244.180,-19.043,-31.738,-8.789,33.203,0.000
1606138244.184,-57.129,-32.715,-14.160,-78.125,0.000
1606138244.188,-69.336,-33.691,-17.090,-117.188,0.000
1606138244.192,-31.250,-26.855,-15.137,-38.086,0.000
1606138244.196,24.414,-18.066,-11.719,50.293,0.000
1606138244.200,9.766,-14.160,-9.766,64.453,0.000
1606138244.204,-48.340,-20.508,-14.160,-43.457,0.000
1606138244.208,-65.430,-26.367,-17.578,-119.141,0.000
1606138244.211,-38.086,-27.832,-9.277,-53.223,0.000
1606138244.215,4.395,-20.996,-4.883,49.805,0.000
1606138244.219,-8.789,-25.879,-12.695,52.246,0.000
1606138244.223,-49.316,-31.250,-16.602,-54.199,0.000
1606138244.227,-62.988,-32.227,-21.484,-124.512,0.000
1606138244.231,-53.223,-48.340,-31.250,-79.590,0.000
1606138244.235,-16.602,-35.645,-24.902,28.809,0.000
1606138244.239,-11.719,-22.461,-21.484,58.105,0.000
1606138244.243,-27.832,-33.203,-21.484,-38.086,0.000
1606138244.247,-51.270,-34.668,-17.578,-114.258,0.000
1606138244.251,-56.152,-34.180,-15.137,-83.496,0.000
1606138244.254,-10.254,-31.250,-9.277,25.391,0.000
1606138244.258,-11.230,-28.320,-13.672,66.895,0.000
1606138244.262,-43.945,-29.297,-18.555,-15.137,0.000
1606138244.266,-62.988,-26.367,-20.508,-100.098,0.000
1606138244.270,-56.641,-46.875,-25.879,-93.750,0.000
1606138244.274,-26.855,-52.246,-21.484,8.301,0.000
1606138244.278,-4.883,-31.250,-15.137,69.336,0.000
1606138244.282,-35.645,-35.645,-19.043,-0.977,0.000
1606138244.286,-57.129,-37.109,-23.926,-104.492,0.000
1606138244.290,-52.734,-57.129,-30.273,-111.328,0.000
1606138244.293,-42.480,-58.594,-25.391,-0.977,0.000
1606138244.297,-9.277,-39.062,-18.555,67.383,0.000
1606138244.301,-25.879,-40.039,-23.926,3.418,0.000
1606138244.305,-66.895,-32.715,-28.809,-98.145,0.000
1606138244.309,-67.871,-40.039,-29.785,-111.816,0.000
1606138244.313,-33.691,-45.898,-29.785,-21.484,0.000
1606138244.317,-6.836,-29.297,-21.484,62.012,0.000
1606138244.321,-17.090,-25.391,-19.043,27.832,0.000
1606138244.325,-50.293,-29.785,-20.020,-85.449,0.000
1606138244.329,-50.781,-32.715,-17.578,-122.559,0.000
1606138244.333,-22.461,-36.621,-20.508,-36.621,0.000
1606138244.336,22.949,-27.832,-23.438,50.781,0.000
1606138244.340,14.160,-21.973,-27.832,33.691,0.000
1606138244.344,-62.012,-27.832,-30.762,-75.195,0.000
1606138244.348,-77.637,-32.715,-32.715,-123.535,0.000
1606138244.352,-39.551,-33.691,-30.762,-39.062,0.000
1606138244.356,11.230,-20.508,-29.297,64.453,0.000
1606138244.360,7.812,-19.531,-32.227,58.105,0.000
1606138244.364,-53.223,-31.738,-40.039,-58.594,0.000
1606138244.368,-68.359,-39.551,-36.621,-124.512,0.000
1606138244.372,-42.480,-45.410,-29.785,-64.941,0.000
1606138244.376,-9.277,-30.762,-32.715,46.387,0.000
1606138244.379,-13.672,-25.879,-34.180,57.129,0.000
1606138244.383,-48.340,-30.762,-33.691,-58.594,0.000
1606138244.387,-51.758,-33.691,-31.738,-120.117,0.000
1606138244.391,-53.223,-46.387,-37.598,-73.242,0.000
1606138244.395,-24.902,-34.668,-29.785,28.809,0.000
1606138244.399,0.000,-21.484,-22.949,62.012,0.000
1606138244.403,-27.344,-26.855,-29.785,-21.973,0.000
1606138244.407,-45.410,-34.180,-22.949,-104.980,0.000
1606138244.411,-33.203,-56.641,-21.973,-69.336,0.000
1606138244.415,10.742,-39.551,-23.926,55.176,0.000
1606138244.418,28.809,-8.301,-30.273,85.449,0.000
1606138244.422,-20.508,-10.742,-43.945,-18.555,0.000
1606138244.426,-40.527,-12.207,-45.898,-118.652,0.000
1606138244.430,-36.621,-20.996,-44.922,-114.746,0.000
1606138244.434,-30.762,-20.020,-41.992,-2.441,0.000
1606138244.438,-3.906,-18.066,-43.945,61.523,0.000
1606138244.442,-27.832,-30.273,-51.270,-8.789,0.000
1606138244.446,-54.199,-24.902,-44.434,-96.191,0.000
1606138244.450,-42.969,-38.086,-45.410,-91.797,0.000
1606138244.454,-11.719,-57.129,-48.828,3.906,0.000
1606138244.458,11.719,-24.414,-37.109,65.430,0.000
1606138244.461,-2.441,-7.812,-30.273,16.602,0.000
1606138244.465,-20.996,-15.137,-37.598,-88.379,0.000
1606138244.469,-36.621,-16.602,-41.504,-113.281,0.000
1606138244.473,-23.438,-11.230,-37.109,-11.719,0.000
1606138244.477,17.578,-8.301,-34.668,70.801,0.000
1606138244.481,17.090,-9.766,-30.762,27.832,0.000
1606138244.485,-20.020,-14.648,-31.738,-81.543,0.000
1606138244.489,-45.898,-24.414,-34.668,-121.582,0.000
1606138244.493,-17.090,-20.996,-35.645,-36.133,0.000
1606138244.497,16.602,-14.160,-33.691,65.918,0.000
1606138244.501,-3.418,-24.902,-37.109,32.715,0.000
1606138244.504,-53.711,-25.391,-33.691,-95.215,0.000
1606138244.508,-74.707,-41.016,-34.668,-137.207,0.000
1606138244.512,-51.270,-60.059,-41.504,-60.547,0.000
1606138244.516,-20.996,-29.785,-37.109,38.574,0.000
1606138244.520,-8.789,-24.414,-33.203,29.297,0.000
1606138244.524,-50.781,-34.180,-36.133,-85.449,0.000
1606138244.528,-94.238,-32.715,-41.504,-134.766,0.000
1606138244.532,-58.105,-36.621,-37.598,-73.242,0.000
1606138244.536,-15.137,-27.832,-25.879,27.344,0.000
1606138244.540,-18.555,-23.926,-29.297,46.875,0.000
1606138244.543,-52.246,-26.367,-41.504,-50.293,0.000
1606138244.547,-78.125,-29.297,-42.480,-125.488,0.000
1606138244.551,-68.359,-63.477,-45.898,-88.379,0.000
1606138244.555,-25.879,-59.082,-35.645,21.484,0.000
1606138244.559,-12.207,-30.273,-31.250,50.293,0.000
1606138244.563,-28.809,-28.809,-39.551,-46.387,0.000
1606138244.567,-53.711,-27.832,-35.156,-127.930,0.000
1606138244.571,-64.453,-32.227,-34.180,-98.145,0.000
1606138244.575,-35.156,-33.203,-36.621,14.648,0.000
1606138244.579,-15.137,-26.367,-30.762,58.594,0.000
1606138244.583,-38.086,-21.973,-34.180,-26.855,0.000
1606138244.586,-62.012,-18.555,-31.738,-107.910,0.000
1606138244.590,-53.711,-28.320,-27.832,-93.750,0.000
1606138244.594,-13.184,-32.715,-38.574,5.859,0.000
1606138244.598,-0.488,-21.973,-33.691,61.523,0.000
1606138244.602,-12.695,-23.926,-35.156,-9.766,0.000
1606138244.606,-41.992,-26.367,-33.691,-102.051,0.000
1606138244.610,-71.289,-24.902,-31.738,-105.469,0.000
1606138244.614,-32.715,-26.367,-39.062,-10.254,0.000
1606138244.618,-11.230,-27.832,-36.621,52.734,0.000
1606138244.622,-19.043,-27.832,-38.574,6.348,0.000
1606138244.626,-59.570,-35.156,-40.527,-96.191,0.000
1606138244.629,-73.730,-41.992,-35.156,-100.586,0.000
1606138244.633,-0.977,-29.785,-37.598,10.254,0.000
1606138244.637,18.066,-16.602,-41.016,60.059,0.000
1606138244.641,-39.551,-18.555,-45.898,-16.113,0.000
1606138244.645,-77.637,-22.461,-53.223,-143.555,0.000
1606138244.649,-106.445,-27.832,-50.781,-183.594,0.000
1606138244.653,-83.496,-32.715,-54.199,-99.609,0.000
1606138244.657,-33.203,-16.113,-59.082,-4.883,0.000
1606138244.661,-29.297,-4.395,-57.617,-12.695,0.000
1606138244.665,-62.012,-6.836,-59.082,-121.094,0.000
1606138244.668,-80.078,-4.395,-56.152,-152.344,0.000
1606138244.672,-48.340,-5.859,-53.711,-62.988,0.000
1606138244.676,-11.719,-13.184,-52.734,26.367,0.000
1606138244.680,1.465,-17.090,-49.805,30.273,0.000
1606138244.684,-41.016,-18.066,-47.852,-69.824,0.000
1606138244.688,-54.199,-19.531,-47.363,-133.301,0.000
1606138244.692,-31.250,-14.160,-50.781,-71.777,0.000
1606138244.696,-6.348,-16.113,-51.758,30.273,0.000
1606138244.700,0.488,-18.066,-46.875,41.016,0.000
1606138244.704,-22.949,-15.137,-42.480,-59.082,0.000
1606138244.708,-37.109,-10.742,-45.898,-127.441,0.000
1606138244.711,-34.668,-10.742,-48.828,-82.031,0.000
1606138244.715,1.953,-6.836,-47.852,26.367,0.000
1606138244.719,17.090,-6.836,-42.969,49.805,0.000
1606138244.723,-21.973,-16.113,-43.457,-46.875,0.000
1606138244.727,-36.133,-14.648,-37.598,-114.746,0.000
1606138244.731,-35.156,-16.602,-41.504,-86.914,0.000
1606138244.735,-21.484,-22.461,-48.340,13.184,0.000
1606138244.739,-3.906,-25.879,-38.574,50.293,0.000
1606138244.743,-31.738,-24.902,-36.133,-34.668,0.000
1606138244.747,-59.082,-22.461,-45.410,-120.117,0.000
1606138244.751,-54.688,-25.879,-49.805,-112.305,0.000
1606138244.754,-14.160,-19.531,-46.875,-0.977,0.000
1606138244.758,1.953,-11.230,-41.016,58.594,0.000
1606138244.762,-25.391,-10.254,-35.645,-9.766,0.000
1606138244.766,-61.035,-13.672,-38.086,-106.445,0.000
1606138244.770,-59.570,-22.949,-41.504,-111.816,0.000
1606138244.774,-21.484,-19.531,-35.156,2.930,0.000
1606138244.778,8.789,-10.742,-28.320,81.543,0.000
1606138244.782,-25.391,-20.996,-33.691,17.578,0.000
1606138244.786,-71.777,-20.996,-37.598,-89.844,0.000
1606138244.790,-58.105,-35.645,-32.227,-103.027,0.000
1606138244.793,-22.461,-45.410,-32.227,-13.184,0.000
1606138244.797,0.977,-23.438,-33.203,60.547,0.000
1606138244.801,-15.625,-20.508,-23.438,29.297,0.000
1606138244.805,-55.664,-24.902,-31.250,-85.449,0.000
1606138244.809,-66.895,-27.344,-38.574,-119.141,0.000
1606138244.813,-31.250,-28.320,-31.738,-30.762,0.000
1606138244.817,12.695,-20.508,-24.414,62.988,0.000
1606138244.821,22.461,-18.066,-23.438,52.246,0.000
1606138244.825,-24.414,-15.625,-27.344,-52.734,0.000
1606138244.829,-62.988,-33.691,-29.785,-102.539,0.000
1606138244.833,-27.832,-59.570,-37.109,-37.109,0.000
1606138244.836,0.000,-34.668,-29.297,56.152,0.000
1606138244.840,-11.719,-18.555,-19.531,51.270,0.000
1606138244.844,-35.156,-21.484,-26.367,-51.758,0.000
1606138244.848,-49.805,-21.484,-32.227,-109.863,0.000
1606138244.852,-30.762,-21.484,-27.344,-59.082,0.000
1606138244.856,1.465,-15.137,-25.391,40.039,0.000
1606138244.860,-5.859,-19.043,-29.785,54.199,0.000
1606138244.864,-44.922,-24.414,-37.598,-49.805,0.000
1606138244.868,-67.383,-29.297,-40.527,-116.211,0.000
1606138244.872,-30.762,-35.156,-40.039,-59.082,0.000
1606138244.876,7.812,-28.320,-36.133,52.734,0.000
1606138244.879,-7.812,-26.855,-28.809,59.570,0.000
1606138244.883,-61.523,-26.367,-31.250,-59.570,0.000
1606138244.887,-96.191,-26.367,-30.762,-137.695,0.000
1606138244.891,-86.426,-28.320,-26.855,-117.676,0.000
1606138244.895,-40.039,-32.227,-22.949,-10.742,0.000
1606138244.899,-21.973,-32.227,-16.113,43.945,0.000
1606138244.903,-58.105,-27.832,-13.184,-19.531,0.000
1606138244.907,-66.406,-20.996,-17.578,-93.262,0.000
1606138244.911,-50.781,-26.367,-21.484,-93.262,0.000
1606138244.915,-38.086,-29.297,-24.414,11.230,0.000
1606138244.918,-16.602,-23.926,-28.809,78.613,0.000
1606138244.922,-27.832,-26.855,-31.738,11.719,0.000
1606138244.926,-61.035,-27.832,-31.738,-99.121,0.000
1606138244.930,-59.570,-41.992,-36.621,-107.910,0.000
1606138244.934,-20.508,-52.246,-41.016,4.883,0.000
1606138244.938,8.301,-31.250,-29.785,81.055,0.000
1606138244.942,-10.254,-25.391,-29.297,27.344,0.000
1606138244.946,-48.340,-29.785,-39.551,-87.891,0.000
1606138244.950,-51.758,-28.320,-36.621,-107.422,0.000
1606138244.954,-24.414,-29.785,-28.320,-6.836,0.000
1606138244.958,20.508,-29.297,-30.273,62.988,0.000
1606138244.961,0.000,-32.227,-28.320,27.832,0.000
1606138244.965,-64.453,-28.809,-23.926,-72.754,0.000
1606138244.969,-69.336,-49.316,-31.738,-118.652,0.000
1606138244.973,-36.133,-57.129,-31.738,-43.457,0.000
1606138244.977,-0.977,-32.227,-20.508,45.410,0.000
1606138244.981,-14.160,-31.250,-18.555,33.203,0.000
1606138244.985,-51.270,-29.297,-22.461,-73.730,0.000
1606138244.989,-60.547,-30.762,-22.461,-120.117,0.000
1606138244.993,-41.504,-30.762,-19.531,-44.922,0.000
1606138244.997,-16.113,-27.832,-17.578,48.340,0.000
1606138245.001,-4.883,-32.227,-22.461,37.598,0.000
1606138245.004,-40.039,-28.320,-20.996,-74.219,0.000
1606138245.008,-82.031,-42.480,-21.973,-129.883,0.000
1606138245.012,-60.059,-54.688,-28.320,-66.895,0.000
1606138245.016,-18.555,-31.250,-21.973,32.715,0.000
1606138245.020,-18.066,-28.809,-24.414,39.551,0.000
1606138245.024,-52.246,-26.367,-26.367,-63.965,0.000
1606138245.028,-69.824,-31.738,-32.227,-126.953,0.000
1606138245.032,-59.082,-44.434,-36.133,-82.520,0.000
1606138245.036,-12.695,-25.391,-25.879,26.367,0.000
1606138245.040,0.977,-18.555,-20.508,58.105,0.000
1606138245.043,-39.551,-26.367,-23.438,-31.250,0.000
1606138245.047,-45.410,-24.414,-26.367,-107.422,0.000
1606138245.051,-41.016,-26.855,-24.414,-85.938,0.000
1606138245.055,-25.879,-25.391,-22.461,17.578,0.000
1606138245.059,4.395,-13.184,-16.113,75.195,0.000
1606138245.063,-23.438,-18.066,-10.254,-5.859,0.000
1606138245.067,-45.898,-23.438,-14.648,-104.492,0.000
1606138245.071,-37.598,-20.996,-25.879,-100.586,0.000
1606138245.075,-16.602,-20.508,-27.344,12.695,0.000
1606138245.079,6.348,-18.555,-20.508,78.613,0.000
1606138245.083,-11.230,-20.508,-20.508,4.883,0.000
1606138245.086,-49.805,-24.902,-28.320,-101.074,0.000
1606138245.090,-43.457,-23.926,-26.367,-101.074,0.000
1606138245.094,-0.488,-24.902,-21.973,8.789,0.000
1606138245.098,-0.488,-29.785,-25.391,72.754,0.000
1606138245.102,-26.367,-28.320,-25.391,21.973,0.000
1606138245.106,-50.293,-16.602,-25.879,-77.637,0.000
1606138245.110,-52.734,-23.926,-29.297,-105.469,0.000
1606138245.114,-25.879,-37.109,-35.156,-21.484,0.000
1606138245.118,0.488,-27.344,-31.738,55.176,0.000
1606138245.122,-14.160,-24.902,-27.832,25.391,0.000
1606138245.126,-53.711,-25.879,-33.691,-86.426,0.000
1606138245.129,-65.918,-29.297,-32.715,-123.535,0.000
1606138245.133,-15.625,-30.273,-29.297,-36.621,0.000
1606138245.137,12.695,-20.996,-26.855,54.688,0.000
1606138245.141,-11.719,-15.137,-25.391,43.945,0.000
1606138245.145,-46.387,-23.438,-33.691,-73.242,0.000
1606138245.149,-62.500,-32.227,-36.133,-121.582,0.000
1606138245.153,-34.180,-29.785,-32.227,-39.062,0.000
1606138245.157,-6.836,-27.832,-29.297,42.480,0.000
1606138245.161,-12.695,-32.227,-29.297,31.738,0.000
1606138245.165,-50.293,-34.180,-28.809,-74.219,0.000
1606138245.168,-77.637,-29.785,-32.227,-132.324,0.000
1606138245.172,-46.387,-31.738,-34.180,-76.172,0.000
1606138245.176,-8.301,-33.691,-32.227,19.043,0.000
1606138245.180,-24.414,-34.180,-34.668,35.156,0.000
1606138245.184,-62.500,-36.133,-31.738,-60.547,0.000
1606138245.188,-85.938,-40.527,-31.250,-126.953,0.000
1606138245.192,-62.988,-41.504,-33.203,-84.961,0.000
1606138245.196,-21.973,-32.715,-32.715,23.926,0.000
1606138245.200,-6.836,-29.297,-32.715,58.594,0.000
1606138245.204,-35.156,-29.297,-27.832,-32.715,0.000
1606138245.208,-65.430,-32.227,-25.391,-115.234,0.000
1606138245.211,-60.059,-50.293,-36.133,-88.867,0.000
1606138245.215,5.859,-39.062,-38.574,41.504,0.000
1606138245.219,0.977,-21.973,-32.227,72.266,0.000
1606138245.223,-42.480,-19.531,-32.227,-19.531,0.000
1606138245.227,-51.758,-15.625,-33.203,-90.332,0.000
1606138245.231,-50.293,-24.902,-35.156,-74.707,0.000
1606138245.235,-3.418,-29.297,-30.762,38.086,0.000
1606138245.239,15.137,-28.320,-21.973,99.121,0.000
1606138245.243,-3.418,-32.227,-22.949,32.715,0.000
1606138245.247,-27.344,-26.855,-30.762,-60.059,0.000
1606138245.251,-36.621,-18.555,-22.461,-77.148,0.000
1606138245.254,15.625,-19.043,-17.090,18.555,0.000
1606138245.258,46.387,-20.508,-27.344,91.797,0.000
1606138245.262,2.441,-18.066,-27.344,40.039,0.000
1606138245.266,-31.738,-21.484,-25.879,-68.848,0.000
1606138245.270,-29.785,-28.809,-25.391,-86.914,0.000
1606138245.274,16.602,-28.809,-22.949,19.043,0.000
1606138245.278,36.621,-22.949,-24.902,94.238,0.000
1606138245.282,10.254,-27.832,-24.902,58.105,0.000
1606138245.286,-21.484,-28.809,-22.949,-49.316,0.000
1606138245.290,-28.320,-25.879,-20.508,-84.961,0.000
1606138245.293,-4.395,-27.344,-25.391,2.441,0.000
1606138245.297,36.621,-23.926,-30.762,85.938,0.000
1606138245.301,30.273,-27.344,-31.250,61.523,0.000
1606138245.305,-44.922,-37.109,-34.668,-61.035,0.000
1606138245.309,-62.500,-34.180,-32.715,-108.887,0.000
1606138245.313,-29.785,-26.367,-30.762,-30.273,0.000
1606138245.317,9.277,-24.902,-22.949,73.242,0.000
1606138245.321,11.719,-23.926,-18.555,73.242,0.000
1606138245.325,-20.508,-29.297,-24.414,-50.781,0.000
1606138245.329,-41.992,-33.691,-24.902,-114.258,0.000
1606138245.333,-31.250,-30.273,-25.391,-46.387,0.000
1606138245.336,8.789,-20.020,-26.855,59.570,0.000
1606138245.340,3.906,-15.625,-24.414,75.684,0.000
1606138245.344,-24.902,-24.902,-23.926,-37.598,0.000
1606138245.348,-49.805,-30.273,-30.762,-118.652,0.000
1606138245.352,-60.059,-27.832,-41.504,-76.660,0.000
1606138245.356,-10.254,-27.344,-36.621,34.180,0.000
1606138245.360,3.906,-26.367,-29.785,66.406,0.000
1606138245.364,-33.203,-30.273,-26.855,-29.297,0.000
1606138245.368,-64.941,-39.062,-30.762,-115.234,0.000
1606138245.372,-55.176,-39.062,-33.691,-92.285,0.000
1606138245.376,-7.812,-33.203,-25.879,26.855,0.000
1606138245.379,5.859,-34.180,-21.973,62.988,0.000
1606138245.383,-31.738,-39.062,-27.344,-21.973,0.000
1606138245.387,-41.016,-32.715,-29.785,-92.773,0.000
1606138245.391,-27.344,-33.691,-37.598,-96.191,0.000
1606138245.395,-28.320,-36.621,-36.133,0.000,0.000
1606138245.399,-15.625,-35.645,-24.414,60.059,0.000
1606138245.403,-23.438,-32.227,-26.367,-2.930,0.000
1606138245.407,-58.105,-29.297,-23.438,-97.656,0.000
1606138245.411,-62.500,-35.156,-22.461,-101.562,0.000
1606138245.415,-29.297,-40.527,-28.320,-2.930,0.000
1606138245.418,-7.324,-35.645,-29.297,67.383,0.000
1606138245.422,-2.930,-33.691,-27.344,22.461,0.000
1606138245.426,-41.016,-34.180,-27.832,-81.055,0.000
1606138245.430,-74.707,-32.227,-32.227,-94.727,0.000
1606138245.434,-37.109,-31.738,-31.250,5.859,0.000
1606138245.438,-5.371,-33.691,-26.855,68.848,0.000
1606138245.442,-32.227,-33.691,-32.227,22.949,0.000
1606138245.446,-71.289,-30.762,-35.645,-84.961,0.000
1606138245.450,-62.500,-36.621,-34.668,-116.211,0.000
1606138245.454,-20.508,-39.062,-33.691,-27.344,0.000
1606138245.458,0.000,-28.809,-25.879,57.617,0.000
1606138245.461,-13.672,-26.855,-27.344,40.527,0.000
1606138245.465,-40.527,-25.391,-29.785,-58.594,0.000
1606138245.469,-44.922,-27.344,-24.902,-103.516,0.000
1606138245.473,-38.574,-33.691,-25.879,-41.992,0.000
1606138245.477,-14.160,-28.809,-25.879,54.199,0.000
1606138245.481,-9.766,-28.809,-22.461,57.129,0.000
1606138245.485,-50.781,-34.668,-26.855,-57.617,0.000
1606138245.489,-72.266,-46.875,-31.738,-131.836,0.000
1606138245.493,-40.039,-59.082,-34.668,-68.848,0.000
1606138245.497,10.254,-37.598,-29.785,53.711,0.000
1606138245.501,5.371,-26.855,-16.113,64.941,0.000
1606138245.504,-44.922,-35.645,-13.672,-52.246,0.000
1606138245.508,-68.359,-41.504,-14.160,-127.441,0.000
1606138245.512,-51.270,-44.922,-15.625,-76.660,0.000
1606138245.516,-9.277,-42.480,-12.207,34.668,0.000
1606138245.520,3.418,-43.945,2.930,63.965,0.000
1606138245.524,-34.180,-45.898,4.883,-24.414,0.000
1606138245.528,-79.102,-57.617,2.930,-98.145,0.000
1606138245.532,-66.406,-68.848,4.883,-69.336,0.000
1606138245.536,-22.461,-44.434,6.836,39.062,0.000
1606138245.540,-23.438,-37.109,5.371,68.359,0.000
1606138245.543,-52.246,-42.480,-3.906,-13.184,0.000
1606138245.547,-79.102,-38.574,-5.371,-101.562,0.000
1606138245.551,-68.359,-38.086,-8.789,-87.891,0.000
1606138245.555,-9.277,-38.086,-6.836,27.344,0.000
1606138245.559,-4.883,-39.551,-4.883,79.102,0.000
1606138245.563,-35.645,-37.598,-9.766,18.066,0.000
1606138245.567,-59.570,-33.203,-10.742,-83.496,0.000
1606138245.571,-56.641,-38.574,-7.812,-88.379,0.000
1606138245.575,-19.531,-41.016,-6.348,29.297,0.000
1606138245.579,8.789,-37.109,-12.207,82.031,0.000
1606138245.583,-11.719,-44.434,-13.184,5.859,0.000
1606138245.586,-62.012,-40.527,-13.184,-104.492,0.000
1606138245.590,-62.012,-51.758,-19.531,-118.652,0.000
1606138245.594,-22.949,-59.082,-20.996,-13.672,0.000
1606138245.598,8.789,-37.109,-18.555,60.547,0.000
1606138245.602,-3.418,-28.809,-15.137,23.926,0.000
1606138245.606,-21.484,-28.320,-14.648,-83.496,0.000
1606138245.610,-35.156,-28.320,-20.508,-120.117,0.000
1606138245.614,-27.832,-29.297,-28.809,-37.109,0.000
1606138245.618,-10.254,-31.738,-26.855,52.246,0.000
1606138245.622,-19.043,-29.297,-27.344,41.016,0.000
1606138245.626,-46.875,-30.273,-29.785,-73.730,0.000
1606138245.629,-64.453,-50.293,-27.832,-120.605,0.000
1606138245.633,-35.645,-52.734,-24.414,-41.016,0.000
1606138245.637,3.906,-29.785,-15.137,62.012,0.000
1606138245.641,3.418,-28.809,-15.137,65.918,0.000
1606138245.645,-32.227,-29.785,-21.484,-46.387,0.000
1606138245.649,-58.105,-33.203,-22.949,-111.816,0.000
1606138245.653,-14.160,-29.785,-19.531,-44.434,0.000
1606138245.657,17.578,-27.832,-18.066,59.082,0.000
1606138245.661,-16.602,-31.738,-20.020,63.965,0.000
1606138245.665,-45.410,-28.320,-21.973,-37.598,0.000
1606138245.668,-62.500,-30.762,-21.973,-95.703,0.000
1606138245.672,-50.293,-50.781,-28.809,-55.664,0.000
1606138245.676,-12.207,-44.922,-24.902,50.293,0.000
1606138245.680,-11.719,-28.809,-17.090,72.754,0.000
1606138245.684,-48.340,-28.809,-25.879,-34.668,0.000
1606138245.688,-71.777,-31.738,-28.809,-116.211,0.000
1606138245.692,-51.758,-33.691,-27.832,-91.797,0.000
1606138245.696,-14.648,-28.809,-30.273,15.625,0.000
1606138245.700,4.395,-23.926,-27.344,57.617,0.000
1606138245.704,-27.832,-27.832,-26.855,-22.461,0.000
1606138245.708,-76.660,-36.133,-28.320,-116.211,0.000
1606138245.711,-59.570,-33.203,-24.414,-98.145,0.000
1606138245.715,-23.926,-23.926,-19.043,19.531,0.000
1606138245.719,-9.277,-22.949,-18.066,64.453,0.000
1606138245.723,-31.250,-28.320,-21.973,-13.672,0.000
1606138245.727,-58.594,-26.855,-24.902,-104.980,0.000
1606138245.731,-53.223,-26.367,-31.738,-102.051,0.000
1606138245.735,-21.973,-27.344,-33.691,-9.277,0.000
1606138245.739,0.000,-25.879,-35.645,47.363,0.000
1606138245.743,-17.578,-21.484,-31.738,-1.953,0.000
1606138245.747,-57.129,-21.973,-25.391,-98.633,0.000
1606138245.751,-59.082,-34.180,-28.320,-117.188,0.000
1606138245.754,-17.578,-32.227,-25.391,-18.066,0.000
1606138245.758,-13.184,-29.785,-24.414,63.965,0.000
1606138245.762,-31.738,-33.691,-24.414,35.156,0.000
1606138245.766,-42.969,-31.738,-20.508,-71.289,0.000
1606138245.770,-69.824,-50.781,-30.762,-118.164,0.000
1606138245.774,-58.105,-56.152,-33.691,-33.691,0.000
1606138245.778,-16.602,-31.738,-28.320,58.594,0.000
1606138245.782,-21.484,-23.438,-28.320,28.809,0.000
1606138245.786,-52.246,-25.879,-27.832,-77.637,0.000
1606138245.790,-68.359,-31.738,-29.785,-122.559,0.000
1606138245.793,-40.039,-34.180,-25.879,-44.434,0.000
1606138245.797,1.465,-31.250,-23.926,65.918,0.000
1606138245.801,13.184,-24.414,-23.438,54.688,0.000
1606138245.805,-31.250,-23.438,-25.391,-66.895,0.000
1606138245.809,-83.496,-36.133,-25.391,-125.000,0.000
1606138245.813,-63.965,-39.062,-24.414,-71.777,0.000
1606138245.817,-30.762,-30.273,-23.438,24.414,0.000
1606138245.821,-27.344,-31.250,-21.484,37.109,0.000
1606138245.825,-54.199,-37.598,-38.086,-70.801,0.000
1606138245.829,-69.336,-36.621,-42.969,-134.277,0.000
1606138245.833,-48.828,-32.227,-38.574,-82.031,0.000
1606138245.836,-25.879,-35.156,-42.969,21.973,0.000
1606138245.840,-19.043,-30.273,-34.668,50.781,0.000
1606138245.844,-40.039,-29.297,-32.227,-40.527,0.000
1606138245.848,-70.801,-36.133,-34.668,-116.699,0.000
1606138245.852,-41.504,-40.039,-33.203,-87.402,0.000
1606138245.856,2.441,-36.133,-30.273,26.855,0.000
1606138245.860,-12.207,-35.645,-28.809,58.105,0.000
1606138245.864,-46.387,-36.133,-33.203,-34.180,0.000
1606138245.868,-77.148,-39.551,-39.062,-119.141,0.000
1606138245.872,-72.266,-48.340,-40.527,-101.074,0.000
1606138245.876,-27.344,-38.086,-33.691,19.043,0.000
1606138245.879,-2.930,-26.855,-27.832,72.754,0.000
1606138245.883,-13.672,-29.297,-30.762,-2.441,0.000
1606138245.887,-41.992,-34.180,-33.203,-93.262,0.000
1606138245.891,-46.387,-34.668,-30.273,-92.773,0.000
1606138245.895,-10.254,-31.738,-25.391,8.301,0.000
1606138245.899,0.977,-31.738,-21.973,70.312,0.000
1606138245.903,-30.273,-36.133,-16.602,12.695,0.000
1606138245.907,-47.363,-35.645,-12.207,-92.285,0.000
1606138245.911,-64.941,-36.621,-13.184,-115.723,0.000
1606138245.915,-46.875,-44.922,-13.184,-22.949,0.000
1606138245.918,-11.230,-41.992,-13.672,58.105,0.000
1606138245.922,-28.809,-32.227,-16.602,23.926,0.000
1606138245.926,-58.594,-29.785,-16.113,-84.473,0.000
1606138245.930,-68.359,-37.109,-20.508,-123.047,0.000
1606138245.934,-42.480,-39.551,-25.391,-39.062,0.000
1606138245.938,-10.254,-36.621,-22.949,53.711,0.000
1606138245.942,-25.879,-38.086,-27.344,23.438,0.000
1606138245.946,-49.316,-35.156,-25.391,-88.379,0.000
1606138245.950,-55.176,-32.227,-19.531,-110.840,0.000
1606138245.954,-27.344,-34.668,-22.949,-35.645,0.000
1606138245.958,-0.488,-30.273,-20.996,51.758,0.000
1606138245.961,-20.020,-30.273,-19.043,45.410,0.000
1606138245.965,-44.922,-31.250,-15.137,-56.152,0.000
1606138245.969,-54.199,-32.227,-15.137,-106.934,0.000
1606138245.973,-33.691,-38.574,-20.508,-44.922,0.000
1606138245.977,-4.883,-31.738,-27.344,52.246,0.000
1606138245.981,3.418,-20.508,-21.973,74.219,0.000
1606138245.985,-33.691,-17.090,-16.113,-17.578,0.000
1606138245.989,-61.035,-22.949,-31.250,-96.191,0.000
1606138245.993,-37.598,-27.344,-28.809,-51.270,0.000
1606138245.997,-3.906,-22.461,-16.113,63.477,0.000
1606138246.001,9.277,-28.809,-17.090,78.613,0.000
1606138246.004,-35.156,-34.668,-24.902,-29.297,0.000
1606138246.008,-77.637,-39.551,-27.344,-108.398,0.000
1606138246.012,-44.922,-45.410,-19.043,-71.289,0.000
1606138246.016,-11.230,-29.785,-26.855,37.598,0.000
1606138246.020,-13.184,-27.344,-39.062,70.312,0.000
1606138246.024,-34.180,-33.203,-35.156,-12.695,0.000
1606138246.028,-58.105,-37.109,-35.645,-104.980,0.000
1606138246.032,-59.570,-33.203,-29.785,-89.844,0.000
1606138246.036,-24.414,-25.879,-20.508,21.484,0.000
1606138246.040,-9.277,-27.344,-15.137,78.125,0.000
1606138246.043,-5.371,-30.762,-20.508,30.273,0.000
1606138246.047,-17.090,-23.926,-31.738,-60.059,0.000
1606138246.051,-62.012,-43.945,-40.039,-106.934,0.000
1606138246.055,-54.199,-43.457,-35.645,-39.551,0.000
1606138246.059,-36.133,-14.648,-35.645,21.973,0.000
1606138246.063,-61.523,-11.719,-48.340,-42.480,0.000
1606138246.067,-102.051,-13.184,-53.711,-156.738,0.000
1606138246.071,-98.633,-14.648,-55.176,-182.617,0.000
1606138246.075,-57.129,-4.883,-54.199,-77.637,0.000
1606138246.079,-25.391,-1.953,-54.688,5.371,0.000
1606138246.083,-45.898,-7.812,-54.688,-34.180,0.000
1606138246.086,-78.613,-4.883,-51.270,-126.953,0.000
1606138246.090,-75.195,-20.020,-59.570,-149.902,0.000
1606138246.094,-43.945,-27.832,-53.223,-59.082,0.000
1606138246.098,12.695,-18.555,-44.922,39.062,0.000
1606138246.102,0.977,-20.020,-52.246,23.438,0.000
1606138246.106,-63.965,-20.508,-53.223,-77.637,0.000
1606138246.110,-57.129,-21.973,-51.758,-111.816,0.000
1606138246.114,-20.508,-25.391,-46.387,-32.227,0.000
1606138246.118,-5.371,-30.762,-45.410,54.688,0.000
1606138246.122,-0.488,-25.879,-46.875,47.363,0.000
1606138246.126,-22.461,-21.973,-43.457,-61.035,0.000
1606138246.129,-49.316,-26.855,-47.363,-122.559,0.000
1606138246.133,-38.574,-25.879,-52.246,-55.176,0.000
1606138246.137,-6.836,-20.996,-48.340,49.316,0.000
1606138246.141,-3.418,-18.555,-37.598,66.406,0.000
1606138246.145,-32.227,-16.113,-38.086,-38.086,0.000
1606138246.149,-48.340,-39.062,-45.898,-117.676,0.000
1606138246.153,-32.715,-61.035,-44.434,-64.941,0.000
1606138246.157,7.812,-30.273,-38.086,47.852,0.000
1606138246.161,14.160,-13.184,-35.645,63.477,0.000
1606138246.165,-40.039,-21.484,-37.109,-38.086,0.000
1606138246.168,-62.012,-20.020,-37.109,-106.934,0.000
1606138246.172,-44.434,-21.484,-39.551,-76.660,0.000
1606138246.176,-2.930,-17.578,-35.156,29.785,0.000
1606138246.180,14.160,-11.230,-26.367,76.660,0.000
1606138246.184,-14.160,-12.207,-34.668,-6.348,0.000
1606138246.188,-54.688,-27.832,-40.527,-108.887,0.000
1606138246.192,-54.688,-39.551,-33.203,-99.121,0.000
1606138246.196,-15.625,-20.508,-33.203,12.207,0.000
1606138246.200,-5.371,-10.254,-30.273,69.336,0.000
1606138246.204,-26.855,-8.301,-25.879,-0.488,0.000
1606138246.208,-45.898,-14.160,-33.691,-106.934,0.000
1606138246.211,-48.340,-26.367,-28.320,-107.910,0.000
1606138246.215,-34.180,-25.391,-20.020,5.371,0.000
1606138246.219,-13.672,-26.855,-25.391,65.918,0.000
1606138246.223,-28.809,-33.691,-38.574,-1.953,0.000
1606138246.227,-60.547,-27.344,-41.016,-104.980,0.000
1606138246.231,-62.012,-45.410,-41.016,-113.281,0.000
1606138246.235,-33.203,-40.527,-36.133,-20.508,0.000
1606138246.239,-9.766,-15.625,-23.438,47.363,0.000
1606138246.243,-28.809,-22.949,-19.043,6.348,0.000
1606138246.247,-67.383,-24.414,-22.949,-100.098,0.000
1606138246.251,-70.312,-29.297,-22.461,-124.023,0.000
1606138246.254,-34.668,-29.785,-23.438,-29.297,0.000
1606138246.258,0.977,-18.066,-24.902,65.430,0.000
1606138246.262,0.488,-13.184,-27.832,42.480,0.000
1606138246.266,-49.316,-12.695,-29.297,-73.242,0.000
1606138246.270,-82.031,-19.531,-31.738,-122.559,0.000
1606138246.274,-45.898,-24.902,-27.832,-39.062,0.000
1606138246.278,7.324,-16.113,-20.508,67.871,0.000
1606138246.282,6.836,-12.695,-28.320,45.898,0.000
1606138246.286,-51.270,-17.578,-37.109,-79.590,0.000
1606138246.290,-93.750,-41.504,-42.969,-136.719,0.000
1606138246.293,-73.730,-48.340,-40.527,-74.707,0.000
1606138246.297,-41.992,-24.414,-21.973,24.414,0.000
1606138246.301,-38.086,-25.391,-18.066,38.574,0.000
1606138246.305,-54.199,-33.691,-28.809,-68.359,0.000
1606138246.309,-68.359,-30.762,-31.738,-135.742,0.000
1606138246.313,-54.688,-28.320,-27.344,-74.707,0.000
1606138246.317,-4.883,-26.855,-22.949,35.156,0.000
1606138246.321,-7.812,-27.832,-27.832,56.152,0.000
1606138246.325,-40.527,-29.297,-31.738,-35.645,0.000
1606138246.329,-53.711,-49.805,-34.668,-116.211,0.000
1606138246.333,-57.617,-77.148,-31.250,-94.727,0.000
1606138246.336,-23.926,-48.340,-29.297,13.672,0.000
1606138246.340,-3.418,-22.949,-26.367,54.199,0.000
1606138246.344,-20.508,-22.949,-20.996,-21.973,0.000
1606138246.348,-59.082,-23.438,-23.438,-108.887,0.000
1606138246.352,-59.570,-23.438,-25.879,-98.633,0.000
1606138246.356,-20.508,-18.066,-27.832,11.719,0.000
1606138246.360,-13.184,-17.090,-26.367,58.105,0.000
1606138246.364,-39.551,-15.137,-22.949,-12.207,0.000
1606138246.368,-70.312,-26.367,-25.879,-101.074,0.000
1606138246.372,-72.266,-50.293,-31.250,-107.422,0.000
1606138246.376,-34.180,-38.574,-29.297,-4.395,0.000
1606138246.379,-9.766,-26.367,-26.855,59.082,0.000
1606138246.383,-26.855,-29.785,-22.949,-3.418,0.000
1606138246.387,-57.129,-30.762,-28.320,-107.422,0.000
1606138246.391,-58.594,-34.668,-35.156,-118.164,0.000
1606138246.395,-5.859,-25.391,-24.902,-16.113,0.000
1606138246.399,13.672,-20.020,-21.973,50.781,0.000
1606138246.403,-17.090,-22.949,-31.738,8.301,0.000
1606138246.407,-51.758,-21.484,-29.297,-93.750,0.000
1606138246.411,-69.824,-21.484,-19.531,-114.258,0.000
1606138246.415,-27.344,-19.531,-20.020,-19.043,0.000
1606138246.418,0.488,-21.973,-19.531,63.965,0.000
1606138246.422,-20.996,-31.250,-25.391,29.297,0.000
1606138246.426,-58.594,-23.926,-26.855,-88.379,0.000
1606138246.430,-70.312,-57.129,-24.414,-134.766,0.000
1606138246.434,-42.969,-79.590,-29.785,-46.875,0.000
1606138246.438,4.395,-34.180,-27.832,55.664,0.000
1606138246.442,-3.418,-20.996,-22.949,37.109,0.000
1606138246.446,-53.711,-23.926,-25.391,-73.730,0.000
1606138246.450,-61.035,-24.414,-26.855,-113.281,0.000
1606138246.454,-40.527,-25.879,-30.762,-45.898,0.000
1606138246.458,18.066,-20.020,-24.414,46.875,0.000
1606138246.461,17.090,-18.066,-26.367,55.664,0.000
1606138246.465,-55.664,-19.043,-36.621,-50.293,0.000
1606138246.469,-71.289,-45.410,-36.621,-124.023,0.000
1606138246.473,-50.781,-57.617,-35.156,-80.566,0.000
1606138246.477,-18.066,-28.320,-28.320,28.320,0.000
1606138246.481,-7.812,-21.973,-26.367,59.082,0.000
1606138246.485,-33.203,-20.508,-26.367,-33.203,0.000
1606138246.489,-55.664,-21.484,-23.438,-109.863,0.000
1606138246.493,-43.457,-25.879,-28.320,-82.520,0.000
1606138246.497,-1.465,-18.555,-24.902,27.344,0.000
1606138246.501,22.949,-16.602,-22.461,64.453,0.000
1606138246.504,-6.348,-19.531,-25.879,-23.926,0.000
1606138246.508,-62.988,-37.598,-21.973,-107.422,0.000
1606138246.512,-69.824,-58.105,-24.902,-85.449,0.000
1606138246.516,-8.301,-36.133,-24.414,26.855,0.000
1606138246.520,7.324,-29.297,-20.020,74.219,0.000
1606138246.524,-39.551,-39.062,-22.461,-8.789,0.000
1606138246.528,-60.059,-38.086,-17.090,-98.633,0.000
1606138246.532,-52.734,-41.992,-12.695,-96.680,0.000
1606138246.536,-22.949,-33.691,-17.090,9.766,0.000
1606138246.540,-13.184,-25.879,-25.879,70.801,0.000
1606138246.543,-29.785,-25.879,-28.809,10.254,0.000
1606138246.547,-60.059,-33.691,-36.133,-97.656,0.000
1606138246.551,-62.012,-34.668,-37.109,-108.398,0.000
1606138246.555,-17.578,-25.879,-21.973,12.695,0.000
1606138246.559,4.395,-27.832,-22.949,78.613,0.000
1606138246.563,-17.578,-26.855,-29.785,17.090,0.000
1606138246.567,-39.062,-24.902,-24.414,-90.332,0.000
1606138246.571,-62.012,-33.203,-23.438,-120.117,0.000
1606138246.575,-33.691,-33.203,-26.367,-30.762,0.000
1606138246.579,8.301,-25.879,-21.973,59.082,0.000
1606138246.583,-14.160,-26.855,-14.160,35.645,0.000
1606138246.586,-56.152,-28.320,-18.066,-83.984,0.000
1606138246.590,-69.336,-31.250,-28.809,-133.789,0.000
1606138246.594,-39.062,-29.785,-22.949,-49.805,0.000
1606138246.598,-8.301,-24.902,-13.672,41.504,0.000
1606138246.602,-14.160,-25.879,-19.531,25.391,0.000
1606138246.606,-47.852,-24.414,-20.020,-76.660,0.000
1606138246.610,-70.312,-38.086,-26.855,-125.488,0.000
1606138246.614,-34.668,-48.828,-32.227,-71.289,0.000
1606138246.618,1.953,-30.762,-23.438,17.578,0.000
1606138246.622,-0.488,-20.020,-24.902,36.133,0.000
1606138246.626,-27.832,-25.879,-26.367,-57.617,0.000
1606138246.629,-78.613,-33.203,-14.648,-130.371,0.000
1606138246.633,-83.984,-37.598,-5.859,-102.539,0.000
1606138246.637,-50.781,-41.992,-0.977,-4.395,0.000
1606138246.641,-39.551,-37.109,12.695,26.855,0.000
1606138246.645,-85.938,-42.969,16.602,-76.660,0.000
1606138246.649,-122.070,-57.129,10.742,-153.320,0.000
1606138246.653,-108.398,-59.570,11.230,-114.746,0.000
1606138246.657,-72.266,-54.688,12.207,-8.301,0.000
1606138246.661,-39.062,-51.270,11.230,29.297,0.000
1606138246.665,-74.707,-53.711,17.090,-50.293,0.000
1606138246.668,-125.000,-62.012,19.531,-121.094,0.000
1606138246.672,-97.168,-64.453,19.043,-89.844,0.000
1606138246.676,-38.086,-55.664,22.461,31.738,0.000
1606138246.680,-8.301,-54.199,20.508,90.332,0.000
1606138246.684,-25.879,-48.340,12.695,18.066,0.000
1606138246.688,-54.199,-46.387,-6.836,-83.008,0.000
1606138246.692,-61.523,-50.781,-8.301,-82.031,0.000
1606138246.696,-21.973,-42.969,-1.465,33.203,0.000
1606138246.700,8.789,-38.086,-2.441,100.098,0.000
1606138246.704,1.465,-30.762,-0.488,43.945,0.000
1606138246.708,-35.645,-37.109,-6.348,-64.453,0.000
1606138246.711,-57.129,-60.547,-18.066,-87.402,0.000
1606138246.715,-26.855,-52.246,-20.020,15.625,0.000
1606138246.719,18.066,-31.738,-18.066,87.891,0.000
1606138246.723,-2.930,-29.297,-18.555,41.504,0.000
1606138246.727,-60.547,-30.762,-21.484,-70.312,0.000
1606138246.731,-57.617,-27.344,-20.508,-88.379,0.000
1606138246.735,-21.484,-23.438,-18.555,4.395,0.000
1606138246.739,-2.441,-27.344,-26.367,71.289,0.000
1606138246.743,-25.391,-28.809,-31.250,42.480,0.000
1606138246.747,-67.871,-30.762,-27.832,-66.406,0.000
1606138246.751,-77.148,-34.180,-26.367,-111.816,0.000
1606138246.754,-44.434,-29.785,-24.902,-25.391,0.000
1606138246.758,-1.953,-23.926,-21.973,67.383,0.000
1606138246.762,-3.906,-20.020,-22.461,48.828,0.000
1606138246.766,-48.828,-21.484,-26.367,-57.129,0.000
1606138246.770,-63.965,-29.785,-32.715,-111.328,0.000
1606138246.774,-40.527,-32.227,-30.273,-46.875,0.000
1606138246.778,-8.301,-30.762,-24.902,56.152,0.000
1606138246.782,-3.418,-29.297,-24.414,64.453,0.000
1606138246.786,-34.668,-30.762,-19.531,-38.086,0.000
1606138246.790,-43.945,-31.250,-20.996,-91.797,0.000
1606138246.793,-11.230,-30.273,-14.648,-27.832,0.000
1606138246.797,-3.418,-27.344,-12.695,70.801,0.000
1606138246.801,-7.324,-29.297,-19.043,79.590,0.000
1606138246.805,-26.855,-28.320,-18.066,-20.508,0.000
1606138246.809,-52.734,-38.086,-23.438,-93.750,0.000
1606138246.813,-33.203,-49.316,-29.297,-60.547,0.000
1606138246.817,11.230,-30.273,-22.949,41.504,0.000
1606138246.821,23.926,-15.625,-20.996,73.730,0.000
1606138246.825,0.000,-17.578,-20.996,-4.883,0.000
1606138246.829,-27.344,-25.391,-22.461,-91.309,0.000
1606138246.833,-22.949,-29.297,-27.832,-81.055,0.000
1606138246.836,23.926,-25.879,-25.879,38.574,0.000
1606138246.840,38.086,-20.020,-20.508,90.332,0.000
1606138246.844,-17.578,-22.461,-20.996,4.395,0.000
1606138246.848,-50.781,-28.809,-24.414,-89.844,0.000
1606138246.852,-41.992,-35.156,-28.320,-89.844,0.000
1606138246.856,-15.625,-29.297,-28.320,15.625,0.000
1606138246.860,11.719,-19.531,-26.855,72.266,0.000
1606138246.864,2.441,-21.484,-23.926,6.348,0.000
1606138246.868,-62.012,-26.855,-26.855,-93.262,0.000
1606138246.872,-68.848,-22.461,-25.391,-100.586,0.000
1606138246.876,-15.625,-21.484,-17.090,9.277,0.000
1606138246.879,5.371,-21.484,-26.367,69.336,0.000
1606138246.883,-12.695,-22.461,-30.762,20.996,0.000
1606138246.887,-42.969,-23.438,-26.367,-65.918,0.000
1606138246.891,-59.570,-46.875,-39.551,-107.422,0.000
1606138246.895,-38.574,-53.711,-44.434,-28.320,0.000
1606138246.899,-12.695,-27.344,-28.809,58.594,0.000
1606138246.903,-28.320,-24.414,-22.949,38.574,0.000
1606138246.907,-41.016,-34.668,-30.762,-48.828,0.000
1606138246.911,-31.738,-23.926,-38.574,-77.637,0.000
1606138246.915,-15.625,-7.812,-35.156,-14.160,0.000
1606138246.918,7.324,-5.371,-34.180,54.199,0.000
1606138246.922,1.953,-12.207,-49.805,38.086,0.000
1606138246.926,-49.805,-21.484,-50.293,-60.547,0.000
1606138246.930,-55.176,-13.672,-48.340,-109.375,0.000
1606138246.934,-6.836,-15.625,-51.270,-38.086,0.000
1606138246.938,-3.418,-30.273,-45.410,62.012,0.000
1606138246.942,-11.719,-28.320,-42.969,60.547,0.000
1606138246.946,-41.016,-30.762,-45.410,-55.664,0.000
1606138246.950,-57.617,-33.203,-44.434,-117.676,0.000
1606138246.954,-26.855,-21.973,-43.945,-58.594,0.000
1606138246.958,14.648,-18.555,-36.621,44.434,0.000
1606138246.961,20.020,-23.438,-33.203,64.453,0.000
1606138246.965,-15.137,-24.414,-46.387,-34.180,0.000
1606138246.969,-28.320,-24.414,-51.758,-119.141,0.000
1606138246.973,-9.766,-18.066,-45.898,-79.590,0.000
1606138246.977,21.973,-8.301,-45.898,43.457,0.000
1606138246.981,36.133,-6.836,-41.504,87.891,0.000
1606138246.985,-2.930,-12.207,-47.363,-10.742,0.000
1606138246.989,-30.273,-17.578,-54.688,-102.539,0.000
1606138246.993,-7.324,-18.066,-48.340,-75.195,0.000
1606138246.997,20.996,-11.719,-45.898,47.852,0.000
1606138247.001,32.715,-10.742,-40.039,102.051,0.000
1606138247.004,1.953,-15.625,-39.551,20.020,0.000
1606138247.008,-22.949,-17.578,-35.156,-72.754,0.000
1606138247.012,-14.160,-17.578,-30.273,-60.547,0.000
1606138247.016,5.371,-16.602,-38.086,43.457,0.000
1606138247.020,26.855,-16.602,-41.016,87.402,0.000
1606138247.024,4.395,-17.578,-39.062,21.484,0.000
1606138247.028,-37.109,-24.902,-34.180,-73.242,0.000
1606138247.032,-41.992,-38.086,-34.180,-94.238,0.000
1606138247.036,3.418,-28.809,-28.809,6.836,0.000
1606138247.040,27.832,-22.949,-26.855,73.242,0.000
1606138247.043,6.348,-24.902,-27.344,19.531,0.000
1606138247.047,-27.344,-30.273,-21.484,-83.008,0.000
1606138247.051,-38.086,-31.250,-19.043,-111.816,0.000
1606138247.055,9.766,-25.391,-21.484,-27.344,0.000
1606138247.059,39.062,-25.391,-23.438,53.223,0.000
1606138247.063,-5.371,-26.855,-22.949,21.484,0.000
1606138247.067,-49.316,-31.738,-22.949,-102.051,0.000
1606138247.071,-54.199,-32.715,-24.414,-142.090,0.000
1606138247.075,-24.414,-24.414,-12.695,-47.363,0.000
1606138247.079,10.742,-22.949,-17.578,33.203,0.000
1606138247.083,-0.488,-33.203,-31.738,-2.930,0.000
1606138247.086,-55.664,-44.922,-26.855,-109.375,0.000
1606138247.090,-52.246,-35.156,-26.367,-130.371,0.000
1606138247.094,-11.230,-19.043,-37.598,-57.129,0.000
1606138247.098,-1.465,-12.695,-44.922,10.254,0.000
1606138247.102,-21.484,-11.719,-53.223,-4.395,0.000
1606138247.106,-64.941,-10.742,-53.711,-103.516,0.000
1606138247.110,-75.195,-15.137,-50.293,-154.785,0.000
1606138247.114,-41.992,-14.160,-54.688,-96.680,0.000
1606138247.118,-35.156,-9.277,-54.688,16.113,0.000
1606138247.122,-38.574,-14.648,-54.199,41.016,0.000
1606138247.126,-65.918,-19.531,-54.688,-63.965,0.000
1606138247.129,-86.914,-22.461,-57.617,-130.371,0.000
1606138247.133,-56.641,-19.531,-57.617,-84.473,0.000
1606138247.137,-14.160,-10.254,-47.363,31.250,0.000
1606138247.141,-13.184,-12.695,-41.504,67.871,0.000
1606138247.145,-41.992,-20.508,-41.504,-26.855,0.000
1606138247.149,-75.195,-27.832,-49.316,-120.117,0.000
1606138247.153,-71.289,-27.832,-49.316,-96.680,0.000
1606138247.157,-29.297,-23.438,-42.969,17.090,0.000
1606138247.161,-12.695,-23.926,-43.457,60.059,0.000
1606138247.165,-42.480,-26.367,-38.086,-18.066,0.000
1606138247.168,-71.289,-25.391,-41.504,-101.074,0.000
1606138247.172,-68.359,-30.273,-53.223,-105.957,0.000
1606138247.176,-39.551,-32.715,-43.457,-12.207,0.000
1606138247.180,-11.230,-28.809,-41.016,47.852,0.000
1606138247.184,-20.996,-27.832,-41.016,-13.184,0.000
1606138247.188,-63.477,-26.367,-36.133,-107.910,0.000
1606138247.192,-52.734,-29.785,-38.574,-118.164,0.000
1606138247.196,-6.836,-31.738,-34.668,-18.555,0.000
1606138247.200,-8.789,-28.809,-34.180,49.316,0.000
1606138247.204,-37.109,-36.621,-38.086,-6.836,0.000
1606138247.208,-73.730,-43.945,-40.039,-120.605,0.000
1606138247.211,-78.613,-40.527,-37.598,-135.742,0.000
1606138247.215,-36.621,-38.086,-31.250,-32.227,0.000
1606138247.219,-1.465,-35.645,-31.250,39.062,0.000
1606138247.223,-25.879,-35.156,-38.086,1.953,0.000
1606138247.227,-71.289,-40.527,-34.668,-98.145,0.000
1606138247.231,-72.754,-36.133,-28.809,-125.000,0.000
1606138247.235,-38.086,-31.738,-30.762,-40.527,0.000
1606138247.239,-4.883,-31.250,-32.715,49.805,0.000
1606138247.243,-7.812,-24.902,-23.926,40.527,0.000
1606138247.247,-34.180,-23.926,-20.996,-63.477,0.000
1606138247.251,-58.594,-31.738,-26.855,-110.840,0.000
1606138247.254,-48.828,-36.621,-21.973,-42.969,0.000
1606138247.258,-14.648,-31.738,-27.832,54.199,0.000
1606138247.262,-5.371,-24.902,-29.785,71.777,0.000
1606138247.266,-27.344,-33.203,-29.297,-32.715,0.000
1606138247.270,-77.637,-31.250,-31.738,-109.863,0.000
1606138247.274,-72.754,-20.996,-29.785,-65.430,0.000
1606138247.278,-14.160,-25.879,-22.949,39.062,0.000
1606138247.282,-10.254,-28.320,-19.531,55.664,0.000
1606138247.286,-47.363,-35.156,-24.902,-50.781,0.000
1606138247.290,-64.941,-41.504,-27.832,-119.629,0.000
1606138247.293,-43.457,-39.551,-24.902,-76.660,0.000
1606138247.297,-12.695,-36.133,-20.996,31.250,0.000
1606138247.301,-11.230,-30.762,-25.391,54.688,0.000
1606138247.305,-37.598,-28.320,-30.273,-30.762,0.000
1606138247.309,-53.223,-24.414,-27.344,-104.980,0.000
1606138247.313,-54.199,-24.902,-27.832,-92.773,0.000
1606138247.317,-24.902,-26.367,-26.367,23.926,0.000
1606138247.321,-2.930,-28.320,-27.344,66.406,0.000
1606138247.325,-31.738,-27.832,-26.855,-17.090,0.000
1606138247.329,-59.082,-24.902,-29.297,-108.398,0.000
1606138247.333,-57.129,-26.855,-34.180,-102.539,0.000
1606138247.336,-7.812,-21.973,-32.715,3.418,0.000
1606138247.340,18.066,-20.020,-31.738,57.617,0.000
1606138247.344,-35.156,-30.762,-26.855,-1.465,0.000
1606138247.348,-58.105,-37.598,-19.531,-93.262,0.000
1606138247.352,-43.457,-39.551,-15.625,-82.031,0.000
1606138247.356,-9.766,-29.785,-25.391,33.203,0.000
1606138247.360,0.000,-24.414,-41.016,65.430,0.000
1606138247.364,-20.020,-26.855,-42.480,1.953,0.000
1606138247.368,-47.852,-30.273,-37.598,-96.680,0.000
1606138247.372,-51.758,-35.156,-38.574,-125.977,0.000
1606138247.376,-6.348,-33.203,-32.227,-16.113,0.000
1606138247.379,8.789,-33.203,-25.391,61.523,0.000
1606138247.383,-18.555,-32.715,-23.926,18.555,0.000
1606138247.387,-52.734,-30.273,-23.438,-82.520,0.000
1606138247.391,-62.500,-34.180,-22.949,-107.422,0.000
1606138247.395,-11.719,-34.180,-21.484,-26.855,0.000
1606138247.399,9.766,-33.203,-20.996,57.617,0.000
1606138247.403,-16.113,-35.156,-21.484,46.875,0.000
1606138247.407,-40.039,-37.109,-29.297,-65.918,0.000
1606138247.411,-58.594,-43.457,-40.527,-117.676,0.000
1606138247.415,-23.926,-41.504,-34.668,-44.922,0.000
1606138247.418,11.230,-25.391,-22.461,61.523,0.000
1606138247.422,0.000,-23.926,-17.578,62.500,0.000
1606138247.426,-32.227,-32.227,-25.391,-54.199,0.000
1606138247.430,-52.734,-33.203,-29.785,-117.188,0.000
1606138247.434,-31.250,-32.227,-20.508,-52.246,0.000
1606138247.438,-5.859,-34.180,-19.043,50.781,0.000
1606138247.442,-13.184,-33.691,-23.926,60.547,0.000
1606138247.446,-26.855,-34.668,-25.391,-41.016,0.000
1606138247.450,-39.062,-26.855,-20.508,-92.285,0.000
1606138247.454,-48.828,-22.949,-21.484,-48.340,0.000
1606138247.458,-16.113,-31.738,-25.391,39.551,0.000
1606138247.461,-6.836,-35.645,-29.785,68.359,0.000
1606138247.465,-36.133,-33.691,-32.715,-23.926,0.000
1606138247.469,-60.547,-32.715,-31.250,-109.375,0.000
1606138247.473,-53.223,-31.250,-34.180,-79.590,0.000
1606138247.477,-8.789,-28.809,-32.227,31.738,0.000
1606138247.481,5.859,-26.367,-21.973,70.801,0.000
1606138247.485,-34.180,-28.809,-17.090,-11.719,0.000
1606138247.489,-61.523,-32.227,-22.461,-104.004,0.000
1606138247.493,-44.434,-30.273,-30.762,-95.215,0.000
1606138247.497,15.625,-21.973,-31.250,14.160,0.000
1606138247.501,10.742,-19.531,-28.320,57.617,0.000
1606138247.504,-48.340,-35.645,-31.250,-23.438,0.000
1606138247.508,-70.801,-31.738,-38.086,-119.629,0.000
1606138247.512,-70.312,-22.461,-40.039,-118.164,0.000
1606138247.516,-20.996,-28.320,-32.227,-4.883,0.000
1606138247.520,1.953,-25.879,-30.273,55.176,0.000
1606138247.524,-31.250,-30.273,-28.809,-8.301,0.000
1606138247.528,-66.895,-32.715,-29.297,-109.375,0.000
1606138247.532,-71.289,-31.738,-34.180,-125.488,0.000
1606138247.536,-36.133,-40.039,-31.738,-28.809,0.000
1606138247.540,-15.625,-38.574,-29.297,47.363,0.000
1606138247.543,-24.902,-28.809,-26.855,28.809,0.000
1606138247.547,-58.105,-36.133,-29.297,-77.148,0.000
1606138247.551,-66.406,-20.996,-36.621,-109.375,0.000
1606138247.555,-30.762,-7.812,-35.156,-8.301,0.000
1606138247.559,4.395,-22.461,-36.133,58.105,0.000
1606138247.563,-4.883,-31.738,-45.410,19.043,0.000
1606138247.567,-74.707,-43.457,-41.992,-93.750,0.000
1606138247.571,-96.191,-45.898,-40.527,-144.043,0.000
1606138247.575,-44.922,-33.691,-42.969,-61.523,0.000
1606138247.579,-21.484,-26.855,-30.762,42.480,0.000
1606138247.583,-37.109,-26.855,-22.949,43.945,0.000
1606138247.586,-53.711,-20.508,-24.414,-57.617,0.000
1606138247.590,-70.312,-20.996,-28.809,-110.840,0.000
1606138247.594,-53.223,-28.809,-33.203,-67.383,0.000
1606138247.598,-9.766,-29.785,-36.133,21.973,0.000
1606138247.602,-13.184,-27.832,-31.250,41.016,0.000
1606138247.606,-59.570,-26.367,-27.344,-57.617,0.000
1606138247.610,-70.801,-23.926,-35.156,-118.164,0.000
1606138247.614,-41.016,-30.762,-39.062,-82.031,0.000
1606138247.618,-5.859,-29.785,-36.621,13.672,0.000
1606138247.622,-3.906,-24.902,-37.598,45.410,0.000
1606138247.626,-42.480,-29.297,-37.598,-50.781,0.000
1606138247.629,-65.918,-25.879,-30.762,-123.535,0.000
1606138247.633,-48.828,-23.926,-31.250,-86.426,0.000
1606138247.637,-13.672,-21.973,-32.715,26.855,0.000
1606138247.641,2.930,-21.484,-30.762,61.523,0.000
1606138247.645,-23.438,-28.320,-37.598,-35.156,0.000
1606138247.649,-75.684,-36.621,-34.180,-127.441,0.000
1606138247.653,-69.824,-39.062,-31.738,-105.957,0.000
1606138247.657,-23.926,-32.715,-34.180,6.348,0.000
1606138247.661,-2.930,-24.414,-29.297,60.547,0.000
1606138247.665,-24.414,-28.320,-31.738,-10.254,0.000
1606138247.668,-55.664,-31.250,-38.086,-94.238,0.000
1606138247.672,-41.016,-23.926,-34.668,-95.215,0.000
1606138247.676,-0.977,-27.344,-30.762,-4.395,0.000
1606138247.680,4.395,-28.320,-28.320,58.594,0.000
1606138247.684,-20.020,-21.973,-29.297,8.789,0.000
1606138247.688,-60.059,-31.250,-34.668,-98.633,0.000
1606138247.692,-44.922,-37.109,-34.668,-116.699,0.000
1606138247.696,-19.531,-24.414,-24.902,-11.230,0.000
1606138247.700,-12.207,-22.461,-16.113,64.453,0.000
1606138247.704,-15.137,-25.391,-25.879,17.578,0.000
1606138247.708,-49.316,-29.297,-34.180,-90.820,0.000
1606138247.711,-56.152,-30.273,-28.320,-117.676,0.000
1606138247.715,-28.809,-28.320,-34.180,-31.738,0.000
1606138247.719,1.465,-22.949,-35.645,54.199,0.000
1606138247.723,-11.719,-19.043,-27.344,28.320,0.000
1606138247.727,-35.156,-25.391,-26.855,-84.961,0.000
1606138247.731,-40.527,-31.250,-27.832,-123.535,0.000
1606138247.735,-40.527,-29.297,-25.391,-50.781,0.000
1606138247.739,-16.602,-28.320,-18.555,30.762,0.000
1606138247.743,-12.695,-26.367,-15.137,22.949,0.000
1606138247.747,-49.316,-22.949,-24.902,-75.195,0.000
1606138247.751,-71.289,-26.367,-26.855,-127.930,0.000
1606138247.754,-49.316,-28.809,-29.297,-64.941,0.000
1606138247.758,-13.672,-27.832,-34.668,39.062,0.000
1606138247.762,-8.301,-25.391,-30.762,48.828,0.000
1606138247.766,-37.109,-26.367,-33.691,-50.293,0.000
1606138247.770,-41.992,-29.785,-23.926,-110.840,0.000
1606138247.774,-31.738,-32.227,-12.207,-64.453,0.000
1606138247.778,-41.504,-38.086,-8.789,28.809,0.000
1606138247.782,-35.645,-37.109,-10.254,41.016,0.000
1606138247.786,-61.035,-35.156,-13.184,-47.852,0.000
1606138247.790,-86.426,-50.293,-11.719,-121.094,0.000
1606138247.793,-69.824,-53.711,-14.648,-94.238,0.000
1606138247.797,-41.504,-43.945,-3.906,22.949,0.000
1606138247.801,-29.785,-45.898,-4.395,60.547,0.000
1606138247.805,-59.570,-42.969,-18.555,-25.879,0.000
1606138247.809,-74.219,-40.039,-21.973,-112.793,0.000
1606138247.813,-68.359,-40.527,-27.344,-106.934,0.000
1606138247.817,-56.152,-42.480,-24.414,-3.418,0.000
1606138247.821,-25.879,-41.992,-18.555,49.316,0.000
1606138247.825,-41.504,-38.086,-18.555,-5.859,0.000
1606138247.829,-78.125,-37.598,-21.973,-104.492,0.000
1606138247.833,-79.102,-33.203,-25.879,-125.977,0.000
1606138247.836,-44.922,-33.203,-23.926,-14.648,0.000
1606138247.840,-14.648,-40.527,-23.926,61.035,0.000
1606138247.844,-35.645,-39.551,-19.531,12.207,0.000
1606138247.848,-83.984,-38.086,-22.949,-93.750,0.000
1606138247.852,-62.012,-41.504,-31.738,-115.723,0.000
1606138247.856,-25.391,-43.457,-25.391,-10.742,0.000
1606138247.860,-16.602,-41.016,-24.414,60.059,0.000
1606138247.864,-21.484,-39.062,-30.273,11.719,0.000
1606138247.868,-62.988,-41.992,-30.762,-98.145,0.000
1606138247.872,-60.547,-40.039,-30.273,-114.258,0.000
1606138247.876,-19.531,-37.109,-25.391,-16.602,0.000
1606138247.879,10.742,-31.250,-14.648,65.918,0.000
1606138247.883,6.836,-27.832,-10.254,46.875,0.000
1606138247.887,-31.250,-33.691,-18.066,-63.477,0.000
1606138247.891,-43.457,-38.086,-26.855,-110.352,0.000
1606138247.895,1.953,-34.180,-26.855,-34.180,0.000
1606138247.899,15.137,-31.250,-16.113,60.547,0.000
1606138247.903,-15.625,-28.809,-16.113,59.570,0.000
1606138247.907,-56.641,-36.621,-30.273,-54.199,0.000
1606138247.911,-73.730,-40.527,-33.203,-118.164,0.000
1606138247.915,-50.781,-35.156,-27.832,-52.734,0.000
1606138247.918,-16.113,-30.762,-19.531,56.641,0.000
1606138247.922,-11.230,-32.227,-19.531,62.988,0.000
1606138247.926,-43.457,-33.203,-26.367,-55.176,0.000
1606138247.930,-61.523,-38.086,-24.902,-121.582,0.000
1606138247.934,-51.758,-43.457,-25.879,-71.289,0.000
1606138247.938,-6.836,-32.227,-31.738,33.691,0.000
1606138247.942,7.812,-29.297,-26.855,54.199,0.000
1606138247.946,-48.340,-31.738,-29.297,-42.969,0.000
1606138247.950,-76.660,-34.180,-39.551,-119.629,0.000
1606138247.954,-52.246,-33.691,-32.227,-88.379,0.000
1606138247.958,1.953,-29.785,-20.508,33.691,0.000
1606138247.961,11.230,-31.250,-17.578,81.055,0.000
1606138247.965,-25.879,-34.180,-17.090,0.000,0.000
1606138247.969,-57.129,-34.180,-25.391,-95.703,0.000
1606138247.973,-43.945,-33.203,-28.320,-92.285,0.000
1606138247.977,-8.789,-32.715,-21.973,21.484,0.000
1606138247.981,-9.277,-33.691,-23.926,72.754,0.000
1606138247.985,-37.598,-31.738,-20.020,-3.418,0.000
1606138247.989,-57.617,-34.180,-22.949,-107.422,0.000
1606138247.993,-54.688,-34.668,-22.461,-104.980,0.000
1606138247.997,-20.508,-25.879,-19.043,14.160,0.000
1606138248.001,-1.465,-20.508,-22.949,78.125,0.000
1606138248.004,-25.879,-26.855,-22.949,14.160,0.000
1606138248.008,-54.688,-28.320,-23.926,-86.914,0.000
1606138248.012,-51.758,-19.531,-23.438,-90.332,0.000
1606138248.016,-21.484,-22.461,-20.996,-0.488,0.000
1606138248.020,-4.395,-22.949,-23.926,51.270,0.000
1606138248.024,-22.949,-24.902,-30.273,6.348,0.000
1606138248.028,-31.738,-31.738,-32.227,-104.004,0.000
1606138248.032,-53.711,-34.668,-35.156,-131.836,0.000
1606138248.036,-47.852,-34.668,-35.645,-35.645,0.000
1606138248.040,-9.277,-31.250,-33.691,44.922,0.000
1606138248.043,-5.859,-27.832,-22.461,26.855,0.000
1606138248.047,-33.203,-28.320,-20.508,-78.613,0.000
1606138248.051,-56.152,-35.645,-32.227,-126.953,0.000
1606138248.055,-21.973,-30.762,-29.297,-37.598,0.000
1606138248.059,7.812,-28.809,-23.926,64.453,0.000
1606138248.063,9.277,-32.715,-30.273,45.898,0.000
1606138248.067,-16.602,-33.203,-32.227,-69.336,0.000
1606138248.071,-65.918,-50.293,-25.879,-125.977,0.000
1606138248.075,-44.922,-45.410,-25.391,-59.570,0.000
1606138248.079,-7.324,-28.809,-28.320,39.062,0.000
1606138248.083,-14.160,-32.227,-26.367,46.875,0.000
1606138248.086,-38.086,-31.250,-26.367,-49.805,0.000
1606138248.090,-59.570,-34.668,-32.227,-120.605,0.000
1606138248.094,-49.805,-38.086,-33.691,-73.730,0.000
1606138248.098,-8.789,-33.691,-27.344,38.086,0.000
1606138248.102,-2.930,-34.180,-29.297,55.664,0.000
1606138248.106,-13.672,-33.203,-32.715,-36.621,0.000
1606138248.110,-39.551,-35.645,-30.273,-109.863,0.000
1606138248.114,-52.734,-43.945,-31.738,-83.008,0.000
1606138248.118,-5.859,-43.945,-24.902,26.855,0.000
1606138248.122,18.066,-43.457,-24.902,75.195,0.000
1606138248.126,-5.859,-34.180,-34.180,-10.254,0.000
1606138248.129,-42.480,-25.879,-39.062,-113.281,0.000
1606138248.133,-44.434,-25.879,-42.969,-111.328,0.000
1606138248.137,3.906,-19.531,-40.039,5.371,0.000
1606138248.141,9.766,-20.020,-29.785,60.547,0.000
1606138248.145,-20.020,-30.762,-28.320,-26.367,0.000
1606138248.149,-54.688,-30.762,-37.109,-121.094,0.000
1606138248.153,-70.312,-28.809,-36.133,-104.980,0.000
1606138248.157,-19.043,-36.621,-28.809,5.371,0.000
1606138248.161,13.184,-31.250,-29.785,62.988,0.000
1606138248.165,-15.625,-31.738,-29.785,0.977,0.000
1606138248.168,-63.477,-38.086,-33.203,-107.910,0.000
1606138248.172,-62.012,-37.109,-31.738,-119.141,0.000
1606138248.176,-26.367,-36.133,-26.367,-9.277,0.000
1606138248.180,-3.418,-31.250,-28.320,69.336,0.000
1606138248.184,-21.484,-32.715,-27.344,25.879,0.000
1606138248.188,-59.082,-37.109,-25.391,-88.867,0.000
1606138248.192,-55.176,-33.203,-32.227,-108.887,0.000
1606138248.196,-10.742,-26.855,-27.344,-6.348,0.000
1606138248.200,-1.465,-22.461,-22.461,78.125,0.000
1606138248.204,-17.578,-25.879,-30.762,51.270,0.000
1606138248.208,-54.688,-26.367,-33.203,-68.848,0.000
1606138248.211,-70.801,-23.438,-33.691,-120.117,0.000
1606138248.215,-42.480,-27.344,-35.645,-36.621,0.000
1606138248.219,-10.742,-29.785,-33.203,59.570,0.000
1606138248.223,-10.254,-28.809,-29.785,52.246,0.000
1606138248.227,-50.293,-32.227,-34.180,-64.453,0.000
1606138248.231,-61.035,-32.715,-34.180,-119.629,0.000
1606138248.235,-10.742,-30.762,-30.762,-46.875,0.000
1606138248.239,-2.441,-29.785,-27.344,50.781,0.000
1606138248.243,-20.508,-28.320,-23.438,54.199,0.000
1606138248.247,-49.316,-23.926,-26.855,-49.805,0.000
1606138248.251,-76.660,-34.668,-37.598,-123.047,0.000
1606138248.254,-55.176,-43.945,-41.992,-83.984,0.000
1606138248.258,-11.230,-23.438,-28.809,23.438,0.000
1606138248.262,-7.324,-15.137,-29.297,51.758,0.000
1606138248.266,-30.762,-23.926,-30.273,-49.805,0.000
1606138248.270,-58.594,-35.156,-32.227,-132.812,0.000
1606138248.274,-60.547,-39.551,-38.574,-95.703,0.000
1606138248.278,0.000,-30.273,-27.344,22.949,0.000
1606138248.282,0.000,-24.902,-26.855,63.477,0.000
1606138248.286,-45.898,-26.367,-30.273,-23.438,0.000
1606138248.290,-71.777,-32.715,-36.133,-110.352,0.000
1606138248.293,-51.758,-32.715,-36.133,-75.684,0.000
1606138248.297,0.000,-27.344,-28.809,40.527,0.000
1606138248.301,7.812,-27.832,-29.785,68.848,0.000
1606138248.305,-20.020,-29.297,-33.691,-19.531,0.000
1606138248.309,-47.363,-23.438,-31.250,-107.910,0.000
1606138248.313,-37.598,-18.555,-31.250,-91.797,0.000
