timestamps,TP9,AF7,AF8,TP10,Right AUX
1606140138.189,0.000,0.000,0.000,0.000,0.000
1606140138.193,-0.488,0.000,-0.488,-0.977,0.000
1606140138.196,0.000,-0.977,-0.977,-0.488,0.000
1606140138.200,2.930,1.953,1.465,13.672,0.000
1606140138.204,-11.719,-12.207,-10.254,-54.199,0.000
1606140138.208,29.297,-23.926,-19.043,85.449,0.000
1606140138.212,78.613,-17.090,-13.184,301.758,0.000
1606140138.216,7.324,-25.391,-20.508,81.543,0.000
1606140138.220,-88.867,-28.809,-26.855,-261.230,0.000
1606140138.224,-78.613,-28.320,-26.367,-264.648,0.000
1606140138.228,28.320,-22.461,-19.043,84.473,0.000
1606140138.232,80.566,-15.625,-10.742,299.805,0.000
1606140138.235,15.625,-22.461,-15.137,110.840,0.000
1606140138.239,-86.426,-31.250,-24.902,-244.141,0.000
1606140138.243,-91.797,-30.762,-21.484,-304.688,0.000
1606140138.247,3.906,-28.320,-13.184,17.090,0.000
1606140138.251,62.012,-32.227,-13.184,278.809,0.000
1606140138.255,20.508,-32.227,-15.625,147.461,0.000
1606140138.259,-79.590,-31.738,-25.391,-211.914,0.000
1606140138.263,-107.422,-33.691,-28.320,-322.754,0.000
1606140138.267,-24.414,-30.273,-28.320,-46.387,0.000
1606140138.271,40.039,-31.250,-26.855,231.934,0.000
1606140138.275,5.371,-36.621,-25.879,151.367,0.000
1606140138.278,-93.750,-39.062,-33.691,-202.148,0.000
1606140138.282,-128.418,-36.133,-36.133,-342.285,0.000
1606140138.286,-58.594,-33.203,-35.156,-95.215,0.000
1606140138.290,17.578,-30.273,-37.109,198.242,0.000
1606140138.294,9.277,-31.738,-34.668,179.199,0.000
1606140138.298,-75.684,-31.738,-34.180,-137.695,0.000
1606140138.302,-118.164,-27.344,-30.762,-312.988,0.000
1606140138.306,-55.664,-7.324,-24.902,-97.168,0.000
1606140138.310,20.508,-4.883,-23.438,204.590,0.000
1606140138.314,6.348,-34.180,-21.973,194.824,0.000
1606140138.318,-81.055,-40.527,-22.461,-112.305,0.000
1606140138.321,-123.535,-38.574,-27.344,-310.547,0.000
1606140138.325,-61.523,-38.086,-31.738,-147.949,0.000
1606140138.329,32.227,-27.832,-22.461,186.035,0.000
1606140138.333,50.293,-24.902,-5.371,256.836,0.000
1606140138.337,-24.902,-33.203,-10.742,-32.227,0.000
1606140138.341,-94.727,-35.645,-32.715,-292.480,0.000
1606140138.345,-52.246,-26.855,-34.180,-187.012,0.000
1606140138.349,52.734,-21.484,-22.949,164.062,0.000
1606140138.353,82.031,-12.695,-17.090,274.414,0.000
1606140138.357,-11.230,-14.648,-20.020,-9.766,0.000
1606140138.360,-99.121,-29.297,-25.391,-305.664,0.000
1606140138.364,-65.918,-30.273,-28.320,-238.770,0.000
1606140138.368,19.531,-25.879,-31.250,107.422,0.000
1606140138.372,48.828,-24.902,-30.762,253.418,0.000
1606140138.376,-23.438,-29.785,-28.809,20.996,0.000
1606140138.380,-113.281,-31.738,-31.738,-293.945,0.000
1606140138.384,-92.773,-27.832,-34.668,-285.645,0.000
1606140138.388,7.324,-26.855,-28.320,62.500,0.000
1606140138.392,50.781,-28.809,-18.555,271.484,0.000
1606140138.396,-18.066,-36.621,-29.297,79.102,0.000
1606140138.400,-113.281,-42.480,-39.062,-255.859,0.000
1606140138.403,-110.352,-43.945,-32.715,-287.109,0.000
1606140138.407,-9.277,-38.086,-22.949,30.273,0.000
1606140138.411,53.223,-28.809,-19.043,260.254,0.000
1606140138.415,-2.930,-31.738,-20.508,118.652,0.000
1606140138.419,-102.539,-38.574,-21.484,-228.516,0.000
1606140138.423,-111.816,-37.598,-21.973,-310.547,0.000
1606140138.427,-18.555,-30.273,-23.926,-19.043,0.000
1606140138.431,51.270,-19.531,-24.902,254.395,0.000
1606140138.435,15.625,-23.926,-32.227,157.227,0.000
1606140138.439,-86.914,-35.156,-37.109,-205.566,0.000
1606140138.443,-108.398,-34.180,-35.645,-336.426,0.000
1606140138.446,-17.090,-32.227,-32.715,-65.430,0.000
1606140138.450,61.035,-29.297,-32.715,235.840,0.000
1606140138.454,41.016,-23.926,-33.691,190.918,0.000
1606140138.458,-57.129,-26.367,-32.227,-160.156,0.000
1606140138.462,-114.258,-32.227,-35.645,-342.285,0.000
1606140138.466,-46.875,-34.180,-30.762,-117.188,0.000
1606140138.470,51.758,-28.320,-16.113,213.867,0.000
1606140138.474,42.969,-20.020,-14.648,215.332,0.000
1606140138.478,-56.152,-28.320,-18.555,-118.652,0.000
1606140138.482,-111.816,-33.691,-18.066,-328.613,0.000
1606140138.485,-52.246,-30.273,-21.973,-146.484,0.000
1606140138.489,30.762,-26.855,-22.461,168.945,0.000
1606140138.493,25.879,-26.367,-20.508,205.078,0.000
1606140138.497,-62.500,-34.668,-20.996,-77.637,0.000
1606140138.501,-129.883,-38.574,-22.949,-321.777,0.000
1606140138.505,-84.961,-28.320,-11.719,-198.242,0.000
1606140138.509,21.484,-27.344,-1.465,161.621,0.000
1606140138.513,39.551,-35.156,-5.371,261.230,0.000
1606140138.517,-50.781,-40.527,-17.578,-16.113,0.000
1606140138.521,-127.441,-45.410,-18.555,-292.480,0.000
1606140138.525,-99.609,-42.969,-16.113,-219.238,0.000
1606140138.528,5.371,-35.645,-12.695,129.395,0.000
1606140138.532,46.387,-31.738,-6.348,270.020,0.000
1606140138.536,-26.855,-32.227,-8.789,33.203,0.000
1606140138.540,-109.375,-37.598,-13.672,-267.578,0.000
1606140138.544,-97.168,-39.062,-20.020,-258.789,0.000
1606140138.548,2.441,-40.039,-12.695,78.125,0.000
1606140138.552,48.828,-22.461,-6.836,271.484,0.000
1606140138.556,-16.113,1.465,-13.672,74.219,0.000
1606140138.560,-116.211,-27.832,-20.996,-275.391,0.000
1606140138.564,-124.512,-47.852,-28.320,-322.266,0.000
1606140138.568,-24.902,-40.527,-31.250,5.859,0.000
1606140138.571,38.574,-39.062,-27.344,242.676,0.000
1606140138.575,-6.836,-39.062,-29.297,97.168,0.000
1606140138.579,-97.656,-33.691,-31.738,-247.559,0.000
1606140138.583,-104.004,-33.691,-31.250,-325.195,0.000
1606140138.587,0.488,-32.227,-28.809,-10.254,0.000
1606140138.591,76.172,-21.973,-24.414,262.207,0.000
1606140138.595,33.691,-20.020,-24.414,153.320,0.000
1606140138.599,-70.801,-26.855,-30.273,-193.848,0.000
1606140138.603,-94.727,-26.367,-34.180,-300.293,0.000
1606140138.607,-9.766,-23.438,-33.691,-29.785,0.000
1606140138.610,62.988,-17.090,-29.785,240.234,0.000
1606140138.614,31.250,-14.160,-20.020,174.805,0.000
1606140138.618,-72.754,-29.785,-11.719,-156.738,0.000
1606140138.622,-118.164,-41.992,-20.508,-314.453,0.000
1606140138.626,-46.387,-36.621,-22.949,-84.961,0.000
1606140138.630,40.527,-30.762,-13.672,221.680,0.000
1606140138.634,29.785,-32.715,-15.625,210.938,0.000
1606140138.638,-74.707,-45.410,-27.832,-114.258,0.000
1606140138.642,-121.094,-50.781,-22.949,-302.246,0.000
1606140138.646,-49.316,-41.016,-17.090,-116.211,0.000
1606140138.650,34.668,-33.691,-16.113,195.312,0.000
1606140138.653,30.762,-34.668,-9.277,226.074,0.000
1606140138.657,-64.453,-40.527,-13.184,-80.566,0.000
1606140138.661,-130.371,-49.316,-23.438,-311.523,0.000
1606140138.665,-83.008,-50.293,-25.879,-175.781,0.000
1606140138.669,12.695,-45.410,-17.090,160.645,0.000
1606140138.673,24.414,-32.227,-10.254,245.605,0.000
1606140138.677,-56.152,-30.762,-16.602,-35.645,0.000
1606140138.681,-123.535,-40.039,-27.832,-300.781,0.000
1606140138.685,-91.797,-39.062,-27.344,-213.867,0.000
1606140138.689,11.230,-33.691,-16.602,119.141,0.000
1606140138.693,47.852,-22.949,-11.719,251.465,0.000
1606140138.696,-20.996,-15.625,-21.973,4.883,0.000
1606140138.700,-96.191,-26.367,-34.180,-288.086,0.000
1606140138.704,-72.754,-36.133,-26.367,-240.723,0.000
1606140138.708,29.297,-30.762,-18.066,98.145,0.000
1606140138.712,77.148,-18.555,-17.578,267.578,0.000
1606140138.716,9.277,-20.020,-18.555,46.875,0.000
1606140138.720,-90.332,-30.762,-26.367,-281.738,0.000
1606140138.724,-85.449,-32.715,-25.879,-280.273,0.000
1606140138.728,21.484,-29.297,-24.414,62.988,0.000
1606140138.732,79.590,-18.555,-22.949,277.832,0.000
1606140138.735,6.836,-10.254,-17.090,97.656,0.000
1606140138.739,-96.680,-35.645,-26.367,-251.953,0.000
1606140138.743,-99.609,-42.969,-28.809,-292.969,0.000
1606140138.747,-7.324,-27.832,-14.648,26.367,0.000
1606140138.751,55.176,-22.949,-13.672,266.113,0.000
1606140138.755,7.812,-27.344,-20.508,139.160,0.000
1606140138.759,-99.609,-30.762,-25.879,-203.125,0.000
1606140138.763,-125.488,-34.668,-37.598,-314.941,0.000
1606140138.767,-33.691,-38.574,-32.227,-40.527,0.000
1606140138.771,46.387,-33.691,-22.461,241.211,0.000
1606140138.775,22.949,-7.812,-20.508,174.316,0.000
1606140138.778,-85.449,-15.625,-25.879,-167.480,0.000
1606140138.782,-129.395,-37.598,-32.715,-313.965,0.000
1606140138.786,-47.852,-29.785,-27.344,-74.219,0.000
1606140138.790,41.992,-25.879,-20.020,230.469,0.000
1606140138.794,24.902,-22.461,-23.438,197.266,0.000
1606140138.798,-76.660,-26.855,-35.156,-142.578,0.000
1606140138.802,-112.305,-27.832,-38.086,-312.988,0.000
1606140138.806,-46.875,-23.926,-28.320,-117.188,0.000
1606140138.810,34.668,-24.414,-28.320,183.105,0.000
1606140138.814,27.832,-24.902,-37.598,192.871,0.000
1606140138.818,-64.453,-26.367,-42.480,-110.352,0.000
1606140138.821,-110.840,-23.926,-37.109,-308.105,0.000
1606140138.825,-49.316,-21.973,-28.809,-148.438,0.000
1606140138.829,42.480,-22.949,-28.809,169.922,0.000
1606140138.833,52.246,-20.508,-29.785,225.098,0.000
1606140138.837,-32.227,-22.949,-29.785,-47.363,0.000
1606140138.841,-104.004,-34.668,-31.738,-289.551,0.000
1606140138.845,-66.895,-41.016,-24.414,-184.082,0.000
1606140138.849,27.832,-35.156,-17.578,156.738,0.000
1606140138.853,50.781,-30.273,-16.113,268.066,0.000
1606140138.857,-27.344,-35.156,-12.695,4.395,0.000
1606140138.860,-117.188,-41.016,-12.695,-280.273,0.000
1606140138.864,-92.773,-39.551,-14.160,-219.727,0.000
1606140138.868,11.719,-23.926,-9.766,131.348,0.000
1606140138.872,47.363,-21.973,-10.254,284.668,0.000
1606140138.876,-25.879,-44.434,-22.461,45.898,0.000
1606140138.880,-127.441,-51.270,-24.414,-273.926,0.000
1606140138.884,-123.535,-45.410,-21.973,-272.461,0.000
1606140138.888,-17.578,-38.574,-17.090,61.523,0.000
1606140138.892,35.645,-38.086,-14.648,263.184,0.000
1606140138.896,-22.461,-36.621,-17.090,85.938,0.000
1606140138.900,-114.258,-40.527,-20.508,-238.770,0.000
1606140138.903,-117.676,-47.852,-24.414,-285.645,0.000
1606140138.907,-20.996,-41.016,-26.367,17.578,0.000
1606140138.911,54.688,-20.996,-23.438,267.578,0.000
1606140138.915,10.254,-12.207,-20.020,132.324,0.000
1606140138.919,-101.074,-22.949,-25.391,-231.445,0.000
1606140138.923,-116.699,-24.414,-32.227,-322.266,0.000
1606140138.927,-11.230,-24.902,-26.855,-20.508,0.000
1606140138.931,58.105,-22.461,-15.137,250.977,0.000
1606140138.935,-12.695,-21.484,-15.625,135.742,0.000
1606140138.939,-131.348,-29.785,-13.672,-222.168,0.000
1606140138.943,-156.738,-36.621,-11.719,-349.121,0.000
1606140138.946,-91.309,-41.016,-13.184,-109.375,0.000
1606140138.950,-31.250,-36.133,-0.488,158.203,0.000
1606140138.954,-51.758,-41.016,6.348,104.980,0.000
1606140138.958,-159.180,-48.340,2.441,-225.586,0.000
1606140138.962,-211.914,-46.387,9.277,-373.535,0.000
1606140138.966,-149.902,-40.039,18.066,-176.270,0.000
1606140138.970,-72.754,-42.480,19.531,97.656,0.000
1606140138.974,-81.543,-55.176,23.438,92.285,0.000
1606140138.978,-177.734,-56.641,25.879,-218.262,0.000
1606140138.982,-223.633,-57.129,25.391,-407.715,0.000
1606140138.985,-162.598,-54.688,24.414,-238.281,0.000
1606140138.989,-73.730,-52.246,25.879,76.172,0.000
1606140138.993,-54.688,-43.945,25.391,140.625,0.000
1606140138.997,-131.348,-43.457,24.414,-134.766,0.000
1606140139.001,-189.453,-57.617,27.344,-358.398,0.000
1606140139.005,-144.043,-58.594,21.484,-224.609,0.000
1606140139.009,-38.086,-41.016,20.996,117.188,0.000
1606140139.013,-9.277,-33.691,30.273,210.938,0.000
1606140139.017,-90.820,-44.434,22.461,-58.594,0.000
1606140139.021,-153.320,-54.199,10.254,-317.383,0.000
1606140139.025,-110.840,-48.340,4.883,-223.633,0.000
1606140139.028,0.977,-43.945,-6.836,128.418,0.000
1606140139.032,29.297,-42.969,-17.090,259.766,0.000
1606140139.036,-49.805,-36.133,-13.672,18.555,0.000
1606140139.040,-123.047,-37.109,-18.555,-261.230,0.000
1606140139.044,-108.887,-43.457,-23.926,-229.980,0.000
1606140139.048,-4.883,-42.480,-14.648,109.375,0.000
1606140139.052,53.223,-28.320,-6.836,303.711,0.000
1606140139.056,-7.812,-18.555,-8.789,112.793,0.000
1606140139.060,-98.633,-35.156,-17.090,-218.262,0.000
1606140139.064,-90.820,-35.645,-24.414,-256.836,0.000
1606140139.068,18.066,-24.414,-18.066,71.777,0.000
1606140139.071,85.938,-22.949,-16.602,302.734,0.000
1606140139.075,41.016,-22.461,-28.320,141.113,0.000
1606140139.079,-52.734,-27.344,-38.086,-196.777,0.000
1606140139.083,-68.848,-30.762,-42.480,-261.719,0.000
1606140139.087,25.879,-26.855,-41.504,39.062,0.000
1606140139.091,102.051,-26.855,-33.691,287.109,0.000
1606140139.095,56.152,-28.320,-24.414,171.387,0.000
1606140139.099,-51.270,-31.738,-31.738,-166.016,0.000
1606140139.103,-79.102,-35.645,-41.016,-279.297,0.000
1606140139.107,-3.906,-34.180,-37.109,-32.227,0.000
1606140139.110,71.289,-22.461,-27.832,253.418,0.000
1606140139.114,45.898,-9.766,-29.297,199.219,0.000
1606140139.118,-63.477,-11.719,-39.062,-142.578,0.000
1606140139.122,-106.445,-17.090,-41.992,-295.410,0.000
1606140139.126,-28.320,-20.020,-32.227,-65.430,0.000
1606140139.130,60.547,-30.273,-27.344,243.164,0.000
1606140139.134,44.434,-32.227,-35.156,231.934,0.000
1606140139.138,-56.641,-33.203,-35.645,-95.215,0.000
1606140139.142,-99.609,-34.668,-35.156,-285.156,0.000
1606140139.146,-40.039,-30.762,-39.551,-98.633,0.000
1606140139.150,42.969,-35.645,-33.203,221.191,0.000
1606140139.153,43.945,-16.602,-29.297,250.488,0.000
1606140139.157,-45.410,-10.742,-29.785,-62.988,0.000
1606140139.161,-101.074,-34.180,-32.715,-287.109,0.000
1606140139.165,-46.387,-30.762,-31.738,-137.695,0.000
1606140139.169,51.270,-26.855,-21.973,187.988,0.000
1606140139.173,73.730,-33.203,-15.625,261.719,0.000
1606140139.177,-14.160,-41.992,-20.508,-11.230,0.000
1606140139.181,-98.145,-43.945,-34.180,-275.879,0.000
1606140139.185,-59.082,-33.691,-34.668,-185.059,0.000
1606140139.189,46.875,-27.832,-25.879,154.785,0.000
1606140139.193,72.266,-23.926,-27.344,284.180,0.000
1606140139.196,-15.137,-25.879,-28.320,41.016,0.000
1606140139.200,-95.703,-40.039,-31.250,-253.418,0.000
1606140139.204,-78.613,-41.504,-40.039,-220.703,0.000
1606140139.208,15.625,-40.039,-40.527,103.027,0.000
1606140139.212,61.035,-41.504,-41.016,278.809,0.000
1606140139.216,-7.324,-36.133,-39.062,71.777,0.000
1606140139.220,-98.145,-30.762,-33.691,-243.164,0.000
1606140139.224,-89.355,-29.297,-31.738,-247.070,0.000
1606140139.228,3.906,-30.762,-22.461,86.426,0.000
1606140139.232,73.242,-39.062,-13.672,315.918,0.000
1606140139.235,33.203,-33.691,-28.320,144.531,0.000
1606140139.239,-94.238,-21.484,-39.551,-238.770,0.000
1606140139.243,-132.812,-15.137,-41.016,-321.289,0.000
1606140139.247,-51.270,-15.625,-41.992,-28.320,0.000
1606140139.251,7.812,-23.926,-34.668,193.359,0.000
1606140139.255,-49.316,-42.480,-35.156,54.199,0.000
1606140139.259,-167.480,-36.133,-43.457,-298.340,0.000
1606140139.263,-200.684,-15.625,-41.992,-414.062,0.000
1606140139.267,-103.516,-8.301,-38.086,-146.973,0.000
1606140139.271,-21.973,-2.441,-45.898,128.906,0.000
1606140139.275,-57.129,-8.301,-59.082,56.641,0.000
1606140139.278,-148.438,-12.207,-59.082,-274.414,0.000
1606140139.282,-172.852,-14.160,-47.852,-410.156,0.000
1606140139.286,-77.637,-11.719,-45.898,-153.320,0.000
1606140139.290,23.438,-10.742,-48.340,158.691,0.000
1606140139.294,15.625,-8.789,-46.387,136.230,0.000
1606140139.298,-69.824,-18.555,-54.199,-187.500,0.000
1606140139.302,-106.445,-30.273,-58.594,-360.352,0.000
1606140139.306,-34.180,-19.043,-45.898,-145.996,0.000
1606140139.310,57.617,-15.625,-38.574,173.828,0.000
1606140139.314,45.898,-22.949,-44.922,181.641,0.000
1606140139.318,-47.852,-26.367,-45.898,-126.953,0.000
1606140139.321,-93.262,-31.738,-39.551,-325.684,0.000
1606140139.325,-42.480,-34.668,-44.434,-172.363,0.000
1606140139.329,44.922,-34.180,-41.016,153.320,0.000
1606140139.333,53.223,-34.668,-39.551,225.586,0.000
1606140139.337,-44.434,-40.039,-46.875,-57.129,0.000
1606140139.341,-118.164,-44.434,-47.852,-311.035,0.000
1606140139.345,-79.590,-43.945,-47.852,-207.520,0.000
1606140139.349,13.672,-38.086,-45.898,134.766,0.000
1606140139.353,35.645,-41.016,-39.062,250.488,0.000
1606140139.357,-36.621,-47.363,-32.715,-2.930,0.000
1606140139.360,-110.840,-40.527,-29.785,-276.367,0.000
1606140139.364,-84.473,-36.133,-32.227,-211.914,0.000
1606140139.368,19.531,-34.180,-37.598,137.695,0.000
1606140139.372,62.988,-34.180,-29.785,302.734,0.000
1606140139.376,-5.371,-35.645,-25.879,74.707,0.000
1606140139.380,-92.285,-34.668,-36.133,-240.234,0.000
1606140139.384,-81.055,-36.621,-40.039,-237.305,0.000
1606140139.388,17.090,-32.227,-32.715,88.867,0.000
1606140139.392,72.754,-31.738,-33.691,287.598,0.000
1606140139.396,17.578,-37.109,-37.109,104.004,0.000
1606140139.400,-71.777,-35.156,-40.039,-229.004,0.000
1606140139.403,-73.730,-33.203,-38.574,-270.508,0.000
1606140139.407,19.531,-25.879,-31.738,47.363,0.000
1606140139.411,84.961,-17.090,-37.598,289.062,0.000
1606140139.415,36.621,-16.113,-39.551,156.738,0.000
1606140139.419,-66.895,-27.832,-31.738,-195.312,0.000
1606140139.423,-92.285,-29.297,-24.414,-300.293,0.000
1606140139.427,-6.836,-25.879,-18.066,-8.301,0.000
1606140139.431,71.289,-20.020,-15.625,276.855,0.000
1606140139.435,39.062,-14.648,-20.020,187.012,0.000
1606140139.439,-69.336,-27.832,-24.414,-181.152,0.000
1606140139.443,-112.305,-40.527,-29.785,-333.008,0.000
1606140139.446,-33.691,-34.180,-29.785,-66.406,0.000
1606140139.450,52.734,-21.973,-18.555,240.234,0.000
1606140139.454,25.879,-21.973,-17.090,186.035,0.000
1606140139.458,-81.543,-31.250,-25.391,-164.551,0.000
1606140139.462,-119.629,-29.297,-26.367,-326.172,0.000
1606140139.466,-50.293,-22.461,-25.391,-104.980,0.000
1606140139.470,35.645,-20.996,-24.902,203.125,0.000
1606140139.474,26.855,-15.625,-35.156,200.195,0.000
1606140139.478,-59.570,-18.555,-42.969,-109.375,0.000
1606140139.482,-113.281,-38.574,-36.133,-312.988,0.000
1606140139.485,-83.008,-41.504,-24.902,-162.109,0.000
1606140139.489,3.418,-31.738,-11.230,163.086,0.000
1606140139.493,13.672,-28.809,-11.719,220.703,0.000
1606140139.497,-78.613,-38.086,-20.996,-82.520,0.000
1606140139.501,-134.766,-43.945,-26.855,-318.848,0.000
1606140139.505,-87.402,-41.504,-25.879,-186.523,0.000
1606140139.509,15.137,-35.645,-16.602,153.320,0.000
1606140139.513,52.734,-23.438,-8.789,255.371,0.000
1606140139.517,-22.949,-28.320,-16.602,-22.461,0.000
1606140139.521,-101.074,-37.109,-24.902,-302.246,0.000
1606140139.525,-64.941,-27.344,-17.578,-214.844,0.000
1606140139.528,38.086,-24.902,-23.926,128.906,0.000
1606140139.532,71.289,-28.809,-26.855,263.672,0.000
1606140139.536,-0.488,-26.855,-23.926,25.391,0.000
1606140139.540,-87.402,-30.273,-28.809,-283.203,0.000
1606140139.544,-73.730,-27.832,-31.738,-268.555,0.000
1606140139.548,33.691,-21.484,-20.508,79.590,0.000
1606140139.552,87.891,-13.184,-7.812,288.086,0.000
1606140139.556,17.090,-16.113,-16.113,97.168,0.000
1606140139.560,-83.984,-26.855,-24.902,-240.723,0.000
1606140139.564,-89.355,-34.180,-21.973,-274.414,0.000
1606140139.568,4.883,-32.227,-23.438,50.781,0.000
1606140139.571,68.359,-20.508,-21.973,285.645,0.000
1606140139.575,18.555,-14.648,-20.996,128.418,0.000
1606140139.579,-82.031,-30.762,-20.996,-228.027,0.000
1606140139.583,-96.680,-33.691,-21.973,-305.176,0.000
1606140139.587,-6.836,-26.367,-22.461,-3.418,0.000
1606140139.591,66.406,-21.973,-19.043,264.648,0.000
1606140139.595,29.297,-20.020,-17.090,155.273,0.000
1606140139.599,-69.336,-26.367,-21.484,-201.172,0.000
1606140139.603,-101.074,-31.250,-32.227,-324.219,0.000
1606140139.607,-24.414,-29.785,-28.320,-55.664,0.000
1606140139.610,63.477,-26.367,-19.043,238.770,0.000
1606140139.614,43.945,-22.461,-23.438,184.082,0.000
1606140139.618,-52.734,-28.320,-34.668,-157.227,0.000
1606140139.622,-83.008,-35.645,-33.203,-311.035,0.000
1606140139.626,-8.301,-30.762,-22.461,-86.914,0.000
1606140139.630,81.055,-22.461,-23.926,215.820,0.000
1606140139.634,72.266,-9.277,-31.738,209.961,0.000
1606140139.638,-34.668,-15.625,-38.574,-125.488,0.000
1606140139.642,-85.449,-36.621,-38.574,-312.500,0.000
1606140139.646,-25.879,-42.969,-39.062,-124.512,0.000
1606140139.650,58.594,-41.016,-48.340,188.477,0.000
1606140139.653,55.176,-33.203,-36.133,222.168,0.000
1606140139.657,-37.598,-30.273,-23.438,-81.543,0.000
1606140139.661,-101.074,-34.180,-34.180,-302.246,0.000
1606140139.665,-52.246,-26.855,-41.504,-157.227,0.000
1606140139.669,40.527,-18.555,-31.738,168.457,0.000
1606140139.673,41.016,-9.766,-30.762,246.094,0.000
1606140139.677,-48.828,-14.648,-38.574,-40.527,0.000
1606140139.681,-112.305,-28.809,-35.156,-311.523,0.000
1606140139.685,-79.590,-32.227,-34.180,-218.262,0.000
1606140139.689,14.160,-32.227,-37.109,128.418,0.000
1606140139.693,40.527,-26.855,-32.227,259.766,0.000
1606140139.696,-39.551,-31.738,-29.297,5.371,0.000
1606140139.700,-118.164,-35.645,-32.227,-293.945,0.000
1606140139.704,-93.262,-37.109,-33.691,-248.535,0.000
1606140139.708,11.230,-30.273,-35.156,104.980,0.000
1606140139.712,59.082,-18.066,-30.273,284.668,0.000
1606140139.716,-2.930,-13.184,-20.996,59.570,0.000
1606140139.720,-106.934,-30.762,-38.086,-278.809,0.000
1606140139.724,-112.305,-31.250,-55.176,-297.852,0.000
1606140139.728,-4.883,-16.602,-39.551,43.457,0.000
1606140139.732,53.223,-19.531,-33.691,270.020,0.000
1606140139.735,-11.230,-33.691,-42.969,86.914,0.000
1606140139.739,-112.793,-44.922,-43.945,-266.113,0.000
1606140139.743,-119.141,-41.016,-44.434,-321.777,0.000
1606140139.747,-25.879,-33.691,-40.527,-6.836,0.000
1606140139.751,35.156,-27.832,-31.250,251.465,0.000
1606140139.755,-10.742,-30.273,-25.879,135.742,0.000
1606140139.759,-113.281,-44.434,-22.949,-212.402,0.000
1606140139.763,-133.301,-41.504,-21.484,-323.730,0.000
1606140139.767,-39.551,-32.227,-28.320,-41.504,0.000
1606140139.771,42.969,-33.203,-31.250,247.070,0.000
1606140139.775,21.484,-17.090,-20.996,177.246,0.000
1606140139.778,-75.684,-18.066,-20.020,-164.551,0.000
1606140139.782,-115.234,-33.203,-32.227,-317.871,0.000
1606140139.786,-43.945,-31.738,-34.180,-81.055,0.000
1606140139.790,48.340,-28.320,-24.414,237.793,0.000
1606140139.794,35.645,-28.809,-18.066,208.008,0.000
1606140139.798,-74.707,-35.156,-24.414,-157.715,0.000
1606140139.802,-119.141,-29.785,-27.832,-339.844,0.000
1606140139.806,-35.156,-17.090,-22.461,-117.188,0.000
1606140139.810,50.293,-18.066,-20.508,200.195,0.000
1606140139.814,28.320,-6.836,-23.926,207.031,0.000
1606140139.818,-67.871,-3.906,-20.996,-120.117,0.000
1606140139.821,-124.512,-28.320,-22.461,-337.402,0.000
1606140139.825,-83.008,-37.598,-31.250,-188.965,0.000
1606140139.829,1.465,-31.250,-29.785,126.465,0.000
1606140139.833,7.324,-23.926,-15.137,189.941,0.000
1606140139.837,-88.867,-30.762,-13.184,-101.562,0.000
1606140139.841,-159.180,-33.691,-21.484,-357.422,0.000
1606140139.845,-136.719,-27.344,-25.879,-271.973,0.000
1606140139.849,-45.898,-23.926,-21.484,52.734,0.000
1606140139.853,-11.719,-0.488,-15.137,169.922,0.000
1606140139.857,-108.887,8.301,-20.996,-108.887,0.000
1606140139.860,-206.055,-13.184,-31.738,-407.715,0.000
1606140139.864,-179.688,-18.066,-38.086,-352.539,0.000
1606140139.868,-76.172,-7.324,-31.250,-8.301,0.000
1606140139.872,-38.086,4.883,-28.809,151.367,0.000
1606140139.876,-121.582,-0.977,-40.527,-94.727,0.000
1606140139.880,-218.262,-8.789,-43.457,-419.434,0.000
1606140139.884,-198.730,-4.883,-44.922,-402.832,0.000
1606140139.888,-91.797,5.859,-42.480,-58.594,0.000
1606140139.892,-40.039,12.207,-44.922,136.719,0.000
1606140139.896,-105.957,2.441,-58.594,-51.270,0.000
1606140139.900,-201.660,0.000,-64.453,-378.906,0.000
1606140139.903,-208.496,3.418,-64.941,-437.500,0.000
1606140139.907,-105.469,7.324,-62.012,-125.000,0.000
1606140139.911,-33.203,7.324,-62.500,122.559,0.000
1606140139.915,-80.566,17.578,-65.918,-16.602,0.000
1606140139.919,-181.641,9.766,-67.383,-366.699,0.000
1606140139.923,-206.055,-10.742,-64.453,-461.426,0.000
1606140139.927,-114.258,-2.441,-60.547,-154.785,0.000
1606140139.931,-32.227,8.301,-57.617,137.207,0.000
1606140139.935,-64.453,10.254,-56.152,46.387,0.000
1606140139.939,-161.621,3.906,-56.152,-309.082,0.000
1606140139.943,-186.523,-0.488,-65.430,-437.500,0.000
1606140139.946,-99.609,2.441,-70.801,-164.551,0.000
1606140139.950,-8.301,3.418,-64.941,147.949,0.000
1606140139.954,-21.484,13.672,-57.617,117.676,0.000
1606140139.958,-113.770,2.441,-57.617,-215.820,0.000
1606140139.962,-146.973,-10.254,-60.059,-378.906,0.000
1606140139.966,-73.730,-2.441,-56.641,-148.926,0.000
1606140139.970,30.273,-5.371,-62.988,172.363,0.000
1606140139.974,30.273,-1.465,-64.453,181.641,0.000
1606140139.978,-65.918,-0.977,-59.570,-135.254,0.000
1606140139.982,-104.980,-6.836,-62.988,-326.172,0.000
1606140139.985,-44.922,-13.184,-51.758,-148.926,0.000
1606140139.989,52.734,-13.184,-40.527,185.547,0.000
1606140139.993,71.777,-4.395,-37.598,260.254,0.000
1606140139.997,-16.113,-14.160,-35.645,-47.852,0.000
1606140140.001,-73.730,-27.344,-40.039,-289.551,0.000
1606140140.005,-18.066,-29.297,-36.133,-143.555,0.000
1606140140.009,80.566,-36.133,-23.926,204.102,0.000
1606140140.013,114.258,-21.484,-14.160,311.523,0.000
1606140140.017,39.551,-1.953,-17.090,52.246,0.000
1606140140.021,-32.227,-33.203,-16.113,-220.703,0.000
1606140140.025,9.277,-49.316,-9.766,-133.789,0.000
1606140140.028,112.305,-43.457,-13.672,218.750,0.000
1606140140.032,138.184,-42.969,-16.602,345.215,0.000
1606140140.036,67.383,-40.527,-18.555,114.258,0.000
1606140140.040,-7.812,-43.945,-22.949,-170.410,0.000
1606140140.044,10.742,-54.199,-22.461,-146.973,0.000
1606140140.048,109.863,-61.035,-16.113,185.547,0.000
1606140140.052,151.367,-46.387,-14.160,366.699,0.000
1606140140.056,92.773,-33.691,-18.555,175.781,0.000
1606140140.060,1.953,-47.852,-19.531,-147.949,0.000
1606140140.064,-3.418,-55.176,-22.949,-172.852,0.000
1606140140.068,92.773,-51.270,-20.020,154.785,0.000
1606140140.071,146.484,-45.898,-15.625,378.418,0.000
1606140140.075,87.891,-49.805,-20.508,222.168,0.000
1606140140.079,-12.207,-59.082,-19.043,-119.141,0.000
1606140140.083,-23.926,-58.105,-19.531,-193.359,0.000
1606140140.087,67.383,-54.199,-23.438,116.211,0.000
1606140140.091,137.207,-48.340,-18.066,388.184,0.000
1606140140.095,91.309,-26.855,-22.461,259.277,0.000
1606140140.099,-17.578,-31.250,-29.785,-117.188,0.000
1606140140.103,-38.086,-57.617,-27.344,-234.863,0.000
1606140140.107,48.828,-52.246,-22.461,48.340,0.000
1606140140.110,125.488,-42.969,-20.508,342.773,0.000
1606140140.114,90.820,-44.922,-26.855,268.555,0.000
1606140140.118,-18.066,-48.828,-33.691,-95.215,0.000
1606140140.122,-52.734,-46.387,-32.715,-254.395,0.000
1606140140.126,27.832,-42.969,-26.855,-18.555,0.000
1606140140.130,111.328,-42.480,-23.438,293.945,0.000
1606140140.134,89.355,-27.832,-25.391,276.367,0.000
1606140140.138,-22.949,-33.203,-36.133,-81.543,0.000
1606140140.142,-71.289,-47.852,-36.621,-281.250,0.000
1606140140.146,-17.578,-41.992,-26.855,-83.984,0.000
1606140140.150,57.617,-41.992,-26.855,249.023,0.000
1606140140.153,55.664,-44.434,-31.738,279.297,0.000
1606140140.157,-36.621,-47.852,-30.273,-39.551,0.000
1606140140.161,-93.262,-42.480,-33.691,-268.066,0.000
1606140140.165,-40.039,-36.133,-36.133,-121.582,0.000
1606140140.169,65.918,-36.133,-29.297,227.539,0.000
1606140140.173,80.078,-33.691,-27.344,305.664,0.000
1606140140.177,-7.324,-31.250,-25.391,18.555,0.000
1606140140.181,-75.195,-31.738,-24.414,-237.305,0.000
1606140140.185,-42.480,-31.738,-25.879,-145.508,0.000
1606140140.189,64.453,-33.691,-18.555,198.730,0.000
1606140140.193,92.773,-29.297,-8.789,322.266,0.000
1606140140.196,6.348,-28.320,-19.043,58.594,0.000
1606140140.200,-71.777,-43.457,-33.691,-240.234,0.000
1606140140.204,-49.316,-46.875,-37.109,-201.660,0.000
1606140140.208,54.688,-41.504,-29.297,145.020,0.000
1606140140.212,106.445,-17.090,-17.090,325.684,0.000
1606140140.216,40.039,7.812,-20.508,96.191,0.000
1606140140.220,-56.641,-25.391,-31.250,-251.465,0.000
1606140140.224,-46.387,-38.574,-31.250,-257.324,0.000
1606140140.228,53.223,-26.855,-27.344,94.727,0.000
1606140140.232,102.051,-15.137,-21.484,311.523,0.000
1606140140.235,35.156,0.488,-22.949,123.047,0.000
1606140140.239,-76.172,-29.785,-30.273,-243.652,0.000
1606140140.243,-89.355,-41.992,-23.438,-301.758,0.000
1606140140.247,-2.441,-29.785,-21.484,27.832,0.000
1606140140.251,57.617,-32.715,-30.762,290.527,0.000
1606140140.255,4.395,-38.574,-29.785,155.273,0.000
1606140140.259,-106.934,-35.156,-35.156,-215.332,0.000
1606140140.263,-137.695,-29.785,-39.551,-326.660,0.000
1606140140.267,-51.758,-32.227,-34.180,-38.574,0.000
1606140140.271,30.762,-32.715,-34.180,259.277,0.000
1606140140.275,-0.977,-5.859,-35.645,190.430,0.000
1606140140.278,-110.352,-15.137,-37.598,-187.012,0.000
1606140140.282,-145.020,-44.922,-41.992,-356.445,0.000
1606140140.286,-57.129,-38.574,-31.738,-97.168,0.000
1606140140.290,40.039,-32.715,-23.926,231.934,0.000
1606140140.294,23.438,-31.738,-28.809,205.566,0.000
1606140140.298,-87.402,-45.410,-33.691,-149.414,0.000
1606140140.302,-135.254,-55.664,-36.621,-337.402,0.000
1606140140.306,-59.082,-43.945,-30.762,-117.188,0.000
1606140140.310,37.598,-33.691,-26.855,222.656,0.000
1606140140.314,26.367,-26.367,-27.344,234.863,0.000
1606140140.318,-81.543,-33.203,-31.250,-106.445,0.000
1606140140.321,-134.766,-43.945,-33.203,-322.754,0.000
1606140140.325,-71.289,-43.945,-27.832,-157.715,0.000
1606140140.329,28.320,-41.016,-22.461,181.641,0.000
1606140140.333,41.016,-36.133,-18.066,254.395,0.000
1606140140.337,-44.434,-34.668,-18.555,-46.387,0.000
1606140140.341,-106.934,-42.480,-22.461,-305.664,0.000
1606140140.345,-70.312,-43.457,-28.809,-197.266,0.000
1606140140.349,26.855,-40.039,-29.297,157.227,0.000
1606140140.353,54.688,-40.527,-22.949,272.949,0.000
1606140140.357,-27.832,-36.133,-20.020,-7.812,0.000
1606140140.360,-104.492,-29.785,-21.973,-302.246,0.000
1606140140.364,-76.660,-24.902,-31.738,-236.816,0.000
1606140140.368,16.113,-25.391,-27.344,131.348,0.000
1606140140.372,51.758,-28.320,-16.113,290.039,0.000
1606140140.376,-28.320,-35.156,-18.066,40.527,0.000
1606140140.380,-119.629,-40.039,-25.879,-281.738,0.000
1606140140.384,-101.562,-38.574,-26.855,-274.902,0.000
1606140140.388,4.883,-33.203,-28.320,73.730,0.000
1606140140.392,67.871,-28.809,-32.227,281.738,0.000
1606140140.396,7.812,-30.273,-32.227,86.914,0.000
1606140140.400,-91.309,-33.691,-34.180,-254.883,0.000
1606140140.403,-95.215,-37.598,-33.203,-290.527,0.000
1606140140.407,5.859,-33.203,-27.832,42.480,0.000
1606140140.411,77.637,-21.973,-22.461,298.828,0.000
1606140140.415,29.297,-25.879,-25.391,148.926,0.000
1606140140.419,-79.102,-41.016,-33.691,-224.121,0.000
1606140140.423,-87.891,-40.039,-28.809,-310.547,0.000
1606140140.427,6.348,-31.738,-27.832,-3.418,0.000
1606140140.431,73.730,-26.855,-31.738,273.438,0.000
1606140140.435,36.133,-28.809,-28.809,184.570,0.000
1606140140.439,-71.289,-34.180,-34.180,-174.805,0.000
1606140140.443,-98.145,-36.621,-41.504,-323.730,0.000
1606140140.446,-14.648,-31.738,-36.621,-63.965,0.000
1606140140.450,67.871,-22.461,-25.391,245.117,0.000
1606140140.454,43.945,-23.438,-20.020,199.219,0.000
1606140140.458,-63.477,-28.320,-30.273,-157.227,0.000
1606140140.462,-105.469,-26.367,-35.156,-330.566,0.000
1606140140.466,-30.762,-28.320,-26.367,-108.887,0.000
1606140140.470,64.941,-22.461,-24.902,212.402,0.000
1606140140.474,60.059,-23.926,-27.832,211.914,0.000
1606140140.478,-50.293,-29.297,-30.273,-122.559,0.000
1606140140.482,-116.211,-33.203,-32.715,-331.543,0.000
1606140140.485,-54.688,-34.668,-30.273,-150.879,0.000
1606140140.489,45.410,-28.320,-30.762,186.035,0.000
1606140140.493,47.852,-23.438,-32.227,239.258,0.000
1606140140.497,-46.387,-26.855,-29.297,-62.988,0.000
1606140140.501,-113.281,-38.086,-29.785,-315.430,0.000
1606140140.505,-70.312,-34.180,-30.273,-184.570,0.000
1606140140.509,31.738,-26.855,-26.855,162.598,0.000
1606140140.513,49.316,-21.973,-23.926,246.582,0.000
1606140140.517,-35.156,-24.902,-29.785,-39.062,0.000
1606140140.521,-106.445,-37.598,-35.156,-313.965,0.000
1606140140.525,-84.473,-39.551,-32.227,-227.051,0.000
1606140140.528,17.090,-32.715,-33.203,119.141,0.000
1606140140.532,55.664,-32.227,-28.320,257.812,0.000
1606140140.536,-24.414,-38.574,-26.855,9.766,0.000
1606140140.540,-115.234,-40.039,-29.297,-292.969,0.000
1606140140.544,-99.121,-45.898,-26.855,-261.230,0.000
1606140140.548,4.883,-43.457,-25.391,68.848,0.000
1606140140.552,58.594,-29.785,-20.508,253.906,0.000
1606140140.556,-3.418,-31.250,-21.973,62.988,0.000
1606140140.560,-96.191,-40.527,-32.227,-256.348,0.000
1606140140.564,-96.680,-44.922,-31.738,-282.227,0.000
1606140140.568,-6.836,-41.504,-28.809,32.227,0.000
1606140140.571,53.711,-34.180,-23.438,262.207,0.000
1606140140.575,2.930,-38.086,-20.996,106.445,0.000
1606140140.579,-92.773,-37.598,-25.879,-231.445,0.000
1606140140.583,-97.656,-37.598,-34.668,-296.875,0.000
1606140140.587,-0.977,-33.203,-26.367,11.719,0.000
1606140140.591,60.059,-26.367,-16.113,268.066,0.000
1606140140.595,10.254,-27.344,-18.555,145.020,0.000
1606140140.599,-83.496,-31.250,-22.461,-194.824,0.000
1606140140.603,-100.098,-33.203,-29.785,-297.852,0.000
1606140140.607,-20.508,-31.250,-32.715,-43.457,0.000
1606140140.610,56.641,-25.879,-30.762,239.258,0.000
1606140140.614,30.273,-23.926,-29.785,181.641,0.000
1606140140.618,-75.195,-31.250,-33.691,-166.016,0.000
1606140140.622,-117.188,-34.180,-36.621,-317.383,0.000
1606140140.626,-41.504,-32.715,-32.715,-84.473,0.000
1606140140.630,45.410,-25.391,-26.855,222.168,0.000
1606140140.634,29.785,-21.973,-24.414,207.520,0.000
1606140140.638,-66.406,-28.809,-30.762,-127.930,0.000
1606140140.642,-115.723,-33.691,-28.320,-316.406,0.000
1606140140.646,-53.711,-27.344,-22.461,-119.141,0.000
1606140140.650,43.457,-20.996,-27.832,205.078,0.000
1606140140.653,50.781,-17.578,-30.762,234.375,0.000
1606140140.657,-45.898,-21.973,-37.109,-90.820,0.000
1606140140.661,-112.793,-33.691,-35.645,-325.195,0.000
1606140140.665,-59.570,-28.809,-30.762,-170.410,0.000
1606140140.669,42.480,-20.020,-26.367,177.734,0.000
1606140140.673,54.199,-25.391,-28.320,256.836,0.000
1606140140.677,-41.992,-36.621,-39.551,-42.480,0.000
1606140140.681,-109.375,-35.156,-37.598,-301.270,0.000
1606140140.685,-69.824,-24.414,-32.227,-198.242,0.000
1606140140.689,26.855,-21.484,-27.832,134.766,0.000
1606140140.693,54.199,-17.090,-16.602,260.742,0.000
1606140140.696,-32.715,-20.020,-21.484,15.137,0.000
1606140140.700,-120.605,-30.762,-32.715,-284.180,0.000
1606140140.704,-95.215,-35.156,-28.809,-239.746,0.000
1606140140.708,6.348,-33.203,-23.438,97.656,0.000
1606140140.712,47.852,-26.855,-17.578,268.555,0.000
1606140140.716,-19.043,-30.273,-17.578,56.152,0.000
1606140140.720,-104.492,-36.621,-26.855,-256.836,0.000
1606140140.724,-101.562,-38.574,-29.785,-258.301,0.000
1606140140.728,0.488,-32.715,-18.066,67.871,0.000
1606140140.732,65.430,-19.043,-5.371,281.738,0.000
1606140140.735,5.371,-16.113,-17.090,102.539,0.000
1606140140.739,-93.262,-26.367,-30.762,-229.492,0.000
1606140140.743,-88.867,-24.902,-22.461,-258.789,0.000
1606140140.747,4.883,-22.461,-19.531,42.480,0.000
1606140140.751,58.594,-22.949,-21.973,262.695,0.000
1606140140.755,11.230,-15.137,-23.926,132.324,0.000
1606140140.759,-85.938,-15.137,-25.879,-198.242,0.000
1606140140.763,-102.539,-24.902,-25.391,-292.969,0.000
1606140140.767,-24.902,-25.879,-21.973,-19.531,0.000
1606140140.771,34.668,-22.949,-16.602,257.812,0.000
1606140140.775,4.395,-24.902,-25.879,179.688,0.000
1606140140.778,-95.215,-31.738,-35.156,-176.758,0.000
1606140140.782,-126.953,-36.621,-33.691,-304.688,0.000
1606140140.786,-45.410,-31.250,-20.996,-55.176,0.000
1606140140.790,45.898,-16.602,-14.160,243.652,0.000
1606140140.794,33.691,-12.207,-16.113,206.543,0.000
1606140140.798,-69.336,-20.996,-24.902,-158.203,0.000
1606140140.802,-109.863,-29.785,-34.180,-336.426,0.000
1606140140.806,-37.109,-30.273,-29.785,-113.770,0.000
1606140140.810,52.734,-21.484,-24.414,214.844,0.000
1606140140.814,46.875,-13.184,-25.879,225.098,0.000
1606140140.818,-51.270,-21.973,-30.273,-102.539,0.000
1606140140.821,-102.051,-28.809,-32.715,-318.848,0.000
1606140140.825,-45.898,-20.996,-30.273,-153.809,0.000
1606140140.829,51.758,-16.602,-22.949,188.965,0.000
1606140140.833,64.941,-18.555,-19.531,256.348,0.000
1606140140.837,-31.738,-21.973,-26.855,-46.875,0.000
1606140140.841,-103.027,-24.414,-28.809,-298.340,0.000
1606140140.845,-63.477,-27.344,-22.949,-177.734,0.000
1606140140.849,30.762,-31.250,-21.973,167.480,0.000
1606140140.853,51.270,-18.066,-20.996,273.438,0.000
1606140140.857,-29.785,-16.602,-30.273,-4.395,0.000
1606140140.860,-115.234,-34.668,-38.574,-287.598,0.000
1606140140.864,-97.168,-33.691,-34.180,-220.703,0.000
1606140140.868,2.441,-28.809,-26.367,112.793,0.000
1606140140.872,35.645,-24.902,-21.484,261.719,0.000
1606140140.876,-45.898,-29.297,-25.879,25.879,0.000
1606140140.880,-127.441,-37.109,-30.762,-283.203,0.000
1606140140.884,-104.492,-34.668,-26.367,-248.047,0.000
1606140140.888,-14.648,-36.621,-14.160,82.520,0.000
1606140140.892,26.855,-28.809,-13.184,257.324,0.000
1606140140.896,-33.691,-26.367,-20.020,57.129,0.000
1606140140.900,-117.188,-38.086,-21.973,-270.020,0.000
1606140140.903,-114.746,-36.621,-25.879,-290.527,0.000
1606140140.907,-18.555,-29.297,-23.926,33.691,0.000
1606140140.911,50.781,-28.320,-30.762,261.230,0.000
1606140140.915,6.348,-32.227,-38.574,105.957,0.000
1606140140.919,-86.426,-39.062,-37.109,-230.469,0.000
1606140140.923,-91.797,-37.598,-38.574,-296.875,0.000
1606140140.927,-4.883,-32.227,-32.227,0.977,0.000
1606140140.931,59.570,-29.785,-30.762,266.113,0.000
1606140140.935,16.602,-27.344,-35.645,160.645,0.000
1606140140.939,-91.309,-35.156,-38.574,-199.219,0.000
1606140140.943,-122.070,-44.922,-34.668,-327.148,0.000
1606140140.946,-36.621,-44.922,-30.273,-57.129,0.000
1606140140.950,48.828,-38.086,-30.273,236.816,0.000
1606140140.954,19.043,-33.203,-35.156,185.547,0.000
1606140140.958,-85.449,-40.527,-36.133,-160.645,0.000
1606140140.962,-119.141,-41.992,-32.715,-329.102,0.000
1606140140.966,-42.480,-33.203,-36.621,-93.262,0.000
1606140140.970,43.457,-30.273,-38.574,223.633,0.000
1606140140.974,33.203,-25.391,-32.715,217.285,0.000
1606140140.978,-55.176,-23.438,-30.762,-113.770,0.000
1606140140.982,-107.422,-32.227,-31.738,-326.172,0.000
1606140140.985,-55.176,-35.645,-22.949,-147.949,0.000
1606140140.989,37.598,-28.809,-22.949,180.176,0.000
1606140140.993,43.457,-18.555,-28.320,229.980,0.000
1606140140.997,-53.223,-26.855,-33.203,-83.984,0.000
1606140141.001,-120.605,-31.250,-35.156,-326.660,0.000
1606140141.005,-74.219,-26.855,-31.738,-188.477,0.000
1606140141.009,22.461,-21.484,-26.367,159.668,0.000
1606140141.013,43.945,-23.926,-19.531,253.418,0.000
1606140141.017,-50.293,-36.133,-25.879,-32.227,0.000
1606140141.021,-115.723,-36.133,-26.367,-292.969,0.000
1606140141.025,-69.824,-29.297,-17.578,-195.312,0.000
1606140141.028,16.113,-29.297,-25.879,144.043,0.000
1606140141.032,43.457,-26.855,-27.832,265.625,0.000
1606140141.036,-27.832,-27.832,-21.973,19.043,0.000
1606140141.040,-103.516,-35.645,-21.484,-268.555,0.000
1606140141.044,-86.426,-38.086,-26.855,-238.770,0.000
1606140141.048,5.371,-37.598,-27.832,83.984,0.000
1606140141.052,51.270,-30.762,-24.414,257.812,0.000
1606140141.056,-10.742,-28.809,-31.250,57.617,0.000
1606140141.060,-100.098,-35.645,-35.645,-256.348,0.000
1606140141.064,-94.238,-29.297,-31.250,-268.555,0.000
1606140141.068,4.883,-22.949,-33.691,58.594,0.000
1606140141.071,65.430,-20.508,-34.180,282.227,0.000
1606140141.075,10.742,-7.324,-33.691,112.305,0.000
1606140141.079,-91.309,-20.996,-40.527,-226.074,0.000
1606140141.083,-93.262,-31.250,-40.527,-275.879,0.000
1606140141.087,8.301,-21.973,-40.527,21.973,0.000
1606140141.091,65.918,-17.578,-37.109,264.160,0.000
1606140141.095,21.973,-17.578,-31.250,144.043,0.000
1606140141.099,-68.848,-14.648,-29.297,-192.383,0.000
1606140141.103,-91.797,-8.301,-40.527,-293.457,0.000
1606140141.107,-7.812,-11.719,-46.875,-27.832,0.000
1606140141.110,74.707,-11.719,-38.086,250.977,0.000
1606140141.114,45.898,-6.348,-34.180,185.547,0.000
1606140141.118,-65.918,-12.207,-41.016,-158.203,0.000
1606140141.122,-106.445,-20.508,-49.805,-316.895,0.000
1606140141.126,-37.109,-18.555,-53.223,-98.633,0.000
1606140141.130,43.457,-21.973,-47.363,198.242,0.000
1606140141.134,29.785,-9.277,-36.133,187.012,0.000
1606140141.138,-68.359,-7.812,-40.527,-141.113,0.000
1606140141.142,-112.305,-32.715,-45.898,-323.242,0.000
1606140141.146,-52.246,-31.738,-43.457,-131.348,0.000
1606140141.150,36.133,-22.461,-43.945,174.805,0.000
1606140141.153,41.504,-17.090,-37.598,205.078,0.000
1606140141.157,-51.270,-28.320,-44.434,-104.980,0.000
1606140141.161,-119.141,-39.062,-46.875,-325.195,0.000
1606140141.165,-72.266,-35.156,-37.598,-168.457,0.000
1606140141.169,20.508,-32.227,-35.645,156.250,0.000
1606140141.173,40.527,-21.484,-26.855,230.469,0.000
1606140141.177,-42.480,-23.438,-30.273,-52.734,0.000
1606140141.181,-122.070,-38.086,-46.387,-315.918,0.000
1606140141.185,-97.656,-38.086,-42.969,-216.797,0.000
1606140141.189,5.859,-30.762,-31.250,137.207,0.000
1606140141.193,41.016,-21.484,-29.785,260.254,0.000
1606140141.196,-37.109,-27.832,-31.738,5.859,0.000
1606140141.200,-106.445,-35.645,-35.645,-276.855,0.000
1606140141.204,-85.449,-35.156,-36.133,-234.375,0.000
1606140141.208,8.301,-28.809,-25.391,106.445,0.000
1606140141.212,61.035,-16.602,-20.508,289.062,0.000
1606140141.216,-3.418,-17.578,-27.344,70.312,0.000
1606140141.220,-109.375,-32.715,-43.457,-266.602,0.000
1606140141.224,-105.957,-37.598,-40.527,-266.113,0.000
1606140141.228,4.395,-31.250,-29.785,68.359,0.000
1606140141.232,63.477,-22.949,-32.715,267.090,0.000
1606140141.235,3.418,-19.531,-31.738,92.773,0.000
1606140141.239,-102.539,-31.738,-31.738,-249.512,0.000
1606140141.243,-109.863,-37.598,-32.227,-298.828,0.000
1606140141.247,-4.395,-29.297,-25.879,25.391,0.000
1606140141.251,55.176,-23.438,-21.973,269.531,0.000
1606140141.255,-1.953,-27.344,-20.020,137.695,0.000
1606140141.259,-102.051,-34.180,-29.297,-212.891,0.000
1606140141.263,-127.930,-39.062,-42.480,-325.195,0.000
1606140141.267,-45.410,-37.109,-33.691,-41.992,0.000
1606140141.271,37.109,-28.809,-19.531,243.652,0.000
1606140141.275,7.812,-26.367,-13.184,161.621,0.000
1606140141.278,-101.074,-33.691,-18.555,-197.266,0.000
1606140141.282,-131.836,-38.574,-22.461,-340.820,0.000
1606140141.286,-35.645,-32.715,-7.324,-73.730,0.000
1606140141.290,57.129,-24.902,-8.301,242.676,0.000
1606140141.294,41.992,-24.414,-23.438,200.684,0.000
1606140141.298,-58.105,-30.273,-31.250,-145.996,0.000
1606140141.302,-110.840,-35.645,-34.668,-326.660,0.000
1606140141.306,-37.109,-29.297,-22.949,-106.934,0.000
1606140141.310,61.035,-20.020,-20.508,225.098,0.000
1606140141.314,51.758,-22.949,-30.273,229.492,0.000
1606140141.318,-51.270,-32.227,-27.832,-104.004,0.000
1606140141.321,-114.258,-39.551,-30.273,-335.449,0.000
1606140141.325,-65.430,-36.133,-27.344,-176.758,0.000
1606140141.329,19.531,-30.762,-20.020,173.828,0.000
1606140141.333,32.227,-33.691,-23.438,233.887,0.000
1606140141.337,-62.012,-35.156,-20.508,-75.195,0.000
1606140141.341,-142.578,-38.574,-24.902,-336.426,0.000
1606140141.345,-93.262,-41.992,-31.738,-218.750,0.000
1606140141.349,13.672,-35.156,-20.508,153.320,0.000
1606140141.353,37.598,-32.715,-15.137,273.438,0.000
1606140141.357,-45.410,-37.598,-16.113,-8.789,0.000
1606140141.360,-121.582,-41.016,-21.484,-300.781,0.000
1606140141.364,-94.727,-41.992,-27.344,-238.281,0.000
1606140141.368,7.812,-35.156,-24.414,120.117,0.000
1606140141.372,42.480,-34.668,-21.484,272.949,0.000
1606140141.376,-36.133,-37.109,-28.320,27.832,0.000
1606140141.380,-119.141,-34.180,-35.156,-275.879,0.000
1606140141.384,-99.609,-33.203,-29.785,-249.512,0.000
1606140141.388,7.812,-31.738,-28.320,84.961,0.000
1606140141.392,62.988,-29.297,-23.926,276.367,0.000
1606140141.396,-2.441,-28.320,-19.043,82.031,0.000
1606140141.400,-80.566,-30.762,-26.855,-239.258,0.000
1606140141.403,-76.172,-33.203,-33.203,-261.719,0.000
1606140141.407,1.953,-35.156,-24.902,51.270,0.000
1606140141.411,67.871,-28.320,-24.902,276.855,0.000
1606140141.415,19.531,-14.160,-22.949,128.906,0.000
1606140141.419,-88.379,-19.043,-22.949,-216.309,0.000
1606140141.423,-103.027,-30.273,-21.973,-293.457,0.000
1606140141.427,-9.766,-26.367,-15.137,1.465,0.000
1606140141.431,60.547,-25.879,-24.414,256.836,0.000
1606140141.435,14.648,-27.832,-30.273,146.484,0.000
1606140141.439,-86.426,-33.203,-34.180,-201.660,0.000
1606140141.443,-110.352,-36.133,-34.668,-316.895,0.000
1606140141.446,-24.902,-29.297,-24.902,-57.617,0.000
1606140141.450,54.688,-29.785,-22.461,219.727,0.000
1606140141.454,22.949,-24.414,-27.344,162.109,0.000
1606140141.458,-82.031,-26.367,-37.109,-176.758,0.000
1606140141.462,-116.211,-33.691,-29.297,-324.219,0.000
1606140141.466,-43.945,-32.227,-22.949,-92.773,0.000
1606140141.470,42.969,-30.762,-33.203,208.984,0.000
1606140141.474,31.738,-29.297,-27.832,194.824,0.000
1606140141.478,-81.055,-31.250,-24.902,-140.137,0.000
1606140141.482,-135.742,-34.668,-28.809,-333.496,0.000
1606140141.485,-67.383,-28.320,-22.949,-146.484,0.000
1606140141.489,22.461,-20.508,-17.578,181.641,0.000
1606140141.493,32.227,-8.301,-16.602,229.980,0.000
1606140141.497,-56.641,-8.301,-20.508,-79.590,0.000
1606140141.501,-131.836,-29.297,-24.902,-321.777,0.000
1606140141.505,-76.660,-36.621,-32.227,-186.035,0.000
1606140141.509,32.715,-30.762,-33.203,155.762,0.000
1606140141.513,38.574,-23.926,-22.461,239.746,0.000
1606140141.517,-57.617,-31.738,-34.180,-50.781,0.000
1606140141.521,-129.395,-38.086,-50.781,-316.406,0.000
1606140141.525,-86.914,-35.156,-36.621,-208.496,0.000
1606140141.528,26.855,-28.320,-20.996,139.648,0.000
1606140141.532,62.500,-20.020,-21.484,261.719,0.000
1606140141.536,-20.996,-22.949,-24.902,14.160,0.000
1606140141.540,-100.098,-29.785,-23.438,-278.809,0.000
1606140141.544,-76.172,-30.762,-26.367,-243.652,0.000
1606140141.548,25.391,-28.320,-26.367,90.820,0.000
1606140141.552,64.941,-19.043,-21.973,260.254,0.000
1606140141.556,-9.277,-12.695,-24.414,50.293,0.000
1606140141.560,-88.379,-25.879,-27.832,-260.742,0.000
1606140141.564,-78.125,-27.344,-22.461,-263.184,0.000
1606140141.568,12.207,-19.531,-23.926,60.547,0.000
1606140141.571,67.383,-18.555,-33.203,268.555,0.000
1606140141.575,8.789,-21.484,-33.691,103.516,0.000
1606140141.579,-86.914,-28.809,-34.668,-222.168,0.000
1606140141.583,-88.867,-29.297,-31.738,-273.438,0.000
1606140141.587,6.836,-25.391,-25.391,35.156,0.000
1606140141.591,69.336,-26.855,-23.926,275.391,0.000
1606140141.595,25.391,-14.648,-26.855,144.043,0.000
1606140141.599,-75.195,-20.020,-34.180,-207.031,0.000
1606140141.603,-90.332,-35.156,-33.691,-298.340,0.000
1606140141.607,-8.789,-29.297,-30.273,-20.020,0.000
1606140141.610,58.105,-25.879,-29.297,245.117,0.000
1606140141.614,26.855,-24.414,-23.926,179.199,0.000
1606140141.618,-75.195,-28.320,-28.809,-171.387,0.000
1606140141.622,-111.816,-27.832,-30.762,-317.871,0.000
1606140141.626,-38.574,-26.367,-21.484,-76.172,0.000
1606140141.630,45.410,-26.367,-18.555,216.797,0.000
1606140141.634,23.926,-17.578,-22.461,196.289,0.000
1606140141.638,-86.914,-25.879,-28.320,-140.137,0.000
1606140141.642,-129.883,-33.203,-22.949,-328.125,0.000
1606140141.646,-59.570,-24.414,-22.461,-131.348,0.000
1606140141.650,23.438,-27.832,-24.902,186.035,0.000
1606140141.653,18.066,-30.762,-21.484,216.797,0.000
1606140141.657,-76.172,-35.645,-25.391,-100.098,0.000
1606140141.661,-132.324,-39.062,-30.762,-337.891,0.000
1606140141.665,-67.871,-34.668,-27.344,-162.598,0.000
1606140141.669,38.086,-28.809,-19.531,192.871,0.000
1606140141.673,44.922,-23.438,-24.902,240.234,0.000
1606140141.677,-50.781,-28.809,-24.414,-59.570,0.000
1606140141.681,-124.023,-36.621,-27.344,-312.012,0.000
1606140141.685,-84.473,-36.621,-27.344,-204.102,0.000
1606140141.689,16.602,-36.133,-15.137,138.672,0.000
1606140141.693,38.574,-24.414,-18.555,244.629,0.000
1606140141.696,-46.387,-14.648,-24.414,-17.578,0.000
1606140141.700,-116.211,-37.598,-27.344,-300.293,0.000
1606140141.704,-85.449,-47.363,-28.320,-242.188,0.000
1606140141.708,1.953,-40.527,-20.508,111.816,0.000
1606140141.712,41.992,-37.109,-15.625,280.273,0.000
1606140141.716,-30.762,-39.062,-24.902,41.992,0.000
1606140141.720,-118.652,-44.922,-26.855,-284.668,0.000
1606140141.724,-101.562,-40.527,-32.715,-276.855,0.000
1606140141.728,2.930,-35.645,-35.156,69.824,0.000
1606140141.732,65.918,-26.367,-25.879,280.273,0.000
1606140141.735,0.488,-21.484,-26.367,75.684,0.000
1606140141.739,-104.492,-37.109,-38.086,-280.762,0.000
1606140141.743,-103.027,-37.109,-30.762,-308.594,0.000
1606140141.747,0.977,-28.320,-12.695,33.691,0.000
1606140141.751,64.941,-22.949,-16.113,280.762,0.000
1606140141.755,8.301,-21.484,-20.020,132.324,0.000
1606140141.759,-95.703,-29.297,-20.996,-229.004,0.000
1606140141.763,-112.305,-31.250,-27.832,-322.754,0.000
1606140141.767,-15.137,-34.180,-24.902,-21.973,0.000
1606140141.771,65.430,-35.156,-16.113,261.230,0.000
1606140141.775,29.785,-12.695,-14.648,181.641,0.000
1606140141.778,-77.637,-17.578,-24.414,-183.105,0.000
1606140141.782,-112.305,-36.621,-27.344,-325.195,0.000
1606140141.786,-26.367,-29.297,-21.484,-60.059,0.000
1606140141.790,62.500,-28.320,-20.508,249.023,0.000
1606140141.794,39.062,-20.020,-21.973,198.730,0.000
1606140141.798,-68.848,-20.996,-27.832,-170.410,0.000
1606140141.802,-110.840,-39.551,-31.250,-341.309,0.000
1606140141.806,-30.762,-36.133,-28.320,-109.863,0.000
1606140141.810,53.711,-25.879,-30.762,214.844,0.000
1606140141.814,41.992,-24.902,-41.504,214.355,0.000
1606140141.818,-58.594,-32.227,-45.898,-107.910,0.000
1606140141.821,-115.723,-41.992,-36.133,-303.711,0.000
1606140141.825,-65.918,-40.039,-29.785,-140.137,0.000
1606140141.829,20.020,-33.203,-27.344,180.664,0.000
1606140141.833,30.273,-16.113,-20.508,236.816,0.000
1606140141.837,-68.359,-12.207,-21.484,-72.754,0.000
1606140141.841,-135.254,-29.785,-31.250,-305.664,0.000
1606140141.845,-81.543,-33.203,-23.438,-171.387,0.000
1606140141.849,12.695,-29.297,-22.461,147.461,0.000
1606140141.853,31.250,-27.832,-34.180,244.141,0.000
1606140141.857,-52.246,-29.297,-28.809,-37.598,0.000
1606140141.860,-122.070,-38.086,-23.438,-312.988,0.000
1606140141.864,-78.125,-34.180,-22.461,-225.098,0.000
1606140141.868,22.949,-28.320,-22.949,129.883,0.000
1606140141.872,50.293,-22.461,-19.043,269.043,0.000
1606140141.876,-26.367,-20.996,-25.879,10.742,0.000
1606140141.880,-113.281,-36.621,-30.273,-299.316,0.000
1606140141.884,-96.191,-38.574,-21.484,-253.906,0.000
1606140141.888,5.371,-40.039,-24.414,95.703,0.000
1606140141.892,50.293,-31.250,-27.832,271.484,0.000
1606140141.896,-11.230,-19.531,-19.043,67.383,0.000
1606140141.900,-99.609,-25.391,-16.113,-250.488,0.000
1606140141.903,-95.215,-28.809,-24.414,-266.602,0.000
1606140141.907,7.812,-21.973,-22.461,60.059,0.000
1606140141.911,69.336,-10.254,-8.301,281.250,0.000
1606140141.915,18.555,0.488,-15.625,113.770,0.000
1606140141.919,-87.402,-16.113,-34.668,-238.770,0.000
1606140141.923,-101.562,-34.180,-32.227,-301.270,0.000
1606140141.927,-2.930,-26.855,-24.414,6.348,0.000
1606140141.931,72.754,-18.555,-26.855,269.531,0.000
1606140141.935,27.832,-20.996,-31.250,157.715,0.000
1606140141.939,-83.008,-33.203,-37.109,-201.172,0.000
1606140141.943,-101.074,-37.109,-36.133,-316.895,0.000
1606140141.946,-13.672,-32.715,-33.203,-43.945,0.000
1606140141.950,56.152,-28.320,-26.855,242.676,0.000
1606140141.954,32.715,-24.902,-17.578,193.359,0.000
1606140141.958,-73.242,-29.297,-23.438,-155.762,0.000
1606140141.962,-110.352,-30.273,-28.809,-309.082,0.000
1606140141.966,-31.738,-31.250,-21.973,-66.895,0.000
1606140141.970,52.246,-33.691,-17.578,229.004,0.000
1606140141.974,39.062,-20.508,-23.926,207.031,0.000
1606140141.978,-59.082,-14.648,-32.227,-129.883,0.000
1606140141.982,-115.723,-31.738,-38.574,-331.055,0.000
1606140141.985,-58.105,-38.574,-35.156,-138.672,0.000
1606140141.989,38.574,-29.297,-21.973,194.824,0.000
1606140141.993,39.551,-26.367,-23.438,221.680,0.000
1606140141.997,-57.129,-33.203,-31.250,-101.562,0.000
1606140142.001,-123.047,-35.156,-37.598,-334.961,0.000
1606140142.005,-66.895,-30.273,-32.715,-176.270,0.000
1606140142.009,44.434,-22.461,-18.066,178.223,0.000
1606140142.013,54.688,-24.414,-20.020,248.047,0.000
1606140142.017,-40.527,-28.320,-31.250,-52.246,0.000
1606140142.021,-114.258,-24.414,-40.527,-327.637,0.000
1606140142.025,-68.359,-19.043,-33.203,-213.379,0.000
1606140142.028,39.551,-20.020,-11.719,161.621,0.000
1606140142.032,57.617,-17.090,-9.277,275.879,0.000
1606140142.036,-32.227,-20.508,-20.020,-1.465,0.000
1606140142.040,-116.699,-28.809,-29.297,-295.898,0.000
1606140142.044,-82.031,-24.414,-27.832,-234.863,0.000
1606140142.048,20.020,-22.949,-22.461,114.258,0.000
1606140142.052,58.105,-18.555,-19.531,284.180,0.000
1606140142.056,-7.324,-18.066,-22.949,66.895,0.000
1606140142.060,-103.027,-31.250,-33.203,-267.578,0.000
1606140142.064,-103.027,-37.598,-31.250,-279.297,0.000
1606140142.068,-4.883,-33.203,-26.367,51.758,0.000
1606140142.071,52.246,-25.879,-22.949,260.742,0.000
1606140142.075,-10.254,-24.902,-19.043,89.844,0.000
1606140142.079,-103.516,-39.551,-31.250,-251.953,0.000
1606140142.083,-111.816,-42.969,-31.250,-299.316,0.000
1606140142.087,-16.113,-34.180,-21.484,20.996,0.000
1606140142.091,49.316,-29.785,-18.066,253.418,0.000
1606140142.095,0.488,-30.762,-16.113,118.164,0.000
1606140142.099,-93.262,-39.062,-20.508,-217.773,0.000
1606140142.103,-115.234,-39.062,-24.902,-299.805,0.000
1606140142.107,-29.297,-34.668,-20.996,-25.391,0.000
1606140142.110,49.805,-27.344,-21.484,233.398,0.000
1606140142.114,15.625,-24.414,-24.902,148.926,0.000
1606140142.118,-80.078,-31.738,-25.879,-185.059,0.000
1606140142.122,-110.352,-36.133,-28.809,-316.895,0.000
1606140142.126,-45.410,-34.180,-29.297,-68.359,0.000
1606140142.130,39.062,-28.320,-22.949,231.445,0.000
1606140142.134,30.273,-18.555,-21.973,197.266,0.000
1606140142.138,-73.242,-24.902,-23.438,-134.766,0.000
1606140142.142,-120.117,-36.133,-26.855,-311.523,0.000
1606140142.146,-43.945,-32.227,-24.902,-108.398,0.000
1606140142.150,56.641,-18.555,-11.719,223.633,0.000
1606140142.153,45.410,-15.625,-23.438,234.375,0.000
1606140142.157,-66.895,-32.227,-40.527,-115.723,0.000
1606140142.161,-121.582,-36.621,-35.645,-335.449,0.000
1606140142.165,-54.688,-27.832,-31.738,-152.344,0.000
1606140142.169,39.062,-32.715,-29.297,176.758,0.000
1606140142.173,43.945,-20.020,-28.320,228.516,0.000
1606140142.177,-45.898,-12.695,-30.762,-70.801,0.000
1606140142.181,-112.793,-31.250,-37.109,-329.590,0.000
1606140142.185,-80.078,-34.668,-46.387,-209.473,0.000
1606140142.189,14.160,-31.250,-30.762,142.578,0.000
1606140142.193,50.293,-19.043,-18.555,262.695,0.000
1606140142.196,-34.180,-19.043,-33.203,-9.766,0.000
1606140142.200,-117.188,-34.180,-38.086,-296.875,0.000
1606140142.204,-91.309,-40.527,-38.574,-229.980,0.000
1606140142.208,13.672,-37.598,-35.156,109.375,0.000
1606140142.212,61.035,-20.996,-27.344,269.531,0.000
1606140142.216,-15.625,-18.555,-26.855,32.227,0.000
1606140142.220,-107.422,-38.574,-31.250,-279.785,0.000
1606140142.224,-87.891,-38.574,-32.227,-254.395,0.000
1606140142.228,15.137,-29.785,-33.203,85.938,0.000
1606140142.232,62.988,-26.855,-27.832,272.461,0.000
1606140142.235,-5.371,-29.297,-33.691,67.871,0.000
1606140142.239,-107.910,-34.180,-48.828,-260.742,0.000
1606140142.243,-107.910,-33.203,-37.109,-276.367,0.000
1606140142.247,-13.184,-31.738,-28.809,45.410,0.000
1606140142.251,56.641,-34.180,-31.738,264.648,0.000
1606140142.255,14.160,-11.230,-34.180,112.305,0.000
1606140142.259,-102.539,-12.695,-39.551,-231.934,0.000
1606140142.263,-126.465,-39.551,-47.363,-319.824,0.000
1606140142.267,-30.273,-38.086,-37.109,-27.832,0.000
1606140142.271,43.457,-35.156,-27.344,241.699,0.000
1606140142.275,6.836,-33.203,-33.203,140.625,0.000
1606140142.278,-92.285,-36.621,-36.133,-215.332,0.000
1606140142.282,-118.652,-40.527,-29.785,-338.867,0.000
1606140142.286,-30.273,-33.203,-24.414,-58.594,0.000
1606140142.290,50.293,-29.785,-25.391,246.094,0.000
1606140142.294,24.414,-27.344,-20.508,187.012,0.000
1606140142.298,-71.777,-29.297,-18.555,-164.062,0.000
1606140142.302,-116.699,-38.574,-25.879,-336.426,0.000
1606140142.306,-46.875,-41.016,-27.832,-110.352,0.000
1606140142.310,44.922,-35.645,-22.461,225.098,0.000
1606140142.314,42.480,-23.438,-18.066,226.562,0.000
1606140142.318,-60.059,-29.785,-21.484,-109.375,0.000
1606140142.321,-120.117,-42.969,-19.043,-311.523,0.000
1606140142.325,-55.664,-36.621,-15.625,-133.301,0.000
1606140142.329,39.062,-32.715,-23.438,197.266,0.000
1606140142.333,43.945,-17.578,-20.996,246.094,0.000
1606140142.337,-52.734,-21.484,-15.625,-58.105,0.000
1606140142.341,-124.023,-43.945,-16.602,-311.523,0.000
1606140142.345,-80.566,-45.898,-18.555,-186.035,0.000
1606140142.349,17.578,-41.016,-19.531,167.480,0.000
1606140142.353,34.180,-17.090,-15.137,264.160,0.000
1606140142.357,-62.012,-17.578,-22.949,-33.691,0.000
1606140142.360,-145.996,-38.574,-30.762,-325.195,0.000
1606140142.364,-104.980,-31.738,-24.902,-235.840,0.000
1606140142.368,21.484,-25.879,-21.484,127.930,0.000
1606140142.372,57.129,-14.160,-14.648,271.484,0.000
1606140142.376,-42.969,-15.137,-14.160,7.812,0.000
1606140142.380,-132.812,-31.738,-21.484,-300.293,0.000
1606140142.384,-104.980,-30.273,-22.949,-259.766,0.000
1606140142.388,-0.977,-35.645,-23.438,85.449,0.000
1606140142.392,48.828,-28.809,-23.438,269.043,0.000
1606140142.396,-18.555,-20.996,-28.320,52.734,0.000
1606140142.400,-116.211,-30.273,-27.344,-283.203,0.000
1606140142.403,-108.398,-30.762,-23.438,-286.621,0.000
1606140142.407,-13.184,-29.785,-28.809,58.594,0.000
1606140142.411,45.410,-30.273,-23.438,275.879,0.000
1606140142.415,2.930,-11.719,-19.043,114.258,0.000
1606140142.419,-103.516,-18.555,-30.273,-230.957,0.000
1606140142.423,-125.000,-41.504,-30.762,-296.387,0.000
1606140142.427,-18.066,-32.715,-21.484,23.926,0.000
1606140142.431,64.453,-28.320,-20.508,291.504,0.000
1606140142.435,18.066,-5.371,-17.578,169.434,0.000
1606140142.439,-92.773,-5.859,-22.949,-203.125,0.000
1606140142.443,-122.559,-39.062,-32.715,-327.148,0.000
1606140142.446,-30.273,-31.250,-25.879,-32.227,0.000
1606140142.450,54.199,-25.391,-23.926,258.789,0.000
1606140142.454,13.672,-34.668,-33.691,175.781,0.000
1606140142.458,-93.750,-42.969,-28.320,-177.734,0.000
1606140142.462,-120.605,-44.434,-18.555,-326.660,0.000
1606140142.466,-44.922,-40.039,-24.902,-85.449,0.000
1606140142.470,41.504,-34.668,-21.973,224.609,0.000
1606140142.474,25.879,-25.391,-10.742,203.613,0.000
1606140142.478,-73.730,-30.273,-19.531,-140.625,0.000
1606140142.482,-123.535,-35.645,-32.715,-335.449,0.000
1606140142.485,-62.988,-33.203,-41.504,-137.207,0.000
1606140142.489,31.738,-31.250,-33.203,192.383,0.000
1606140142.493,41.504,-18.066,-19.043,232.422,0.000
1606140142.497,-55.176,-27.344,-24.902,-90.332,0.000
1606140142.501,-128.906,-45.898,-33.203,-331.055,0.000
1606140142.505,-71.777,-44.922,-28.320,-172.363,0.000
1606140142.509,28.809,-39.551,-28.809,174.316,0.000
1606140142.513,38.574,-33.203,-26.367,243.652,0.000
1606140142.517,-47.852,-32.715,-24.414,-60.059,0.000
1606140142.521,-116.211,-39.551,-33.203,-316.406,0.000
1606140142.525,-71.289,-37.109,-26.367,-189.941,0.000
1606140142.528,32.715,-34.180,-20.020,155.273,0.000
1606140142.532,52.734,-25.391,-31.250,248.535,0.000
1606140142.536,-44.922,-9.277,-30.273,-19.531,0.000
1606140142.540,-127.441,-27.344,-28.320,-298.828,0.000
1606140142.544,-92.773,-37.598,-28.809,-230.957,0.000
1606140142.548,15.137,-26.367,-24.902,120.605,0.000
1606140142.552,52.246,-22.949,-22.461,278.320,0.000
1606140142.556,-22.949,-27.832,-20.996,46.387,0.000
1606140142.560,-112.793,-33.203,-19.531,-270.508,0.000
1606140142.564,-102.051,-31.738,-24.902,-261.719,0.000
1606140142.568,-2.930,-34.180,-29.297,75.195,0.000
1606140142.571,50.781,-20.020,-31.250,281.738,0.000
1606140142.575,-9.277,-1.465,-29.785,94.727,0.000
1606140142.579,-108.398,-19.043,-35.645,-242.188,0.000
1606140142.583,-105.957,-29.785,-41.504,-281.250,0.000
1606140142.587,-3.906,-22.949,-24.902,31.738,0.000
1606140142.591,47.363,-23.438,-17.578,259.766,0.000
1606140142.595,-1.953,-23.926,-25.391,117.188,0.000
1606140142.599,-87.891,-26.367,-29.297,-222.168,0.000
1606140142.603,-92.773,-32.715,-36.133,-295.410,0.000
1606140142.607,-12.207,-26.367,-30.273,-10.742,0.000
1606140142.610,56.152,-19.531,-25.879,240.723,0.000
1606140142.614,35.645,-13.672,-21.973,157.715,0.000
1606140142.618,-73.242,-19.043,-28.809,-178.223,0.000
1606140142.622,-105.957,-28.320,-36.621,-310.547,0.000
1606140142.626,-21.973,-25.879,-25.391,-59.082,0.000
1606140142.630,58.105,-26.855,-15.137,229.492,0.000
1606140142.634,41.016,-12.207,-12.695,191.406,0.000
1606140142.638,-63.477,-9.766,-23.926,-149.414,0.000
1606140142.642,-107.422,-29.297,-34.668,-326.660,0.000
1606140142.646,-32.715,-25.879,-31.250,-111.328,0.000
1606140142.650,52.246,-21.973,-24.414,211.426,0.000
1606140142.653,40.039,-23.438,-21.484,219.727,0.000
1606140142.657,-64.453,-29.785,-23.438,-103.027,0.000
1606140142.661,-125.000,-34.668,-28.320,-301.758,0.000
1606140142.665,-58.594,-25.391,-22.461,-122.559,0.000
1606140142.669,45.898,-21.973,-0.488,211.914,0.000
1606140142.673,56.152,-12.207,0.488,268.555,0.000
1606140142.677,-44.434,-11.719,-29.297,-59.082,0.000
1606140142.681,-120.605,-27.832,-40.039,-322.266,0.000
1606140142.685,-72.754,-28.320,-32.715,-187.500,0.000
1606140142.689,25.879,-22.949,-25.391,158.691,0.000
1606140142.693,39.551,-26.855,-27.832,248.535,0.000
1606140142.696,-41.992,-29.297,-27.344,-25.391,0.000
1606140142.700,-116.699,-32.715,-22.949,-303.711,0.000
1606140142.704,-81.055,-28.320,-37.109,-224.121,0.000
1606140142.708,19.043,-18.555,-30.273,131.836,0.000
1606140142.712,54.688,-6.836,-17.578,277.832,0.000
1606140142.716,-13.672,10.254,-32.227,35.156,0.000
1606140142.720,-111.816,-14.160,-44.922,-301.270,0.000
1606140142.724,-95.703,-34.180,-39.062,-268.066,0.000
1606140142.728,22.461,-24.414,-28.809,94.238,0.000
1606140142.732,65.918,-18.066,-29.297,267.578,0.000
1606140142.735,-3.906,-26.367,-35.156,61.523,0.000
1606140142.739,-99.609,-36.133,-32.715,-268.066,0.000
1606140142.743,-96.191,-30.762,-27.344,-281.250,0.000
1606140142.747,9.277,-25.879,-21.484,55.176,0.000
1606140142.751,70.312,-19.531,-18.555,280.273,0.000
1606140142.755,7.324,-22.949,-22.949,110.840,0.000
1606140142.759,-92.285,-35.156,-23.926,-238.281,0.000
1606140142.763,-101.074,-31.738,-26.855,-310.547,0.000
1606140142.767,-15.137,-27.344,-26.367,-9.277,0.000
1606140142.771,57.617,-20.020,-19.531,258.789,0.000
1606140142.775,20.508,-7.324,-17.090,154.785,0.000
1606140142.778,-92.285,-21.973,-27.344,-205.566,0.000
1606140142.782,-119.141,-35.645,-32.715,-323.730,0.000
1606140142.786,-33.203,-28.320,-26.367,-45.898,0.000
1606140142.790,51.758,-22.949,-20.996,250.977,0.000
1606140142.794,24.902,-26.367,-32.715,184.082,0.000
1606140142.798,-88.867,-29.785,-40.527,-185.547,0.000
1606140142.802,-117.676,-30.273,-32.227,-321.777,0.000
1606140142.806,-29.785,-31.250,-20.996,-62.500,0.000
1606140142.810,47.363,-28.809,-15.137,223.633,0.000
1606140142.814,28.320,-12.695,-14.160,200.195,0.000
1606140142.818,-70.801,-11.719,-23.926,-140.625,0.000
1606140142.821,-126.465,-31.738,-35.645,-337.402,0.000
1606140142.825,-63.477,-30.762,-31.738,-143.066,0.000
1606140142.829,35.645,-19.531,-24.414,195.312,0.000
1606140142.833,36.621,-15.137,-17.578,229.004,0.000
1606140142.837,-63.477,-25.391,-23.438,-92.285,0.000
1606140142.841,-123.535,-33.203,-28.320,-326.172,0.000
1606140142.845,-70.801,-33.203,-28.320,-187.988,0.000
1606140142.849,23.438,-26.367,-25.391,153.809,0.000
1606140142.853,42.480,-16.113,-17.090,247.070,0.000
1606140142.857,-37.598,-20.996,-18.066,-42.969,0.000
1606140142.860,-105.469,-29.785,-26.367,-309.570,0.000
1606140142.864,-97.656,-33.203,-25.391,-238.770,0.000
1606140142.868,-18.066,-23.438,-8.789,85.938,0.000
1606140142.872,8.301,-19.043,-10.742,207.520,0.000
1606140142.876,-90.820,-31.250,-25.879,-65.918,0.000
1606140142.880,-190.918,-36.621,-19.531,-373.047,0.000
1606140142.884,-179.199,-31.250,-17.578,-333.496,0.000
1606140142.888,-82.031,-28.320,-14.160,4.883,0.000
1606140142.892,-57.129,-37.598,-0.977,157.227,0.000
1606140142.896,-144.043,-41.992,-0.488,-71.289,0.000
1606140142.900,-234.863,-35.156,-2.930,-380.859,0.000
1606140142.903,-241.211,-39.062,0.977,-402.832,0.000
1606140142.907,-154.297,-39.551,4.395,-87.402,0.000
1606140142.911,-95.703,-34.668,0.488,125.488,0.000
1606140142.915,-159.668,-56.641,2.930,-58.594,0.000
1606140142.919,-258.789,-64.453,-3.906,-393.555,0.000
1606140142.923,-261.230,-51.758,-12.207,-441.406,0.000
1606140142.927,-155.762,-42.480,-12.695,-124.512,0.000
1606140142.931,-75.195,-32.227,-13.184,133.789,0.000
1606140142.935,-109.375,-41.016,-11.230,19.043,0.000
1606140142.939,-196.289,-52.246,-18.555,-307.129,0.000
1606140142.943,-187.500,-41.992,-25.879,-381.836,0.000
1606140142.946,-80.078,-26.367,-18.555,-78.613,0.000
1606140142.950,-0.977,-22.949,-8.301,207.520,0.000
1606140142.954,-15.137,-34.180,-9.277,132.324,0.000
1606140142.958,-111.328,-47.363,-16.602,-210.449,0.000
1606140142.962,-144.531,-48.828,-25.879,-337.402,0.000
1606140142.966,-56.152,-36.621,-28.809,-76.660,0.000
1606140142.970,42.480,-29.785,-20.508,228.516,0.000
1606140142.974,26.855,-32.715,-17.090,188.477,0.000
1606140142.978,-72.754,-33.691,-25.391,-147.461,0.000
1606140142.982,-108.398,-36.133,-28.809,-314.453,0.000
1606140142.985,-29.297,-35.645,-20.996,-94.238,0.000
1606140142.989,72.266,-33.691,-17.090,242.188,0.000
1606140142.993,67.383,-16.113,-24.414,266.113,0.000
1606140142.997,-35.645,-13.184,-25.879,-71.289,0.000
1606140143.001,-95.703,-37.109,-29.785,-301.758,0.000
1606140143.005,-42.480,-40.039,-37.109,-135.742,0.000
1606140143.009,60.059,-29.785,-26.855,205.566,0.000
1606140143.013,79.590,-26.367,-24.414,275.391,0.000
1606140143.017,-17.090,-29.785,-31.250,-26.367,0.000
1606140143.021,-94.727,-35.156,-31.250,-289.551,0.000
1606140143.025,-44.434,-31.738,-19.043,-158.203,0.000
1606140143.028,72.754,-23.926,-13.672,206.543,0.000
1606140143.032,92.285,-27.832,-24.902,304.199,0.000
1606140143.036,-4.883,-37.598,-37.598,18.555,0.000
1606140143.040,-79.590,-35.645,-38.086,-268.066,0.000
1606140143.044,-44.922,-21.973,-31.738,-195.312,0.000
1606140143.048,59.082,-23.926,-29.297,158.691,0.000
1606140143.052,103.516,-16.602,-31.250,312.500,0.000
1606140143.056,23.926,6.348,-34.180,75.195,0.000
1606140143.060,-83.008,-22.461,-36.133,-253.906,0.000
1606140143.064,-68.848,-46.875,-30.273,-239.258,0.000
1606140143.068,40.527,-37.598,-17.090,115.234,0.000
1606140143.071,92.285,-26.367,-16.113,307.129,0.000
1606140143.075,17.578,-27.344,-25.391,97.656,0.000
1606140143.079,-87.402,-27.832,-29.785,-240.723,0.000
1606140143.083,-91.797,-24.902,-30.273,-268.555,0.000
1606140143.087,10.742,-22.949,-30.273,73.242,0.000
1606140143.091,85.449,-23.438,-29.297,318.848,0.000
1606140143.095,25.879,15.137,-28.320,151.855,0.000
1606140143.099,-73.730,15.625,-33.691,-223.145,0.000
1606140143.103,-87.891,-37.598,-50.781,-306.152,0.000
1606140143.107,-6.836,-35.156,-41.504,7.812,0.000
1606140143.110,69.824,-34.668,-29.785,288.086,0.000
1606140143.114,26.367,-43.945,-35.156,172.363,0.000
1606140143.118,-83.496,-39.551,-38.086,-186.523,0.000
1606140143.122,-107.422,-37.109,-41.016,-302.246,0.000
1606140143.126,-13.184,-33.691,-34.180,-28.320,0.000
1606140143.130,71.289,-30.762,-32.227,274.414,0.000
1606140143.134,70.801,-11.230,-31.250,234.863,0.000
1606140143.138,-23.926,-7.324,-26.367,-117.188,0.000
1606140143.142,-104.492,-23.438,-40.527,-317.871,0.000
1606140143.146,-44.434,-27.832,-43.945,-98.145,0.000
1606140143.150,50.781,-28.809,-37.109,214.844,0.000
1606140143.153,35.645,-27.832,-40.039,202.148,0.000
1606140143.157,-71.289,-30.762,-46.875,-136.230,0.000
1606140143.161,-122.559,-33.203,-44.922,-344.727,0.000
1606140143.165,-65.430,-25.391,-38.574,-159.668,0.000
1606140143.169,20.996,-13.184,-36.621,172.852,0.000
1606140143.173,30.273,-18.555,-28.809,223.145,0.000
1606140143.177,-64.941,-30.273,-41.016,-91.309,0.000
1606140143.181,-129.395,-27.832,-45.410,-327.637,0.000
1606140143.185,-80.078,-31.250,-25.879,-181.641,0.000
1606140143.189,22.949,-34.668,-17.578,159.180,0.000
1606140143.193,40.039,-22.461,-26.855,236.328,0.000
1606140143.196,-47.363,-20.508,-30.273,-48.828,0.000
1606140143.200,-117.188,-28.320,-35.645,-304.688,0.000
1606140143.204,-80.078,-31.250,-39.062,-203.125,0.000
1606140143.208,28.320,-30.273,-32.227,144.043,0.000
1606140143.212,67.383,-23.438,-25.391,280.273,0.000
1606140143.216,-16.602,-22.461,-29.297,31.738,0.000
1606140143.220,-111.816,-40.039,-33.691,-284.668,0.000
1606140143.224,-89.355,-44.434,-21.973,-246.094,0.000
1606140143.228,9.766,-31.738,-16.602,112.305,0.000
1606140143.232,58.105,-24.902,-15.625,277.832,0.000
1606140143.235,-14.160,-17.578,-27.344,52.246,0.000
1606140143.239,-115.234,-25.391,-30.762,-271.973,0.000
1606140143.243,-99.609,-31.738,-20.508,-272.949,0.000
1606140143.247,8.301,-26.855,-18.555,68.848,0.000
1606140143.251,69.336,-26.367,-18.066,288.574,0.000
1606140143.255,11.230,-36.621,-23.926,110.352,0.000
1606140143.259,-80.078,-36.621,-32.227,-223.633,0.000
1606140143.263,-90.332,-29.785,-32.715,-271.484,0.000
1606140143.267,-8.789,-31.250,-27.832,28.320,0.000
1606140143.271,64.941,-32.227,-23.438,285.645,0.000
1606140143.275,31.250,-15.137,-28.320,162.109,0.000
1606140143.278,-75.684,-20.508,-33.691,-204.590,0.000
1606140143.282,-107.422,-39.062,-37.109,-318.359,0.000
1606140143.286,-18.555,-35.645,-31.738,-39.062,0.000
1606140143.290,61.523,-32.227,-31.250,246.582,0.000
1606140143.294,31.738,-20.020,-22.461,169.922,0.000
1606140143.298,-77.148,-24.414,-20.508,-189.941,0.000
1606140143.302,-114.258,-35.156,-21.484,-337.402,0.000
1606140143.306,-31.738,-31.738,-23.438,-80.078,0.000
1606140143.310,49.805,-26.855,-29.785,233.887,0.000
1606140143.314,21.973,-26.367,-30.273,198.730,0.000
1606140143.318,-83.984,-36.133,-34.180,-148.926,0.000
1606140143.321,-124.512,-36.133,-26.855,-321.777,0.000
1606140143.325,-50.293,-30.762,-21.484,-115.234,0.000
1606140143.329,43.457,-41.992,-18.555,207.031,0.000
1606140143.333,37.109,-47.363,-18.066,224.609,0.000
1606140143.337,-56.641,-30.762,-19.531,-93.262,0.000
1606140143.341,-106.445,-22.949,-24.902,-312.988,0.000
1606140143.345,-47.363,-30.273,-32.715,-158.203,0.000
1606140143.349,46.875,-24.902,-23.926,182.129,0.000
1606140143.353,52.246,-15.625,-14.160,252.441,0.000
1606140143.357,-42.480,-20.996,-26.855,-49.805,0.000
1606140143.360,-107.910,-27.832,-30.273,-311.035,0.000
1606140143.364,-63.965,-23.926,-26.855,-191.895,0.000
1606140143.368,42.480,-21.484,-19.043,172.852,0.000
1606140143.372,58.594,-17.090,-21.484,274.414,0.000
1606140143.376,-32.715,2.441,-26.855,-0.488,0.000
1606140143.380,-108.887,-19.531,-33.203,-291.504,0.000
1606140143.384,-81.543,-41.992,-32.227,-241.699,0.000
1606140143.388,22.949,-26.367,-18.066,113.770,0.000
1606140143.392,66.895,-19.531,-10.742,275.391,0.000
1606140143.396,-4.883,-22.461,-24.902,39.551,0.000
1606140143.400,-90.820,-29.785,-28.809,-274.414,0.000
1606140143.403,-81.055,-35.156,-24.414,-265.625,0.000
1606140143.407,13.184,-36.621,-28.320,70.312,0.000
1606140143.411,60.059,-26.855,-28.320,272.461,0.000
1606140143.415,-11.230,-14.160,-33.203,77.148,0.000
1606140143.419,-108.887,-29.297,-36.621,-260.742,0.000
1606140143.423,-102.051,-45.898,-26.367,-281.738,0.000
1606140143.427,-5.859,-38.086,-22.461,42.969,0.000
1606140143.431,54.688,-19.531,-22.461,271.484,0.000
1606140143.435,4.883,-20.996,-15.625,138.184,0.000
1606140143.439,-95.215,-32.715,-22.949,-212.402,0.000
1606140143.443,-116.211,-36.133,-23.926,-307.617,0.000
1606140143.446,-28.809,-32.227,-12.207,-6.836,0.000
1606140143.450,46.387,-26.367,-15.137,260.254,0.000
1606140143.454,1.465,-31.738,-29.785,149.414,0.000
1606140143.458,-103.516,-34.668,-38.086,-197.266,0.000
1606140143.462,-126.953,-29.785,-35.156,-308.594,0.000
1606140143.466,-41.504,-24.414,-26.855,-52.246,0.000
1606140143.470,45.898,-26.367,-24.902,230.469,0.000
1606140143.474,34.180,-16.113,-30.273,182.617,0.000
1606140143.478,-60.547,-7.812,-28.320,-146.484,0.000
1606140143.482,-99.609,-27.344,-31.250,-310.059,0.000
1606140143.485,-24.414,-20.996,-33.203,-89.355,0.000
1606140143.489,63.965,-17.090,-29.297,227.051,0.000
1606140143.493,53.223,-21.484,-32.227,229.492,0.000
1606140143.497,-55.176,-29.297,-37.598,-108.887,0.000
1606140143.501,-122.070,-42.480,-37.598,-329.590,0.000
1606140143.505,-58.105,-28.809,-40.039,-144.531,0.000
1606140143.509,45.898,-13.672,-38.574,195.312,0.000
1606140143.513,49.805,-13.672,-24.414,238.281,0.000
1606140143.517,-46.387,-19.531,-26.855,-66.895,0.000
1606140143.521,-118.652,-31.738,-36.133,-315.430,0.000
1606140143.525,-71.777,-30.273,-27.832,-186.523,0.000
1606140143.528,39.062,-26.855,-12.695,168.457,0.000
1606140143.532,52.246,-28.320,-16.602,257.324,0.000
1606140143.536,-38.086,-31.738,-30.273,-34.180,0.000
1606140143.540,-108.398,-36.621,-27.832,-305.176,0.000
1606140143.544,-85.938,-38.086,-26.367,-219.238,0.000
1606140143.548,15.137,-35.156,-26.855,127.930,0.000
1606140143.552,50.781,-25.391,-19.531,270.508,0.000
1606140143.556,-21.973,-19.531,-22.461,35.156,0.000
1606140143.560,-101.074,-24.902,-37.598,-265.625,0.000
1606140143.564,-81.055,-27.832,-33.691,-239.746,0.000
1606140143.568,10.742,-22.461,-13.184,94.238,0.000
1606140143.571,41.016,-21.973,-17.090,263.672,0.000
1606140143.575,-20.996,-29.297,-20.508,55.176,0.000
1606140143.579,-103.027,-38.574,-27.832,-264.648,0.000
1606140143.583,-104.980,-42.480,-39.551,-281.250,0.000
1606140143.587,-10.742,-33.691,-30.762,56.641,0.000
1606140143.591,55.176,-29.297,-29.297,286.133,0.000
1606140143.595,6.348,-29.297,-25.879,126.465,0.000
1606140143.599,-87.402,-30.273,-20.508,-213.379,0.000
1606140143.603,-94.727,-35.156,-25.391,-280.762,0.000
1606140143.607,-1.953,-37.109,-35.156,17.090,0.000
1606140143.610,66.895,-31.250,-25.391,268.066,0.000
1606140143.614,26.367,-30.273,-24.414,151.855,0.000
1606140143.618,-80.078,-37.598,-33.691,-211.914,0.000
1606140143.622,-103.027,-35.156,-35.645,-327.148,0.000
1606140143.626,-11.230,-29.785,-35.156,-45.898,0.000
1606140143.630,70.801,-32.227,-29.785,245.117,0.000
1606140143.634,42.480,-35.156,-32.227,179.199,0.000
1606140143.638,-60.059,-32.715,-31.738,-178.223,0.000
1606140143.642,-101.074,-34.668,-26.367,-341.797,0.000
1606140143.646,-28.320,-32.715,-23.926,-103.027,0.000
1606140143.650,65.918,-27.832,-20.508,227.539,0.000
1606140143.653,56.152,-24.902,-20.508,217.285,0.000
1606140143.657,-53.711,-31.250,-33.691,-144.531,0.000
1606140143.661,-111.816,-37.598,-38.574,-355.469,0.000
1606140143.665,-48.828,-38.086,-33.691,-134.766,0.000
1606140143.669,53.711,-36.621,-28.809,226.074,0.000
1606140143.673,54.688,-30.762,-22.461,251.465,0.000
1606140143.677,-40.527,-27.344,-21.484,-83.008,0.000
1606140143.681,-110.840,-30.273,-20.508,-318.848,0.000
1606140143.685,-67.383,-32.227,-14.648,-162.598,0.000
1606140143.689,35.645,-32.227,-21.973,186.523,0.000
1606140143.693,44.434,-27.832,-30.273,270.020,0.000
1606140143.696,-59.082,-31.738,-30.762,-32.227,0.000
1606140143.700,-138.672,-41.016,-28.320,-317.871,0.000
1606140143.704,-89.844,-35.645,-31.738,-218.750,0.000
1606140143.708,22.949,-23.438,-26.855,148.438,0.000
1606140143.712,57.617,-16.602,-21.973,282.715,0.000
1606140143.716,-25.879,-19.531,-27.344,2.930,0.000
1606140143.720,-114.746,-25.879,-29.297,-311.523,0.000
1606140143.724,-88.379,-37.598,-27.344,-258.789,0.000
1606140143.728,31.250,-33.203,-18.555,112.305,0.000
1606140143.732,81.543,-18.066,-21.484,288.086,0.000
1606140143.735,-3.418,-25.879,-35.156,39.551,0.000
1606140143.739,-100.098,-33.691,-50.781,-289.062,0.000
1606140143.743,-80.078,-20.996,-47.852,-269.043,0.000
1606140143.747,24.902,-8.789,-30.273,80.566,0.000
1606140143.751,72.754,-17.578,-23.926,281.738,0.000
1606140143.755,11.719,-32.227,-29.297,90.820,0.000
1606140143.759,-86.914,-36.133,-32.227,-250.488,0.000
1606140143.763,-90.820,-33.691,-37.109,-297.852,0.000
1606140143.767,12.695,-31.250,-38.574,24.902,0.000
1606140143.771,78.613,-25.879,-30.273,282.715,0.000
1606140143.775,29.297,-23.926,-21.484,148.926,0.000
1606140143.778,-73.730,-20.508,-24.902,-210.938,0.000
1606140143.782,-100.098,-23.926,-41.016,-316.406,0.000
1606140143.786,-11.719,-25.391,-49.316,-27.344,0.000
1606140143.790,69.824,-17.578,-40.039,264.160,0.000
1606140143.794,26.855,-24.414,-30.762,171.875,0.000
1606140143.798,-84.961,-35.645,-37.109,-184.570,0.000
1606140143.802,-111.328,-37.109,-36.621,-313.477,0.000
1606140143.806,-26.367,-37.109,-23.438,-50.293,0.000
1606140143.810,57.129,-36.133,-21.484,261.230,0.000
1606140143.814,31.250,-30.273,-27.832,216.309,0.000
1606140143.818,-71.777,-40.527,-33.203,-133.301,0.000
1606140143.821,-113.281,-45.410,-36.133,-311.035,0.000
1606140143.825,-39.551,-30.762,-32.227,-88.379,0.000
1606140143.829,59.570,-24.414,-21.973,240.234,0.000
1606140143.833,57.129,-26.855,-18.555,248.535,0.000
1606140143.837,-41.504,-26.367,-27.344,-80.078,0.000
1606140143.841,-105.957,-30.762,-33.691,-299.805,0.000
1606140143.845,-41.992,-35.156,-25.879,-138.184,0.000
1606140143.849,62.500,-26.855,-25.879,199.219,0.000
1606140143.853,59.082,-21.973,-27.832,254.883,0.000
1606140143.857,-39.062,-32.227,-28.809,-60.547,0.000
1606140143.860,-99.609,-28.809,-26.855,-312.012,0.000
1606140143.864,-50.293,-15.137,-23.926,-186.523,0.000
1606140143.868,46.875,-18.066,-27.832,157.715,0.000
1606140143.872,66.895,-24.902,-26.367,255.371,0.000
1606140143.876,-28.320,-28.809,-36.133,-32.227,0.000
1606140143.880,-107.422,-31.738,-33.691,-314.453,0.000
1606140143.884,-70.801,-28.320,-26.367,-230.469,0.000
1606140143.888,21.973,-24.902,-32.227,112.793,0.000
1606140143.892,55.664,-27.344,-23.926,259.766,0.000
1606140143.896,-16.113,-32.227,-22.949,23.438,0.000
1606140143.900,-99.609,-32.715,-31.738,-279.785,0.000
1606140143.903,-80.078,-31.738,-23.438,-251.465,0.000
1606140143.907,18.066,-18.555,-16.602,84.473,0.000
1606140143.911,60.059,-14.160,-21.973,256.836,0.000
1606140143.915,-6.348,-23.438,-21.484,57.129,0.000
1606140143.919,-97.656,-28.809,-27.344,-260.254,0.000
1606140143.923,-100.098,-34.668,-25.879,-287.109,0.000
1606140143.927,-3.418,-32.715,-19.531,45.410,0.000
1606140143.931,57.129,-30.762,-30.273,281.250,0.000
1606140143.935,-1.953,-33.203,-36.133,118.164,0.000
1606140143.939,-107.910,-38.086,-29.297,-233.887,0.000
1606140143.943,-115.723,-36.621,-27.344,-303.223,0.000
1606140143.946,-21.484,-33.203,-29.297,-9.766,0.000
1606140143.950,49.316,-28.809,-24.414,244.141,0.000
1606140143.954,12.695,-24.414,-22.461,143.066,0.000
1606140143.958,-93.262,-29.297,-32.715,-208.496,0.000
1606140143.962,-117.188,-34.180,-30.762,-321.777,0.000
1606140143.966,-41.992,-30.273,-22.461,-46.875,0.000
1606140143.970,37.109,-23.926,-16.602,239.746,0.000
1606140143.974,15.625,-26.855,-11.719,181.152,0.000
1606140143.978,-89.844,-34.180,-22.949,-163.574,0.000
1606140143.982,-129.883,-40.039,-31.738,-333.008,0.000
1606140143.985,-52.734,-39.551,-24.414,-107.910,0.000
1606140143.989,45.898,-26.855,-17.578,214.844,0.000
1606140143.993,37.598,-20.020,-20.020,211.914,0.000
1606140143.997,-73.730,-25.879,-26.855,-131.836,0.000
1606140144.001,-131.348,-30.762,-35.156,-344.238,0.000
1606140144.005,-67.383,-24.414,-21.973,-155.762,0.000
1606140144.009,35.645,-24.902,-11.230,186.523,0.000
1606140144.013,41.992,-27.344,-23.926,225.586,0.000
1606140144.017,-63.477,-28.809,-29.297,-97.656,0.000
1606140144.021,-131.348,-35.645,-31.738,-335.938,0.000
1606140144.025,-77.637,-31.738,-28.320,-181.641,0.000
1606140144.028,25.879,-25.879,-28.809,170.898,0.000
1606140144.032,43.945,-24.902,-28.809,250.977,0.000
1606140144.036,-45.410,-33.203,-27.832,-50.293,0.000
1606140144.040,-121.094,-36.621,-36.621,-329.590,0.000
1606140144.044,-87.891,-34.180,-35.645,-238.281,0.000
1606140144.048,16.602,-28.320,-25.391,116.211,0.000
1606140144.052,41.504,-28.809,-26.367,242.188,0.000
1606140144.056,-37.109,-23.926,-41.016,-23.926,0.000
1606140144.060,-111.328,-23.926,-52.734,-313.477,0.000
1606140144.064,-102.051,-32.227,-41.016,-269.531,0.000
1606140144.068,-8.789,-28.809,-28.320,75.195,0.000
1606140144.071,38.574,-22.461,-20.020,260.254,0.000
1606140144.075,-30.273,-22.949,-16.113,44.922,0.000
1606140144.079,-114.258,-39.062,-26.855,-266.602,0.000
1606140144.083,-93.262,-39.551,-25.879,-251.953,0.000
1606140144.087,20.508,-31.738,-22.461,93.750,0.000
1606140144.091,88.867,-33.203,-26.367,314.453,0.000
1606140144.095,39.062,-28.320,-26.367,145.020,0.000
1606140144.099,-53.711,-36.133,-30.762,-196.289,0.000
1606140144.103,-47.852,-38.086,-28.809,-240.723,0.000
1606140144.107,62.012,-29.297,-20.020,85.938,0.000
1606140144.110,122.559,-29.297,-24.902,332.520,0.000
1606140144.114,66.895,-22.461,-26.855,205.566,0.000
1606140144.118,-30.273,-22.949,-31.250,-137.695,0.000
1606140144.122,-50.781,-28.320,-34.180,-246.094,0.000
1606140144.126,35.156,-29.297,-25.391,32.715,0.000
1606140144.130,122.559,-20.996,-16.113,313.477,0.000
1606140144.134,89.844,-36.133,-22.461,228.027,0.000
1606140144.138,-20.508,-53.223,-29.785,-125.977,0.000
1606140144.142,-53.711,-35.156,-31.250,-261.719,0.000
1606140144.146,24.414,-27.344,-29.785,-11.719,0.000
1606140144.150,110.840,-23.926,-20.996,289.062,0.000
1606140144.153,91.309,-28.320,-16.602,255.859,0.000
1606140144.157,-19.531,-39.062,-24.414,-101.074,0.000
1606140144.161,-65.918,-36.621,-24.414,-287.598,0.000
1606140144.165,3.906,-30.762,-23.438,-70.312,0.000
1606140144.169,93.262,-25.391,-29.297,254.395,0.000
1606140144.173,86.426,-27.832,-28.809,272.949,0.000
1606140144.177,-19.531,-36.621,-36.133,-57.617,0.000
1606140144.181,-87.891,-36.621,-36.133,-286.621,0.000
1606140144.185,-33.691,-31.738,-29.785,-122.070,0.000
1606140144.189,64.941,-31.250,-21.484,215.820,0.000
1606140144.193,62.012,-33.691,-22.461,270.020,0.000
1606140144.196,-39.062,-37.598,-30.273,-34.668,0.000
1606140144.200,-99.121,-38.086,-29.785,-282.715,0.000
1606140144.204,-54.688,-31.250,-26.367,-166.992,0.000
1606140144.208,59.570,-29.297,-23.438,184.570,0.000
1606140144.212,84.473,-22.949,-25.879,297.363,0.000
1606140144.216,-17.090,-7.324,-29.297,20.996,0.000
1606140144.220,-102.051,-20.508,-35.645,-278.809,0.000
1606140144.224,-77.637,-38.086,-34.180,-228.516,0.000
1606140144.228,34.180,-30.273,-20.508,129.883,0.000
1606140144.232,70.801,-19.043,-25.391,282.715,0.000
1606140144.235,-11.230,-29.297,-29.785,39.551,0.000
1606140144.239,-100.586,-40.039,-32.227,-270.020,0.000
1606140144.243,-83.496,-34.180,-34.668,-248.535,0.000
1606140144.247,16.113,-32.715,-35.645,85.449,0.000
1606140144.251,57.617,-28.320,-31.738,271.484,0.000
1606140144.255,-8.301,-27.832,-23.438,79.590,0.000
1606140144.259,-94.727,-25.879,-23.438,-238.281,0.000
1606140144.263,-103.027,-26.855,-24.414,-274.902,0.000
1606140144.267,-15.137,-33.203,-23.438,25.391,0.000
1606140144.271,41.016,-31.738,-25.879,246.094,0.000
1606140144.275,-10.742,-29.785,-31.738,103.516,0.000
1606140144.278,-105.469,-37.109,-32.715,-236.816,0.000
1606140144.282,-124.023,-44.434,-26.855,-314.941,0.000
1606140144.286,-35.156,-39.062,-30.762,-20.020,0.000
1606140144.290,49.316,-33.203,-25.391,250.977,0.000
1606140144.294,20.508,-37.109,-17.578,152.832,0.000
1606140144.298,-87.891,-37.598,-21.973,-198.242,0.000
1606140144.302,-117.188,-35.645,-28.320,-314.453,0.000
1606140144.306,-25.391,-23.926,-23.926,-43.457,0.000
1606140144.310,55.664,-16.113,-15.625,245.117,0.000
1606140144.314,20.508,-25.879,-24.902,180.664,0.000
1606140144.318,-82.031,-26.855,-36.621,-161.621,0.000
1606140144.321,-117.188,-26.367,-38.574,-321.777,0.000
1606140144.325,-34.668,-28.809,-31.738,-103.027,0.000
1606140144.329,55.664,-30.273,-28.809,212.891,0.000
1606140144.333,38.574,-31.738,-30.273,206.055,0.000
1606140144.337,-57.129,-30.273,-30.273,-125.488,0.000
1606140144.341,-109.375,-30.273,-36.621,-324.707,0.000
1606140144.345,-45.410,-26.855,-37.109,-135.254,0.000
1606140144.349,52.734,-22.949,-34.180,206.055,0.000
1606140144.353,54.688,-23.438,-30.762,248.535,0.000
1606140144.357,-47.363,-26.855,-26.367,-73.242,0.000
1606140144.360,-120.117,-31.250,-36.133,-327.637,0.000
1606140144.364,-67.383,-32.715,-39.551,-192.871,0.000
1606140144.368,36.133,-27.832,-34.180,164.551,0.000
1606140144.372,52.734,-20.996,-27.832,255.859,0.000
1606140144.376,-30.762,-21.484,-26.367,-25.879,0.000
1606140144.380,-116.211,-24.902,-33.203,-306.641,0.000
1606140144.384,-89.844,-25.879,-33.691,-230.469,0.000
1606140144.388,17.090,-26.367,-29.785,123.047,0.000
1606140144.392,46.875,-25.391,-32.715,258.301,0.000
1606140144.396,-33.203,-25.879,-34.668,9.277,0.000
1606140144.400,-117.676,-29.785,-36.621,-291.992,0.000
1606140144.403,-96.191,-34.180,-33.691,-263.184,0.000
1606140144.407,11.230,-30.762,-28.809,84.961,0.000
1606140144.411,52.734,-24.902,-29.785,272.949,0.000
1606140144.415,-18.066,-30.762,-35.645,57.129,0.000
1606140144.419,-114.746,-37.109,-46.875,-280.273,0.000
1606140144.423,-106.934,-35.645,-44.434,-301.758,0.000
1606140144.427,-4.395,-28.809,-30.762,45.410,0.000
1606140144.431,49.805,-26.367,-25.391,279.785,0.000
1606140144.435,-7.812,-9.277,-24.902,106.445,0.000
1606140144.439,-108.398,-7.324,-29.785,-251.953,0.000
1606140144.443,-117.676,-31.738,-37.109,-317.383,0.000
1606140144.446,-10.254,-31.250,-27.344,14.648,0.000
1606140144.450,66.406,-23.926,-14.160,277.832,0.000
1606140144.454,20.020,-16.602,-23.438,144.043,0.000
1606140144.458,-92.285,-26.855,-38.574,-221.680,0.000
1606140144.462,-119.141,-36.621,-28.320,-326.172,0.000
1606140144.466,-26.855,-24.414,-14.648,-33.203,0.000
1606140144.470,49.805,-18.066,-19.043,251.953,0.000
1606140144.474,14.160,-19.043,-23.926,165.527,0.000
1606140144.478,-95.215,-32.227,-30.762,-198.242,0.000
1606140144.482,-135.742,-40.527,-35.645,-343.262,0.000
1606140144.485,-55.664,-32.227,-35.645,-94.238,0.000
1606140144.489,31.250,-29.785,-27.832,215.820,0.000
1606140144.493,20.020,-24.902,-22.461,197.266,0.000
1606140144.497,-79.590,-25.879,-25.879,-146.973,0.000
1606140144.501,-132.324,-44.922,-20.996,-334.961,0.000
1606140144.505,-49.805,-42.969,-28.320,-124.512,0.000
1606140144.509,54.199,-25.391,-29.297,204.102,0.000
1606140144.513,25.391,-22.461,-26.855,191.406,0.000
1606140144.517,-87.402,-23.926,-36.621,-158.691,0.000
1606140144.521,-144.531,-21.973,-42.969,-384.277,0.000
1606140144.525,-96.680,-18.555,-51.270,-231.934,0.000
1606140144.528,0.488,-13.672,-55.176,104.004,0.000
1606140144.532,15.137,-7.324,-52.246,175.293,0.000
1606140144.536,-58.105,-5.371,-51.270,-95.703,0.000
1606140144.540,-116.699,-9.766,-59.082,-351.074,0.000
1606140144.544,-84.473,-15.137,-64.941,-253.906,0.000
1606140144.548,11.230,-14.648,-49.805,102.539,0.000
1606140144.552,43.457,-3.418,-38.086,229.980,0.000
1606140144.556,-31.250,-6.348,-39.551,-21.973,0.000
1606140144.560,-100.098,-20.020,-39.551,-306.641,0.000
1606140144.564,-74.219,-24.902,-47.852,-244.141,0.000
1606140144.568,29.785,-23.926,-44.434,102.539,0.000
1606140144.571,84.961,-18.066,-33.203,265.137,0.000
1606140144.575,3.906,-22.949,-31.738,39.062,0.000
1606140144.579,-79.102,-28.320,-31.738,-271.973,0.000
1606140144.583,-66.895,-23.438,-39.551,-256.348,0.000
1606140144.587,17.578,-15.625,-36.133,86.426,0.000
1606140144.591,72.754,-17.090,-37.109,277.344,0.000
1606140144.595,6.348,-10.742,-39.062,76.660,0.000
1606140144.599,-97.168,-19.531,-36.621,-260.254,0.000
1606140144.603,-91.797,-39.062,-34.668,-296.875,0.000
1606140144.607,1.953,-37.109,-30.762,17.578,0.000
1606140144.610,61.035,-27.832,-30.273,246.094,0.000
1606140144.614,20.996,-24.902,-27.344,105.957,0.000
1606140144.618,-79.590,-30.762,-36.621,-231.934,0.000
1606140144.622,-105.957,-36.133,-38.086,-305.664,0.000
1606140144.626,-17.578,-38.086,-29.785,-19.531,0.000
1606140144.630,51.758,-32.715,-24.902,244.141,0.000
1606140144.634,19.043,-2.441,-22.461,159.668,0.000
1606140144.638,-78.613,-0.488,-29.297,-184.570,0.000
1606140144.642,-107.910,-30.762,-23.926,-306.641,0.000
1606140144.646,-26.855,-31.738,-17.578,-56.152,0.000
1606140144.650,55.664,-27.344,-29.297,227.051,0.000
1606140144.653,27.344,-29.297,-36.621,180.176,0.000
1606140144.657,-65.430,-30.273,-27.344,-148.926,0.000
1606140144.661,-104.004,-35.156,-31.250,-317.871,0.000
1606140144.665,-39.551,-33.691,-38.574,-102.539,0.000
1606140144.669,58.105,-23.438,-26.367,229.004,0.000
1606140144.673,51.758,-20.996,-20.508,231.445,0.000
1606140144.677,-49.805,-23.438,-23.926,-99.609,0.000
1606140144.681,-102.051,-21.484,-27.832,-304.688,0.000
1606140144.685,-42.969,-23.926,-25.879,-135.254,0.000
1606140144.689,41.504,-34.180,-29.297,183.105,0.000
1606140144.693,41.992,-19.043,-29.297,227.051,0.000
1606140144.696,-46.387,0.000,-23.438,-78.125,0.000
1606140144.700,-117.676,-20.996,-38.086,-324.219,0.000
1606140144.704,-74.219,-30.273,-43.457,-196.777,0.000
1606140144.708,31.250,-23.926,-34.180,149.902,0.000
1606140144.712,46.875,-21.484,-29.785,252.930,0.000
1606140144.716,-47.363,-27.344,-32.715,-32.715,0.000
1606140144.720,-120.605,-33.691,-33.691,-321.777,0.000
1606140144.724,-75.684,-30.762,-26.855,-219.238,0.000
1606140144.728,27.344,-26.855,-21.484,150.879,0.000
1606140144.732,48.828,-18.555,-16.602,273.438,0.000
1606140144.735,-31.250,-9.277,-18.555,20.020,0.000
1606140144.739,-116.699,-20.996,-25.391,-291.016,0.000
1606140144.743,-100.586,-33.691,-37.109,-262.207,0.000
1606140144.747,6.836,-28.320,-28.320,87.891,0.000
1606140144.751,57.617,-28.320,-16.602,278.320,0.000
1606140144.755,-16.602,-32.715,-30.762,65.430,0.000
1606140144.759,-117.676,-40.039,-37.109,-272.949,0.000
1606140144.763,-116.211,-42.969,-35.156,-291.016,0.000
1606140144.767,-8.301,-30.762,-26.367,42.969,0.000
1606140144.771,57.129,-20.508,-18.066,274.414,0.000
1606140144.775,12.695,-25.879,-16.602,126.953,0.000
1606140144.778,-81.543,-38.574,-19.043,-225.098,0.000
1606140144.782,-104.004,-38.086,-30.273,-305.664,0.000
1606140144.786,-10.254,-33.203,-32.715,1.465,0.000
1606140144.790,58.594,-33.203,-25.391,262.207,0.000
1606140144.794,11.230,-32.227,-27.344,142.578,0.000
1606140144.798,-95.703,-33.203,-30.762,-219.727,0.000
1606140144.802,-115.234,-34.180,-35.156,-336.914,0.000
1606140144.806,-19.043,-28.809,-39.551,-46.875,0.000
1606140144.810,59.570,-27.832,-32.227,248.535,0.000
1606140144.814,26.855,-31.250,-23.438,172.363,0.000
1606140144.818,-87.402,-31.250,-31.250,-186.035,0.000
1606140144.821,-133.789,-30.273,-45.898,-349.609,0.000
1606140144.825,-56.152,-25.879,-38.086,-103.027,0.000
1606140144.829,30.273,-19.531,-29.785,210.938,0.000
1606140144.833,19.043,-28.320,-25.391,193.359,0.000
1606140144.837,-76.660,-37.598,-22.461,-144.531,0.000
1606140144.841,-127.441,-34.668,-35.645,-338.379,0.000
1606140144.845,-59.082,-29.785,-40.527,-136.230,0.000
1606140144.849,35.156,-21.973,-31.738,198.242,0.000
1606140144.853,36.621,-28.320,-30.273,236.816,0.000
1606140144.857,-61.523,-38.574,-36.621,-95.703,0.000
1606140144.860,-120.117,-39.062,-37.109,-325.684,0.000
1606140144.864,-57.617,-33.691,-32.715,-161.133,0.000
1606140144.868,43.945,-26.367,-32.227,197.754,0.000
1606140144.872,56.641,-28.809,-38.574,271.484,0.000
1606140144.876,-37.598,-34.668,-37.598,-45.898,0.000
1606140144.880,-113.770,-30.762,-31.250,-315.918,0.000
1606140144.884,-67.383,-27.832,-24.414,-206.543,0.000
1606140144.888,35.156,-24.902,-24.414,146.484,0.000
1606140144.892,47.852,-23.926,-25.391,267.090,0.000
1606140144.896,-26.367,-28.320,-25.879,5.859,0.000
1606140144.900,-90.332,-27.344,-27.344,-279.785,0.000
1606140144.903,-81.055,-26.367,-27.832,-244.629,0.000
1606140144.907,11.719,-19.043,-25.879,87.402,0.000
1606140144.911,62.012,-16.602,-25.391,265.137,0.000
1606140144.915,-20.020,-24.902,-29.297,31.738,0.000
1606140144.919,-117.676,-28.809,-27.344,-299.805,0.000
1606140144.923,-105.469,-28.809,-26.367,-283.203,0.000
1606140144.927,-9.766,-28.809,-30.762,57.617,0.000
1606140144.931,45.898,-22.949,-27.344,255.859,0.000
1606140144.935,-11.230,-21.484,-23.438,72.754,0.000
1606140144.939,-99.609,-25.391,-28.320,-259.277,0.000
1606140144.943,-102.051,-27.344,-29.297,-300.293,0.000
1606140144.946,-20.996,-25.879,-22.949,12.695,0.000
1606140144.950,38.086,-29.297,-22.949,247.559,0.000
1606140144.954,-17.578,-35.156,-36.133,101.562,0.000
1606140144.958,-105.957,-30.762,-40.527,-238.281,0.000
1606140144.962,-116.211,-29.297,-39.551,-309.570,0.000
1606140144.966,-26.855,-26.367,-35.645,-17.090,0.000
1606140144.970,52.246,-23.926,-28.809,242.676,0.000
1606140144.974,11.719,-22.949,-30.273,138.672,0.000
1606140144.978,-92.285,-24.902,-33.203,-201.172,0.000
1606140144.982,-116.211,-23.926,-31.250,-317.871,0.000
1606140144.985,-29.297,-20.020,-25.391,-56.641,0.000
1606140144.989,48.340,-20.508,-23.926,229.004,0.000
1606140144.993,23.438,-21.973,-25.879,178.711,0.000
1606140144.997,-75.195,-22.461,-27.832,-160.156,0.000
1606140145.001,-111.328,-25.879,-30.762,-330.566,0.000
1606140145.005,-37.109,-26.855,-24.414,-106.934,0.000
1606140145.009,52.734,-23.438,-22.949,217.285,0.000
1606140145.013,37.598,-22.949,-28.320,217.773,0.000
1606140145.017,-60.059,-25.879,-31.250,-119.141,0.000
1606140145.021,-117.676,-31.738,-38.574,-341.309,0.000
1606140145.025,-70.801,-28.809,-33.691,-158.691,0.000
1606140145.028,34.180,-29.785,-21.973,187.012,0.000
1606140145.032,35.156,-33.203,-18.066,234.375,0.000
1606140145.036,-59.082,-34.180,-21.973,-79.102,0.000
1606140145.040,-118.652,-39.062,-24.902,-324.219,0.000
1606140145.044,-79.590,-31.250,-20.508,-188.965,0.000
1606140145.048,20.996,-27.832,-16.602,162.109,0.000
1606140145.052,35.645,-31.738,-25.879,260.742,0.000
1606140145.056,-48.340,-26.855,-36.133,-11.230,0.000
1606140145.060,-126.465,-33.691,-32.227,-295.410,0.000
1606140145.064,-98.145,-38.574,-28.809,-230.469,0.000
1606140145.068,11.230,-31.738,-20.996,128.418,0.000
1606140145.071,43.945,-28.320,-19.043,270.996,0.000
1606140145.075,-27.832,-24.902,-28.809,22.949,0.000
1606140145.079,-108.398,-33.203,-32.715,-285.645,0.000
1606140145.083,-94.727,-34.668,-30.762,-260.742,0.000
1606140145.087,7.812,-20.996,-30.762,88.867,0.000
1606140145.091,52.734,-19.043,-32.715,270.020,0.000
1606140145.095,-20.508,-27.344,-32.715,50.781,0.000
1606140145.099,-108.398,-31.250,-27.832,-272.461,0.000
1606140145.103,-94.238,-29.297,-25.391,-275.391,0.000
1606140145.107,-2.930,-33.203,-33.691,37.598,0.000
1606140145.110,45.898,-29.785,-31.738,247.070,0.000
1606140145.114,-4.883,-24.902,-24.902,91.309,0.000
1606140145.118,-98.633,-29.297,-28.320,-244.141,0.000
1606140145.122,-110.840,-31.738,-34.180,-308.105,0.000
1606140145.126,-20.508,-30.762,-36.133,-4.883,0.000
1606140145.130,56.641,-20.508,-31.738,257.324,0.000
1606140145.134,20.508,-18.066,-26.367,152.832,0.000
1606140145.138,-85.449,-32.715,-26.367,-200.195,0.000
1606140145.142,-106.934,-34.668,-21.484,-300.781,0.000
1606140145.146,-24.902,-28.320,-19.531,-20.996,0.000
1606140145.150,44.922,-31.250,-25.391,258.301,0.000
1606140145.153,9.277,-40.039,-25.391,184.082,0.000
1606140145.157,-96.680,-43.457,-26.367,-176.758,0.000
1606140145.161,-133.301,-38.574,-34.668,-334.473,0.000
1606140145.165,-54.688,-31.738,-31.738,-93.262,0.000
1606140145.169,38.086,-27.344,-24.414,219.238,0.000
1606140145.173,18.555,-26.367,-25.879,196.289,0.000
1606140145.177,-75.684,-30.273,-31.250,-143.555,0.000
1606140145.181,-115.234,-30.273,-28.320,-326.172,0.000
1606140145.185,-60.059,-26.855,-23.438,-125.488,0.000
1606140145.189,36.621,-26.855,-20.020,202.637,0.000
1606140145.193,42.480,-21.484,-16.113,243.652,0.000
1606140145.196,-56.641,-24.902,-30.762,-76.172,0.000
1606140145.200,-120.605,-36.133,-34.668,-317.383,0.000
1606140145.204,-61.035,-34.180,-23.438,-165.039,0.000
1606140145.208,41.016,-26.367,-23.438,171.387,0.000
1606140145.212,55.176,-22.949,-25.879,244.141,0.000
1606140145.216,-32.715,-22.461,-26.367,-46.387,0.000
1606140145.220,-105.957,-26.855,-24.414,-311.035,0.000
1606140145.224,-69.336,-21.484,-20.996,-208.008,0.000
1606140145.228,26.855,-19.043,-19.531,138.672,0.000
1606140145.232,49.805,-24.902,-22.949,256.836,0.000
1606140145.235,-30.762,-20.996,-27.832,2.930,0.000
1606140145.239,-117.188,-21.973,-34.668,-290.527,0.000
1606140145.243,-94.238,-19.531,-28.320,-231.934,0.000
1606140145.247,11.230,-20.020,-24.902,115.723,0.000
1606140145.251,57.129,-21.973,-21.484,270.508,0.000
1606140145.255,-15.137,-2.930,-18.066,47.363,0.000
1606140145.259,-109.863,-6.836,-26.367,-263.184,0.000
1606140145.263,-104.980,-31.250,-33.203,-263.672,0.000
1606140145.267,-7.324,-28.320,-32.715,60.547,0.000
1606140145.271,44.922,-27.832,-28.320,265.137,0.000
1606140145.275,-20.508,-31.250,-26.855,87.402,0.000
1606140145.278,-118.164,-38.086,-25.879,-250.977,0.000
1606140145.282,-117.676,-41.016,-24.902,-295.898,0.000
1606140145.286,-12.695,-32.227,-16.602,25.879,0.000
1606140145.290,60.059,-26.855,-13.672,270.508,0.000
1606140145.294,2.441,-24.902,-20.508,127.930,0.000
1606140145.298,-100.586,-23.438,-23.926,-223.145,0.000
1606140145.302,-115.234,-26.855,-34.668,-324.219,0.000
1606140145.306,-21.973,-20.020,-30.273,-32.227,0.000
1606140145.310,54.688,-19.531,-24.414,244.629,0.000
1606140145.314,20.508,-27.832,-25.879,153.320,0.000
1606140145.318,-77.637,-30.273,-26.855,-186.523,0.000
1606140145.321,-115.234,-30.273,-30.273,-321.289,0.000
1606140145.325,-44.434,-27.832,-36.133,-71.289,0.000
1606140145.329,41.016,-21.484,-32.715,225.098,0.000
1606140145.333,23.438,-21.973,-32.715,184.570,0.000
1606140145.337,-78.613,-24.902,-31.250,-150.879,0.000
1606140145.341,-119.629,-35.156,-30.762,-337.402,0.000
1606140145.345,-48.828,-36.621,-27.832,-129.395,0.000
1606140145.349,44.922,-22.461,-26.367,203.613,0.000
1606140145.353,41.504,-11.230,-28.809,220.703,0.000
1606140145.357,-66.895,-19.043,-37.109,-115.234,0.000
1606140145.360,-125.488,-34.668,-44.434,-345.703,0.000
1606140145.364,-61.035,-30.762,-35.645,-168.945,0.000
1606140145.368,37.598,-26.855,-32.227,187.012,0.000
1606140145.372,45.410,-25.391,-25.879,248.535,0.000
1606140145.376,-59.082,-26.855,-21.484,-60.547,0.000
1606140145.380,-134.766,-35.645,-27.832,-318.848,0.000
1606140145.384,-85.449,-37.109,-37.598,-199.219,0.000
1606140145.388,17.090,-25.391,-37.598,150.391,0.000
1606140145.392,42.480,-19.531,-36.621,255.859,0.000
1606140145.396,-41.016,-32.227,-36.621,-22.949,0.000
1606140145.400,-120.605,-38.574,-39.062,-314.941,0.000
1606140145.403,-91.797,-34.668,-40.039,-246.582,0.000
1606140145.407,13.184,-33.203,-28.320,113.281,0.000
1606140145.411,46.387,-29.297,-21.973,263.184,0.000
1606140145.415,-37.598,-34.668,-22.949,16.602,0.000
1606140145.419,-126.465,-36.621,-27.344,-299.316,0.000
1606140145.423,-108.887,-33.203,-31.250,-278.320,0.000
1606140145.427,-0.977,-26.855,-26.855,79.590,0.000
1606140145.431,51.758,-22.461,-22.949,281.250,0.000
1606140145.435,-18.555,-19.043,-34.180,68.848,0.000
1606140145.439,-119.141,-31.250,-42.969,-289.551,0.000
1606140145.443,-120.117,-46.387,-37.598,-321.777,0.000
1606140145.446,-17.090,-43.945,-38.574,25.391,0.000
1606140145.450,49.316,-40.527,-41.504,259.766,0.000
1606140145.454,-8.789,-41.992,-42.480,95.215,0.000
1606140145.458,-117.676,-45.898,-37.598,-258.301,0.000
1606140145.462,-128.906,-41.016,-32.227,-324.707,0.000
1606140145.466,-31.738,-36.133,-33.203,-12.695,0.000
1606140145.470,42.480,-29.785,-30.273,259.277,0.000
1606140145.474,8.301,-28.320,-28.320,151.855,0.000
1606140145.478,-89.355,-32.227,-33.203,-206.055,0.000
1606140145.482,-113.281,-39.551,-39.551,-326.172,0.000
1606140145.485,-23.438,-39.551,-31.738,-58.105,0.000
1606140145.489,59.570,-36.621,-21.484,239.258,0.000
1606140145.493,32.715,-26.855,-20.020,192.383,0.000
1606140145.497,-70.312,-17.578,-27.344,-159.180,0.000
1606140145.501,-105.469,-27.832,-40.039,-316.895,0.000
1606140145.505,-28.809,-32.227,-29.785,-77.148,0.000
1606140145.509,42.480,-24.414,-14.648,219.238,0.000
1606140145.513,10.254,-29.297,-17.578,187.988,0.000
1606140145.517,-84.961,-40.527,-20.020,-147.949,0.000
1606140145.521,-127.441,-43.457,-20.020,-337.402,0.000
1606140145.525,-72.266,-40.039,-13.184,-145.996,0.000
1606140145.528,17.578,-40.039,-6.836,183.105,0.000
1606140145.532,13.184,-44.922,2.441,204.102,0.000
1606140145.536,-88.867,-44.434,11.719,-125.488,0.000
1606140145.540,-157.715,-55.176,-6.836,-354.492,0.000
1606140145.544,-117.676,-62.988,-6.836,-206.543,0.000
1606140145.548,-17.578,-55.176,11.230,141.113,0.000
1606140145.552,-4.883,-52.246,14.160,220.215,0.000
1606140145.556,-85.449,-52.734,4.395,-71.289,0.000
1606140145.560,-157.715,-62.500,-7.812,-332.031,0.000
1606140145.564,-129.395,-61.523,-5.371,-223.145,0.000
1606140145.568,-21.973,-48.828,-4.395,138.672,0.000
1606140145.571,11.719,-45.898,-2.930,266.602,0.000
1606140145.575,-65.430,-39.062,-1.953,0.000,0.000
1606140145.579,-143.066,-47.852,-1.465,-297.363,0.000
1606140145.583,-113.281,-63.965,-6.836,-246.094,0.000
1606140145.587,-2.930,-57.617,-12.695,107.910,0.000
1606140145.591,41.992,-42.969,-6.836,272.949,0.000
1606140145.595,-32.715,-44.434,-6.348,49.316,0.000
1606140145.599,-124.512,-55.664,-13.184,-263.184,0.000
1606140145.603,-109.375,-54.688,-21.484,-258.301,0.000
1606140145.607,-6.348,-52.246,-20.996,71.777,0.000
1606140145.610,50.293,-49.316,-17.578,275.879,0.000
1606140145.614,-11.719,-43.945,-19.043,104.004,0.000
1606140145.618,-105.957,-41.016,-24.414,-222.656,0.000
1606140145.622,-106.445,-40.039,-22.461,-271.484,0.000
1606140145.626,-12.207,-37.109,-22.461,31.738,0.000
1606140145.630,56.641,-35.156,-21.484,270.020,0.000
1606140145.634,15.137,-26.367,-21.973,136.230,0.000
1606140145.638,-86.426,-22.949,-28.809,-204.590,0.000
1606140145.642,-107.910,-39.062,-26.367,-299.316,0.000
1606140145.646,-13.184,-39.062,-17.090,-16.113,0.000
1606140145.650,57.617,-33.691,-25.391,248.047,0.000
1606140145.653,18.555,-21.973,-31.738,162.109,0.000
1606140145.657,-75.684,-30.273,-28.809,-176.758,0.000
1606140145.661,-100.586,-41.016,-25.391,-306.152,0.000
1606140145.665,-25.879,-34.668,-19.043,-51.758,0.000
1606140145.669,51.270,-33.691,-14.648,235.352,0.000
1606140145.673,28.809,-23.926,-18.066,194.824,0.000
1606140145.677,-75.684,-19.531,-28.320,-147.949,0.000
1606140145.681,-108.398,-33.691,-41.016,-321.777,0.000
1606140145.685,-20.508,-34.180,-31.738,-91.797,0.000
1606140145.689,47.852,-34.180,-6.836,220.215,0.000
1606140145.693,-5.859,-38.574,-7.324,189.453,0.000
1606140145.696,-106.934,-41.504,-11.230,-133.789,0.000
1606140145.700,-163.086,-49.805,-7.812,-341.797,0.000
1606140145.704,-114.746,-46.875,-11.719,-186.523,0.000
1606140145.708,-12.695,-46.875,-5.859,154.297,0.000
1606140145.712,-9.766,-38.574,3.418,216.797,0.000
1606140145.716,-94.238,-27.344,-1.953,-84.473,0.000
1606140145.720,-149.414,-43.457,-13.672,-343.262,0.000
1606140145.724,-114.746,-58.594,-26.367,-241.699,0.000
1606140145.728,-7.812,-48.828,-22.949,111.816,0.000
1606140145.732,22.949,-42.480,-21.484,232.910,0.000
1606140145.735,-61.035,-41.992,-20.996,-44.922,0.000
1606140145.739,-126.953,-42.480,-26.367,-329.590,0.000
1606140145.743,-77.148,-38.574,-30.762,-248.047,0.000
1606140145.747,31.250,-29.785,-14.648,116.211,0.000
1606140145.751,70.312,-26.367,-10.254,273.926,0.000
1606140145.755,-3.906,-30.273,-18.066,35.645,0.000
1606140145.759,-98.633,-38.086,-25.391,-278.809,0.000
1606140145.763,-90.332,-39.551,-32.227,-267.090,0.000
1606140145.767,15.625,-36.621,-26.855,84.473,0.000
1606140145.771,67.871,-39.551,-19.043,286.133,0.000
1606140145.775,-3.906,-33.691,-15.137,80.078,0.000
1606140145.778,-105.469,-34.668,-20.996,-267.090,0.000
1606140145.782,-100.098,-42.480,-30.762,-285.645,0.000
1606140145.786,-0.488,-30.762,-16.113,58.594,0.000
1606140145.790,52.734,-21.973,-10.254,283.691,0.000
1606140145.794,-7.812,-26.855,-17.090,123.535,0.000
1606140145.798,-115.723,-34.668,-21.973,-231.934,0.000
1606140145.802,-134.766,-43.457,-26.855,-303.711,0.000
1606140145.806,-38.086,-41.504,-19.043,16.602,0.000
1606140145.810,48.828,-37.598,0.488,296.387,0.000
1606140145.814,9.277,-31.738,1.465,174.316,0.000
1606140145.818,-106.445,-24.902,-18.555,-197.754,0.000
1606140145.821,-136.230,-35.156,-25.879,-321.289,0.000
1606140145.825,-42.480,-36.621,-22.461,-44.434,0.000
1606140145.829,49.316,-29.297,-17.578,259.766,0.000
1606140145.833,24.902,-27.832,-18.555,197.266,0.000
1606140145.837,-80.566,-37.598,-20.020,-164.551,0.000
1606140145.841,-118.164,-42.969,-34.668,-328.613,0.000
1606140145.845,-30.762,-32.227,-33.691,-83.496,0.000
1606140145.849,64.941,-30.273,-29.297,245.605,0.000
1606140145.853,51.758,-21.973,-30.762,241.211,0.000
1606140145.857,-53.223,-15.625,-22.949,-109.375,0.000
1606140145.860,-104.492,-29.297,-28.809,-324.219,0.000
1606140145.864,-37.109,-28.320,-31.250,-130.371,0.000
1606140145.868,63.965,-20.996,-23.438,212.402,0.000
1606140145.872,68.359,-20.020,-20.508,251.465,0.000
1606140145.876,-31.250,-26.855,-19.531,-78.613,0.000
1606140145.880,-96.680,-33.691,-23.926,-320.801,0.000
1606140145.884,-54.199,-40.527,-25.879,-177.246,0.000
1606140145.888,51.758,-42.969,-18.066,185.059,0.000
1606140145.892,80.078,-28.320,-30.273,279.297,0.000
1606140145.896,-41.504,-24.414,-38.574,-56.641,0.000
1606140145.900,-156.250,-33.203,-34.668,-359.375,0.000
1606140145.903,-126.953,-30.762,-32.227,-270.508,0.000
1606140145.907,-34.668,-26.367,-21.973,67.871,0.000
1606140145.911,-25.879,-24.902,-19.043,172.363,0.000
1606140145.915,-118.652,-21.973,-31.250,-99.609,0.000
1606140145.919,-210.449,-21.484,-32.227,-391.113,0.000
1606140145.923,-207.031,-28.320,-21.973,-347.656,0.000
1606140145.927,-111.816,-30.762,-18.066,-4.395,0.000
1606140145.931,-70.801,-29.297,-17.090,160.645,0.000
1606140145.935,-141.602,-31.250,-16.602,-69.336,0.000
1606140145.939,-230.957,-33.203,-15.137,-388.672,0.000
1606140145.943,-221.191,-28.320,-19.043,-389.648,0.000
1606140145.946,-117.188,-25.879,-24.902,-60.059,0.000
1606140145.950,-71.289,-25.879,-25.879,135.742,0.000
1606140145.954,-136.719,-30.762,-20.996,-45.410,0.000
1606140145.958,-235.840,-37.598,-24.414,-381.836,0.000
1606140145.962,-234.375,-31.250,-23.438,-420.410,0.000
1606140145.966,-130.371,-26.855,-13.184,-102.539,0.000
1606140145.970,-64.453,-29.297,-16.113,130.371,0.000
1606140145.974,-105.469,-25.879,-22.949,0.000,0.000
1606140145.978,-196.777,-34.180,-24.902,-326.172,0.000
1606140145.982,-193.359,-34.668,-28.809,-397.949,0.000
1606140145.985,-88.379,-24.902,-31.250,-111.328,0.000
1606140145.989,-4.395,-26.855,-23.438,169.922,0.000
1606140145.993,-20.508,-21.484,-17.090,112.793,0.000
1606140145.997,-109.375,-15.137,-23.438,-217.285,0.000
1606140146.001,-139.648,-26.855,-34.180,-363.770,0.000
1606140146.005,-59.570,-37.109,-33.203,-115.723,0.000
1606140146.009,33.203,-26.855,-30.273,203.125,0.000
1606140146.013,20.020,-22.461,-35.156,173.340,0.000
1606140146.017,-82.520,-30.273,-40.039,-165.039,0.000
1606140146.021,-120.605,-35.156,-33.691,-333.496,0.000
1606140146.025,-38.574,-34.668,-18.066,-106.445,0.000
1606140146.028,52.246,-31.738,-26.367,216.797,0.000
1606140146.032,41.016,-26.855,-32.227,216.309,0.000
1606140146.036,-58.105,-35.645,-32.227,-103.027,0.000
1606140146.040,-103.516,-41.016,-36.621,-305.176,0.000
1606140146.044,-51.758,-37.109,-37.109,-145.508,0.000
1606140146.048,42.969,-31.738,-32.715,189.453,0.000
1606140146.052,63.965,-21.973,-28.320,256.836,0.000
1606140146.056,-27.344,-22.461,-38.086,-46.387,0.000
1606140146.060,-100.098,-35.156,-49.805,-306.152,0.000
1606140146.064,-44.922,-33.203,-41.016,-184.082,0.000
1606140146.068,63.477,-29.785,-38.574,167.480,0.000
1606140146.071,74.219,-32.227,-38.086,270.020,0.000
1606140146.075,-14.160,-35.645,-31.738,-11.230,0.000
1606140146.079,-89.355,-36.133,-35.156,-298.828,0.000
1606140146.083,-57.129,-30.762,-24.902,-219.727,0.000
1606140146.087,52.734,-23.926,-20.996,144.531,0.000
1606140146.091,83.008,-26.367,-28.809,292.480,0.000
1606140146.095,0.977,-21.484,-23.438,46.387,0.000
1606140146.099,-97.656,-24.414,-24.902,-283.691,0.000
1606140146.103,-97.656,-35.645,-31.738,-281.250,0.000
1606140146.107,1.465,-29.297,-31.250,61.523,0.000
1606140146.110,40.527,-35.645,-20.996,245.117,0.000
1606140146.114,-35.156,-37.598,-5.371,43.945,0.000
1606140146.118,-138.184,-36.621,-15.625,-290.527,0.000
1606140146.122,-151.855,-37.598,-29.785,-349.609,0.000
1606140146.126,-59.570,-29.297,-18.066,-38.086,0.000
1606140146.130,-4.395,-20.996,-13.672,199.219,0.000
1606140146.134,-67.383,-25.391,-15.625,33.691,0.000
1606140146.138,-182.617,-36.621,-15.625,-336.914,0.000
1606140146.142,-204.102,-35.156,-10.742,-415.039,0.000
1606140146.146,-116.211,-27.832,-8.301,-108.887,0.000
1606140146.150,-45.898,-20.020,-9.277,157.715,0.000
1606140146.153,-92.285,-21.484,-12.695,36.621,0.000
1606140146.157,-203.125,-35.645,-27.832,-333.008,0.000
1606140146.161,-229.004,-31.738,-34.180,-460.449,0.000
1606140146.165,-132.812,-17.090,-18.066,-179.688,0.000
1606140146.169,-35.645,-4.395,-12.207,134.277,0.000
1606140146.173,-65.918,0.488,-20.996,74.707,0.000
1606140146.177,-178.711,-9.277,-32.227,-291.504,0.000
1606140146.181,-214.844,-5.859,-39.551,-462.402,0.000
1606140146.185,-124.023,3.418,-36.621,-219.238,0.000
1606140146.189,-26.367,2.930,-41.992,105.957,0.000
1606140146.193,-42.480,-1.953,-47.363,89.844,0.000
1606140146.196,-145.996,-8.301,-48.340,-260.742,0.000
1606140146.200,-200.195,-4.395,-59.570,-473.145,0.000
1606140146.204,-131.348,10.254,-85.938,-281.738,0.000
1606140146.208,-30.273,17.578,-116.211,67.383,0.000
1606140146.212,-38.086,9.766,-117.188,104.492,0.000
1606140146.216,-145.508,15.137,-91.797,-218.750,0.000
1606140146.220,-201.172,23.438,-83.008,-445.801,0.000
1606140146.224,-155.762,4.883,-51.758,-300.293,0.000
1606140146.228,-55.176,4.395,-44.922,61.523,0.000
1606140146.232,-37.598,20.508,-74.707,146.973,0.000
1606140146.235,-139.648,20.996,-66.895,-162.109,0.000
1606140146.239,-213.379,11.719,-62.500,-440.430,0.000
1606140146.243,-164.551,16.113,-69.824,-337.891,0.000
1606140146.247,-48.828,23.926,-69.824,36.621,0.000
1606140146.251,-12.695,23.438,-62.012,176.270,0.000
1606140146.255,-94.238,15.625,-46.875,-91.797,0.000
1606140146.259,-180.176,9.277,-56.152,-394.531,0.000
1606140146.263,-150.879,12.207,-73.242,-341.309,0.000
1606140146.267,-43.457,13.672,-70.312,15.137,0.000
1606140146.271,2.930,18.066,-58.105,195.801,0.000
1606140146.275,-59.570,19.531,-65.918,-20.996,0.000
1606140146.278,-150.879,13.672,-75.684,-366.699,0.000
1606140146.282,-147.461,5.859,-72.266,-386.230,0.000
1606140146.286,-38.086,9.766,-72.754,-35.156,0.000
1606140146.290,30.273,18.066,-64.941,194.824,0.000
1606140146.294,-44.434,8.301,-57.129,2.930,0.000
1606140146.298,-160.156,-4.883,-64.941,-359.863,0.000
1606140146.302,-166.992,-2.930,-64.941,-407.715,0.000
1606140146.306,-69.824,4.883,-58.594,-82.520,0.000
1606140146.310,5.371,12.207,-54.199,176.758,0.000
1606140146.314,-47.363,-1.465,-49.316,49.805,0.000
1606140146.318,-145.508,-14.160,-49.316,-288.086,0.000
1606140146.321,-152.344,-10.254,-54.688,-364.746,0.000
1606140146.325,-66.895,-7.812,-57.617,-78.125,0.000
1606140146.329,9.766,-5.371,-53.711,197.754,0.000
1606140146.333,-11.719,11.230,-43.457,125.977,0.000
1606140146.337,-103.027,14.160,-50.781,-206.055,0.000
1606140146.341,-144.531,-15.625,-58.594,-345.703,0.000
1606140146.345,-70.801,-21.484,-37.109,-88.867,0.000
1606140146.349,16.602,-6.348,-28.320,214.844,0.000
1606140146.353,2.930,-6.836,-31.738,180.176,0.000
1606140146.357,-94.727,-24.902,-37.598,-152.832,0.000
1606140146.360,-140.625,-28.320,-41.016,-332.031,0.000
1606140146.364,-61.523,-17.578,-23.438,-113.281,0.000
1606140146.368,35.156,-18.066,-14.160,228.027,0.000
1606140146.372,25.391,-21.973,-18.555,238.281,0.000
1606140146.376,-66.895,-3.418,-25.879,-87.402,0.000
1606140146.380,-118.652,-18.555,-31.250,-299.805,0.000
1606140146.384,-65.430,-57.129,-32.715,-139.160,0.000
1606140146.388,35.645,-54.199,-26.367,202.148,0.000
1606140146.392,51.758,-49.316,-15.137,268.066,0.000
1606140146.396,-34.668,-61.523,-13.184,-35.156,0.000
1606140146.400,-89.844,-54.688,-20.508,-286.133,0.000
1606140146.403,-35.645,-46.875,-20.996,-161.621,0.000
1606140146.407,74.707,-47.363,-9.766,192.871,0.000
1606140146.411,104.004,-47.363,3.906,309.570,0.000
1606140146.415,20.996,-42.480,-6.836,41.016,0.000
1606140146.419,-52.246,-56.641,-20.508,-241.699,0.000
1606140146.423,-10.742,-67.383,-11.230,-158.691,0.000
1606140146.427,104.492,-60.059,1.465,208.008,0.000
1606140146.431,150.879,-62.988,5.371,370.117,0.000
1606140146.435,81.055,-63.965,5.859,135.742,0.000
1606140146.439,-14.160,-73.242,-0.977,-183.105,0.000
1606140146.443,-5.371,-79.102,-9.277,-171.875,0.000
1606140146.446,97.168,-71.289,-4.883,178.223,0.000
1606140146.450,142.578,-66.406,-1.953,375.000,0.000
1606140146.454,76.660,-71.777,-6.348,180.176,0.000
1606140146.458,-12.695,-74.219,-7.324,-135.742,0.000
1606140146.462,-4.395,-66.406,-11.230,-145.020,0.000
1606140146.466,89.355,-63.965,-16.113,173.340,0.000
1606140146.470,142.090,-67.383,-7.324,388.184,0.000
1606140146.474,88.867,-51.270,-4.395,236.328,0.000
1606140146.478,-5.859,-37.598,-15.625,-102.539,0.000
1606140146.482,-17.090,-62.500,-22.461,-177.246,0.000
1606140146.485,77.148,-73.730,-16.602,127.930,0.000
1606140146.489,155.762,-64.941,-14.160,391.113,0.000
1606140146.493,112.305,-57.129,-23.926,278.320,0.000
1606140146.497,4.883,-69.336,-31.250,-76.172,0.000
1606140146.501,-15.137,-73.730,-34.180,-198.730,0.000
1606140146.505,73.242,-54.199,-13.184,74.219,0.000
1606140146.509,151.855,-39.551,-1.953,365.723,0.000
1606140146.513,124.023,-42.969,-21.973,291.016,0.000
1606140146.517,6.836,-52.734,-23.926,-76.660,0.000
1606140146.521,-46.387,-54.199,-20.020,-254.395,0.000
1606140146.525,34.668,-47.363,-15.625,-21.973,0.000
1606140146.528,129.883,-41.504,-3.418,302.246,0.000
1606140146.532,111.816,-46.875,-13.672,289.062,0.000
1606140146.536,2.930,-49.805,-33.691,-61.035,0.000
1606140146.540,-41.504,-39.062,-35.645,-262.695,0.000
1606140146.544,26.855,-36.621,-28.320,-68.359,0.000
1606140146.548,122.070,-37.598,-18.066,272.461,0.000
1606140146.552,121.582,-32.715,-19.043,311.523,0.000
1606140146.556,16.602,-23.438,-31.738,-14.160,0.000
1606140146.560,-47.852,-35.156,-26.855,-250.977,0.000
1606140146.564,-1.465,-53.711,-22.461,-111.816,0.000
1606140146.568,94.727,-55.664,-18.066,233.887,0.000
1606140146.571,109.863,-42.969,-15.137,322.266,0.000
1606140146.575,16.113,-32.715,-26.855,23.926,0.000
1606140146.579,-57.617,-33.691,-26.367,-248.535,0.000
1606140146.583,-15.625,-38.574,-12.207,-144.531,0.000
1606140146.587,87.891,-39.551,-5.859,205.566,0.000
1606140146.591,110.840,-34.668,-1.953,329.590,0.000
1606140146.595,21.484,-39.062,-14.160,63.477,0.000
1606140146.599,-65.918,-49.316,-28.320,-242.676,0.000
1606140146.603,-45.410,-47.852,-27.344,-186.523,0.000
1606140146.607,62.012,-45.410,-21.973,163.086,0.000
1606140146.610,104.492,-44.922,-19.531,334.473,0.000
1606140146.614,26.855,-28.320,-19.043,106.445,0.000
1606140146.618,-73.730,-30.273,-21.973,-231.445,0.000
1606140146.622,-65.918,-49.316,-28.320,-235.840,0.000
1606140146.626,39.062,-41.016,-27.832,103.516,0.000
1606140146.630,91.309,-31.738,-20.508,304.199,0.000
1606140146.634,28.320,-34.668,-16.113,119.141,0.000
1606140146.638,-79.102,-42.969,-28.320,-223.633,0.000
1606140146.642,-80.078,-44.922,-34.668,-278.320,0.000
1606140146.646,21.484,-41.992,-27.832,38.574,0.000
1606140146.650,87.891,-35.156,-26.367,300.781,0.000
1606140146.653,35.156,-34.668,-39.551,160.156,0.000
1606140146.657,-75.684,-39.062,-43.457,-210.449,0.000
1606140146.661,-88.379,-39.551,-30.273,-304.688,0.000
1606140146.665,10.254,-31.738,-22.461,-12.207,0.000
1606140146.669,85.449,-28.809,-25.391,266.113,0.000
1606140146.673,49.316,-33.203,-32.227,180.176,0.000
1606140146.677,-60.547,-41.504,-31.738,-176.270,0.000
1606140146.681,-100.098,-41.016,-29.785,-320.801,0.000
1606140146.685,-23.926,-32.715,-27.832,-73.242,0.000
1606140146.689,62.500,-32.227,-26.367,236.816,0.000
1606140146.693,49.316,-24.414,-27.832,224.121,0.000
1606140146.696,-53.223,-26.855,-39.551,-122.070,0.000
1606140146.700,-109.375,-42.969,-41.504,-329.590,0.000
1606140146.704,-42.969,-38.574,-37.598,-120.605,0.000
1606140146.708,48.828,-31.738,-30.762,215.332,0.000
1606140146.712,42.969,-42.969,-28.320,233.398,0.000
1606140146.716,-59.082,-47.852,-36.133,-102.539,0.000
1606140146.720,-121.094,-40.039,-37.598,-329.590,0.000
1606140146.724,-66.895,-36.133,-28.320,-156.250,0.000
1606140146.728,48.340,-26.367,-16.113,213.379,0.000
1606140146.732,67.871,-25.391,-13.184,290.039,0.000
1606140146.735,-47.852,-30.762,-10.254,-52.734,0.000
1606140146.739,-120.605,-35.645,-16.602,-323.730,0.000
1606140146.743,-57.617,-34.668,-25.391,-169.922,0.000
1606140146.747,63.965,-32.715,-23.438,205.078,0.000
1606140146.751,86.914,-36.621,-29.297,302.734,0.000
1606140146.755,-4.395,-38.086,-35.156,14.160,0.000
1606140146.759,-73.730,-39.062,-36.621,-268.066,0.000
1606140146.763,-34.180,-40.039,-35.156,-188.477,0.000
1606140146.767,74.219,-30.273,-31.738,169.922,0.000
1606140146.771,113.281,-23.438,-31.738,322.266,0.000
1606140146.775,39.062,-25.391,-31.250,78.613,0.000
1606140146.778,-56.152,-29.785,-37.598,-247.559,0.000
1606140146.782,-46.875,-34.180,-32.227,-234.863,0.000
1606140146.786,54.688,-31.738,-32.227,108.398,0.000
1606140146.790,99.609,-29.297,-38.574,307.617,0.000
1606140146.794,37.598,-36.133,-31.738,104.492,0.000
1606140146.798,-66.406,-38.086,-42.480,-250.000,0.000
1606140146.802,-70.312,-33.691,-40.527,-276.367,0.000
1606140146.806,37.109,-26.855,-26.367,67.383,0.000
1606140146.810,94.727,-19.531,-38.574,303.223,0.000
1606140146.814,33.691,-22.461,-41.992,138.672,0.000
1606140146.818,-71.777,-34.180,-32.715,-218.750,0.000
1606140146.821,-82.031,-37.109,-31.250,-282.715,0.000
1606140146.825,18.555,-29.297,-31.738,35.156,0.000
1606140146.829,94.238,-33.691,-29.297,295.898,0.000
1606140146.833,50.781,-19.043,-29.297,185.547,0.000
1606140146.837,-62.988,-11.719,-33.691,-170.898,0.000
1606140146.841,-88.867,-36.621,-39.062,-286.133,0.000
1606140146.845,6.348,-36.621,-31.738,-2.441,0.000
1606140146.849,82.031,-32.715,-36.621,280.762,0.000
1606140146.853,41.016,-26.367,-42.480,210.938,0.000
1606140146.857,-63.965,-20.996,-31.250,-145.020,0.000
1606140146.860,-95.703,-37.109,-32.227,-305.664,0.000
1606140146.864,-10.254,-35.645,-25.391,-64.941,0.000
1606140146.868,83.984,-27.832,-19.043,251.953,0.000
1606140146.872,65.430,-28.320,-28.809,228.027,0.000
1606140146.876,-40.527,-32.715,-40.039,-121.582,0.000
1606140146.880,-94.238,-31.738,-51.270,-317.383,0.000
1606140146.884,-28.320,-24.902,-46.387,-120.117,0.000
1606140146.888,67.871,-29.785,-33.691,212.891,0.000
1606140146.892,63.965,-30.273,-36.133,246.582,0.000
1606140146.896,-41.016,-26.855,-41.016,-82.520,0.000
1606140146.900,-105.469,-35.645,-36.133,-319.336,0.000
1606140146.903,-57.617,-37.598,-32.715,-169.922,0.000
1606140146.907,37.598,-33.691,-25.391,174.316,0.000
1606140146.911,59.082,-29.297,-24.414,254.883,0.000
1606140146.915,-32.227,-26.855,-34.668,-37.598,0.000
1606140146.919,-105.957,-29.785,-28.809,-302.246,0.000
1606140146.923,-64.453,-30.273,-22.949,-194.824,0.000
1606140146.927,35.156,-28.320,-30.762,158.691,0.000
1606140146.931,61.035,-28.809,-27.832,290.039,0.000
1606140146.935,-22.949,-23.438,-24.902,34.180,0.000
1606140146.939,-108.398,-20.508,-25.879,-270.020,0.000
1606140146.943,-81.055,-27.832,-21.973,-224.609,0.000
1606140146.946,20.996,-27.344,-16.113,127.441,0.000
1606140146.950,56.152,-30.273,-12.207,292.969,0.000
1606140146.954,-15.137,-40.039,-21.973,66.406,0.000
1606140146.958,-102.539,-41.504,-37.109,-250.977,0.000
1606140146.962,-88.379,-40.039,-35.156,-247.070,0.000
1606140146.966,11.719,-39.062,-31.738,84.473,0.000
1606140146.970,55.176,-38.086,-25.879,283.691,0.000
1606140146.974,-4.883,-35.645,-20.508,101.074,0.000
1606140146.978,-97.168,-39.062,-33.203,-232.910,0.000
1606140146.982,-96.191,-46.875,-30.762,-267.090,0.000
1606140146.985,5.859,-32.227,-21.484,41.504,0.000
1606140146.989,44.434,-15.625,-21.973,235.840,0.000
1606140146.993,-23.438,-25.879,-29.785,83.496,0.000
1606140146.997,-128.906,-38.574,-40.527,-275.391,0.000
1606140147.001,-147.461,-33.203,-41.504,-373.047,0.000
1606140147.005,-63.965,-28.320,-42.969,-86.426,0.000
1606140147.009,17.578,-23.926,-33.203,186.035,0.000
1606140147.013,-6.836,-22.461,-24.414,105.957,0.000
1606140147.017,-108.887,-33.691,-34.180,-238.770,0.000
1606140147.021,-130.371,-37.109,-37.109,-358.887,0.000
1606140147.025,-40.039,-29.297,-27.344,-96.191,0.000
1606140147.028,48.828,-18.555,-21.484,207.031,0.000
1606140147.032,23.926,-23.926,-27.832,165.039,0.000
1606140147.036,-67.871,-41.504,-35.645,-186.523,0.000
