timestamps,TP9,AF7,AF8,TP10,Right AUX,Marker0
1606127478.319,-0.488,-0.488,0.000,0.000,0.000,0
1606127478.323,0.000,0.000,0.000,0.488,0.000,0
1606127478.327,0.000,0.000,-3.418,-5.371,0.000,0
1606127478.331,-0.977,-1.465,7.324,9.766,0.000,0
1606127478.335,8.789,9.277,-39.062,-39.062,0.000,0
1606127478.339,28.809,23.438,-104.004,-136.230,0.000,0
1606127478.342,57.129,29.785,-86.914,-71.777,0.000,0
1606127478.346,98.633,33.203,-70.801,74.219,0.000,0
1606127478.350,120.605,20.020,-71.289,96.191,0.000,0
1606127478.354,99.609,11.230,-77.148,-26.855,0.000,0
1606127478.358,77.637,8.789,-79.590,-137.695,0.000,0
1606127478.362,97.168,7.324,-73.242,-99.121,0.000,0
1606127478.366,128.418,10.254,-62.500,49.805,0.000,0
1606127478.370,118.652,5.371,-60.059,94.238,0.000,0
1606127478.374,91.797,-3.906,-70.312,-15.625,0.000,0
1606127478.378,66.895,-20.020,-83.008,-138.672,0.000,0
1606127478.382,56.152,-24.414,-83.008,-116.699,0.000,0
1606127478.385,83.984,-9.766,-69.824,34.180,0.000,0
1606127478.389,114.258,-13.184,-67.871,91.309,0.000,0
1606127478.393,79.102,-32.715,-77.637,-12.207,0.000,0
1606127478.397,33.203,-48.828,-83.984,-144.043,0.000,0
1606127478.401,33.203,-47.363,-87.402,-138.184,0.000,0
1606127478.405,47.852,-33.691,-79.102,-1.465,0.000,0
1606127478.409,43.457,-37.598,-71.289,85.449,0.000,0
1606127478.413,8.789,-49.805,-95.215,5.371,0.000,0
1606127478.417,-24.414,-51.758,-117.188,-141.602,0.000,0
1606127478.421,-9.277,-46.387,-111.816,-146.973,0.000,0
1606127478.425,25.391,-38.574,-98.145,-9.277,0.000,0
1606127478.428,43.945,-40.039,-90.820,73.730,0.000,0
1606127478.432,31.738,-45.410,-90.820,8.789,0.000,0
1606127478.436,-1.953,-41.992,-102.539,-127.930,0.000,0
1606127478.440,-5.859,-45.410,-109.375,-155.273,0.000,0
1606127478.444,14.160,-51.270,-105.469,-43.945,0.000,0
1606127478.448,31.738,-41.016,-100.098,63.965,0.000,0
1606127478.452,20.996,-42.969,-100.098,28.320,0.000,0
1606127478.456,-21.973,-62.988,-116.211,-131.836,0.000,0
1606127478.460,-39.062,-66.895,-117.676,-186.035,0.000,0
1606127478.464,-4.395,-52.734,-99.121,-63.477,0.000,0
1606127478.467,23.926,-43.945,-91.797,60.547,0.000,0
1606127478.471,4.395,-49.316,-93.262,35.645,0.000,0
1606127478.475,-41.992,-63.965,-99.609,-107.422,0.000,0
1606127478.479,-57.129,-62.012,-108.887,-189.453,0.000,0
1606127478.483,-17.090,-30.273,-101.562,-91.309,0.000,0
1606127478.487,19.531,-26.367,-75.195,69.336,0.000,0
1606127478.491,-9.766,-56.152,-63.477,74.219,0.000,0
1606127478.495,-71.289,-74.707,-71.777,-110.840,0.000,0
1606127478.499,-104.004,-72.754,-72.266,-217.285,0.000,0
1606127478.503,-90.820,-65.918,-58.594,-123.535,0.000,0
1606127478.507,-63.477,-59.570,-40.039,8.789,0.000,0
1606127478.510,-78.613,-66.895,-35.645,18.555,0.000,0
1606127478.514,-130.371,-89.844,-39.062,-120.117,0.000,0
1606127478.518,-148.438,-97.168,-45.898,-220.215,0.000,0
1606127478.522,-120.605,-94.238,-41.992,-141.113,0.000,0
1606127478.526,-82.031,-83.984,-19.043,23.926,0.000,0
1606127478.530,-68.848,-82.031,-14.160,71.777,0.000,0
1606127478.534,-113.770,-85.938,-25.391,-51.758,0.000,0
1606127478.538,-141.113,-92.285,-28.809,-163.574,0.000,0
1606127478.542,-107.422,-109.863,-24.902,-107.422,0.000,0
1606127478.546,-57.617,-95.703,-20.020,50.781,0.000,0
1606127478.550,-30.762,-82.031,-19.043,109.863,0.000,0
1606127478.553,-69.336,-98.633,-34.668,-7.324,0.000,0
1606127478.557,-107.422,-109.863,-49.316,-139.160,0.000,0
1606127478.561,-79.102,-95.703,-44.922,-112.793,0.000,0
1606127478.565,-23.926,-75.195,-31.738,47.852,0.000,0
1606127478.569,-11.719,-75.195,-27.832,121.582,0.000,0
1606127478.573,-36.621,-84.961,-41.504,29.297,0.000,0
1606127478.577,-67.383,-90.332,-56.152,-106.934,0.000,0
1606127478.581,-64.941,-91.309,-58.594,-118.652,0.000,0
1606127478.585,-20.996,-73.730,-48.828,28.320,0.000,0
1606127478.589,-0.977,-66.406,-39.551,117.676,0.000,0
1606127478.592,-34.180,-74.707,-46.875,39.062,0.000,0
1606127478.596,-80.566,-84.473,-64.453,-110.352,0.000,0
1606127478.600,-75.684,-85.449,-64.453,-130.859,0.000,0
1606127478.604,-37.598,-64.453,-47.363,2.930,0.000,0
1606127478.608,-12.695,-55.176,-42.480,112.793,0.000,0
1606127478.612,-28.809,-64.941,-56.152,58.594,0.000,0
1606127478.616,-71.777,-69.336,-69.824,-104.004,0.000,0
1606127478.620,-80.566,-64.453,-71.289,-143.555,0.000,0
1606127478.624,-45.410,-53.223,-60.059,-22.461,0.000,0
1606127478.628,-9.766,-43.457,-52.734,96.191,0.000,0
1606127478.632,-27.344,-53.223,-59.082,54.199,0.000,0
1606127478.635,-61.523,-65.918,-75.684,-94.727,0.000,0
1606127478.639,-72.266,-65.918,-83.008,-148.926,0.000,0
1606127478.643,-46.387,-62.500,-70.801,-41.992,0.000,0
1606127478.647,-11.719,-56.641,-59.082,84.473,0.000,0
1606127478.651,-32.227,-52.246,-64.941,61.035,0.000,0
1606127478.655,-85.938,-51.758,-73.730,-88.379,0.000,0
1606127478.659,-102.539,-55.664,-70.801,-160.645,0.000,0
1606127478.663,-63.477,-51.758,-60.059,-62.012,0.000,0
1606127478.667,-36.621,-45.410,-47.852,68.359,0.000,0
1606127478.671,-47.852,-44.922,-45.898,66.406,0.000,0
1606127478.675,-79.590,-56.152,-65.918,-73.242,0.000,0
1606127478.678,-94.238,-67.871,-80.566,-180.176,0.000,0
1606127478.682,-72.754,-54.688,-71.289,-113.281,0.000,0
1606127478.686,-34.180,-23.438,-51.758,48.340,0.000,0
1606127478.690,-28.320,-29.785,-52.246,74.707,0.000,0
1606127478.694,-73.242,-57.129,-70.312,-64.941,0.000,0
1606127478.698,-97.168,-62.500,-73.730,-180.176,0.000,0
1606127478.702,-83.008,-50.781,-60.547,-129.883,0.000,0
1606127478.706,-37.109,-41.016,-52.734,29.785,0.000,0
1606127478.710,-28.320,-40.039,-59.082,76.172,0.000,0
1606127478.714,-69.824,-48.340,-78.613,-60.059,0.000,0
1606127478.717,-84.961,-44.922,-84.961,-178.223,0.000,0
1606127478.721,-58.594,-36.133,-63.965,-125.000,0.000,0
1606127478.725,-20.996,-38.574,-46.387,29.785,0.000,0
1606127478.729,-21.484,-38.574,-41.016,84.961,0.000,0
1606127478.733,-38.086,-36.133,-49.805,-20.508,0.000,0
1606127478.737,-73.242,-43.945,-61.523,-153.809,0.000,0
1606127478.741,-79.590,-49.316,-60.059,-137.207,0.000,0
1606127478.745,-22.461,-39.062,-38.574,25.391,0.000,0
1606127478.749,-9.277,-34.180,-27.832,108.887,0.000,0
1606127478.753,-37.109,-44.922,-35.156,12.207,0.000,0
1606127478.757,-79.102,-50.293,-54.688,-142.090,0.000,0
1606127478.760,-88.379,-39.551,-65.918,-150.879,0.000,0
1606127478.764,-51.270,-24.414,-42.480,-10.254,0.000,0
1606127478.768,-28.809,-28.809,-29.785,83.984,0.000,0
1606127478.772,-39.062,-42.480,-42.969,27.832,0.000,0
1606127478.776,-73.730,-46.387,-49.805,-123.047,0.000,0
1606127478.780,-72.754,-38.574,-45.898,-157.715,0.000,0
1606127478.784,-37.109,-38.574,-37.598,-8.789,0.000,0
1606127478.788,-8.789,-36.133,-34.668,116.211,0.000,0
1606127478.792,-18.066,-28.809,-43.457,48.828,0.000,0
1606127478.796,-69.824,-37.109,-57.617,-125.488,0.000,0
1606127478.800,-75.195,-42.969,-55.664,-162.598,0.000,0
1606127478.803,-22.949,-27.832,-47.363,-45.410,0.000,0
1606127478.807,18.555,-19.531,-41.016,83.984,0.000,0
1606127478.811,0.488,-21.484,-37.109,62.988,0.000,0
1606127478.815,-52.246,-38.574,-51.758,-97.168,0.000,0
1606127478.819,-69.824,-57.129,-68.359,-164.551,0.000,0
1606127478.823,-22.461,-32.715,-58.594,-56.152,0.000,0
1606127478.827,0.977,-10.742,-38.574,89.355,0.000,0
1606127478.831,-11.230,-29.785,-40.527,79.590,0.000,0
1606127478.835,-39.551,-49.805,-54.688,-64.941,0.000,0
1606127478.839,-61.035,-51.270,-62.988,-143.555,0.000,0
1606127478.842,-29.297,-32.227,-53.711,-50.293,0.000,0
1606127478.846,15.625,-20.996,-38.574,101.074,0.000,0
1606127478.850,13.672,-30.762,-36.621,114.746,0.000,0
1606127478.854,-30.273,-37.109,-47.852,-31.250,0.000,0
1606127478.858,-55.176,-39.551,-55.176,-143.066,0.000,0
1606127478.862,-34.180,-34.180,-53.223,-79.590,0.000,0
1606127478.866,2.441,-6.348,-41.016,71.777,0.000,0
1606127478.870,7.324,-13.184,-34.668,105.957,0.000,0
1606127478.874,-29.297,-31.738,-42.969,-29.785,0.000,0
1606127478.878,-58.105,-35.156,-55.176,-147.949,0.000,0
1606127478.882,-46.387,-30.273,-52.734,-95.703,0.000,0
1606127478.885,-10.742,-18.066,-38.086,61.035,0.000,0
1606127478.889,-2.930,-19.531,-28.809,112.305,0.000,0
1606127478.893,-31.250,-30.762,-39.062,-4.395,0.000,0
1606127478.897,-57.617,-38.086,-58.594,-144.043,0.000,0
1606127478.901,-55.176,-33.691,-62.500,-124.512,0.000,0
1606127478.905,-9.277,-7.324,-41.016,41.992,0.000,0
1606127478.909,-2.930,-5.371,-31.738,104.980,0.000,0
1606127478.913,-37.109,-29.297,-44.434,-0.977,0.000,0
1606127478.917,-49.316,-37.598,-56.152,-139.160,0.000,0
1606127478.921,-36.621,-27.832,-45.898,-132.324,0.000,0
1606127478.925,-7.324,-18.066,-31.738,11.719,0.000,0
1606127478.928,-15.137,-21.484,-36.133,78.613,0.000,0
1606127478.932,-35.645,-27.344,-40.527,0.977,0.000,0
1606127478.936,-59.570,-32.227,-50.293,-140.137,0.000,0
1606127478.940,-62.988,-35.645,-52.246,-169.922,0.000,0
1606127478.944,-22.461,-15.625,-38.086,-30.762,0.000,0
1606127478.948,9.766,-2.441,-27.832,96.191,0.000,0
1606127478.952,-11.719,-20.508,-32.227,43.945,0.000,0
1606127478.956,-55.176,-41.992,-49.805,-123.047,0.000,0
1606127478.960,-64.941,-36.133,-53.711,-166.504,0.000,0
1606127478.964,-33.203,-12.695,-35.156,-40.039,0.000,0
1606127478.967,-6.348,-4.395,-17.578,82.520,0.000,0
1606127478.971,-20.996,-23.438,-29.785,45.898,0.000,0
1606127478.975,-61.035,-37.109,-50.781,-118.652,0.000,0
1606127478.979,-77.637,-23.438,-51.270,-177.246,0.000,0
1606127478.983,-47.852,-7.812,-37.109,-60.059,0.000,0
1606127478.987,-13.184,-8.301,-31.250,73.730,0.000,0
1606127478.991,-19.043,-19.043,-38.574,62.012,0.000,0
1606127478.995,-59.082,-21.973,-54.199,-88.867,0.000,0
1606127478.999,-70.801,-22.461,-56.641,-163.086,0.000,0
1606127479.003,-44.434,-20.508,-39.551,-71.289,0.000,0
1606127479.007,-13.672,-6.348,-32.715,59.082,0.000,0
1606127479.010,-23.926,-9.766,-34.180,62.500,0.000,0
1606127479.014,-54.199,-21.484,-41.504,-70.801,0.000,0
1606127479.018,-66.895,-20.996,-44.434,-159.668,0.000,0
1606127479.022,-54.199,-19.043,-34.180,-89.355,0.000,0
1606127479.026,-19.531,-9.766,-23.438,52.734,0.000,0
1606127479.030,-33.203,-5.859,-24.902,57.617,0.000,0
1606127479.034,-85.938,-17.578,-36.621,-94.727,0.000,0
1606127479.038,-112.793,-27.344,-40.527,-206.543,0.000,0
1606127479.042,-110.352,-12.695,-31.738,-170.898,0.000,0
1606127479.046,-81.543,13.672,-12.695,-32.227,0.000,0
1606127479.050,-98.145,10.742,-12.207,-9.277,0.000,0
1606127479.053,-153.809,-0.977,-22.949,-147.949,0.000,0
1606127479.057,-191.895,2.930,-21.484,-277.832,0.000,0
1606127479.061,-201.172,17.578,-17.578,-272.461,0.000,0
1606127479.065,-194.336,35.156,-9.766,-150.391,0.000,0
1606127479.069,-201.660,44.434,-4.883,-104.492,0.000,0
1606127479.073,-230.957,41.016,-15.137,-215.332,0.000,0
1606127479.077,-262.207,41.504,-21.973,-339.355,0.000,0
1606127479.081,-263.184,45.898,-20.020,-329.102,0.000,0
1606127479.085,-227.051,49.805,-10.254,-181.641,0.000,0
1606127479.089,-187.012,48.828,-4.883,-97.168,0.000,0
1606127479.092,-200.684,33.203,-16.113,-177.246,0.000,0
1606127479.096,-222.656,15.625,-33.691,-298.828,0.000,0
1606127479.100,-189.453,8.301,-39.551,-285.156,0.000,0
1606127479.104,-142.578,16.602,-26.855,-120.605,0.000,0
1606127479.108,-106.445,21.484,-18.066,-7.812,0.000,0
1606127479.112,-109.863,0.488,-36.621,-68.848,0.000,0
1606127479.116,-127.930,-22.461,-58.105,-186.523,0.000,0
1606127479.120,-109.375,-27.344,-55.176,-187.500,0.000,0
1606127479.124,-44.434,-19.043,-41.992,-41.992,0.000,0
1606127479.128,-1.465,-17.090,-39.062,83.496,0.000,0
1606127479.132,-5.371,-27.832,-49.316,48.340,0.000,0
1606127479.135,-22.949,-37.598,-62.012,-80.566,0.000,0
1606127479.139,-20.996,-43.945,-66.895,-113.281,0.000,0
1606127479.143,20.020,-42.969,-54.688,11.719,0.000,0
1606127479.147,63.965,-33.203,-37.109,150.879,0.000,0
1606127479.151,60.059,-39.062,-45.410,134.277,0.000,0
1606127479.155,30.762,-49.805,-62.500,-6.348,0.000,0
1606127479.159,32.227,-50.781,-62.988,-63.965,0.000,0
1606127479.163,61.035,-40.039,-50.781,30.762,0.000,0
1606127479.167,89.355,-32.227,-35.156,167.969,0.000,0
1606127479.171,93.262,-38.086,-35.156,175.781,0.000,0
1606127479.175,67.871,-41.016,-56.152,34.180,0.000,0
1606127479.178,50.293,-45.898,-64.941,-56.641,0.000,0
1606127479.182,73.242,-43.945,-51.270,33.691,0.000,0
1606127479.186,111.328,-24.414,-39.062,179.199,0.000,0
1606127479.190,109.863,-23.926,-40.039,181.152,0.000,0
1606127479.194,72.266,-50.781,-51.270,50.293,0.000,0
1606127479.198,58.594,-61.035,-62.988,-50.781,0.000,0
1606127479.202,72.266,-43.945,-59.082,5.371,0.000,0
1606127479.206,98.633,-27.344,-43.945,157.227,0.000,0
1606127479.210,107.422,-30.762,-46.875,195.312,0.000,0
1606127479.214,66.895,-40.527,-61.035,65.430,0.000,0
1606127479.217,35.645,-45.410,-65.430,-52.734,0.000,0
1606127479.221,48.340,-41.992,-63.477,-12.207,0.000,0
1606127479.225,89.844,-27.344,-43.457,141.113,0.000,0
1606127479.229,98.145,-23.438,-33.203,191.406,0.000,0
1606127479.233,51.758,-34.668,-49.805,69.336,0.000,0
1606127479.237,41.016,-46.875,-54.199,-59.082,0.000,0
1606127479.241,47.363,-45.410,-55.176,-43.457,0.000,0
1606127479.245,61.523,-29.297,-49.316,101.562,0.000,0
1606127479.249,71.777,-17.578,-42.480,179.199,0.000,0
1606127479.253,39.062,-27.344,-50.293,84.473,0.000,0
1606127479.257,18.066,-43.457,-59.082,-54.199,0.000,0
1606127479.260,26.367,-41.504,-54.199,-49.805,0.000,0
1606127479.264,55.176,-21.484,-40.039,88.379,0.000,0
1606127479.268,70.801,-18.066,-33.691,165.527,0.000,0
1606127479.272,54.688,-24.414,-37.109,92.285,0.000,0
1606127479.276,17.578,-21.973,-49.805,-53.711,0.000,0
1606127479.280,13.672,-23.438,-52.246,-76.172,0.000,0
1606127479.284,45.898,-21.484,-42.480,56.152,0.000,0
1606127479.288,68.359,-20.508,-32.227,154.297,0.000,0
1606127479.292,50.781,-26.855,-37.109,93.262,0.000,0
1606127479.296,6.348,-30.762,-56.641,-60.547,0.000,0
1606127479.300,11.719,-32.227,-57.129,-89.844,0.000,0
1606127479.303,52.734,-21.973,-35.645,38.086,0.000,0
1606127479.307,70.312,-12.207,-25.391,150.879,0.000,0
1606127479.311,48.828,-18.555,-38.086,110.352,0.000,0
1606127479.315,8.301,-31.738,-53.223,-39.551,0.000,0
1606127479.319,-6.836,-33.691,-53.711,-100.586,0.000,0
1606127479.323,27.832,-17.090,-39.551,7.812,0.000,0
1606127479.327,61.035,-2.441,-28.809,139.160,0.000,0
1606127479.331,47.852,-8.789,-32.227,125.488,0.000,0
1606127479.335,0.977,-22.949,-46.875,-21.973,0.000,0
1606127479.339,-21.973,-28.320,-57.129,-109.375,0.000,0
1606127479.342,19.531,-17.090,-45.410,-16.113,0.000,0
1606127479.346,57.617,-10.254,-37.109,133.301,0.000,0
1606127479.350,48.340,-18.066,-39.551,133.789,0.000,0
1606127479.354,-3.906,-32.715,-50.293,-11.230,0.000,0
1606127479.358,-43.945,-39.062,-61.035,-112.793,0.000,0
1606127479.362,-18.555,-31.738,-55.176,-39.551,0.000,0
1606127479.366,22.461,-22.949,-40.039,111.328,0.000,0
1606127479.370,20.508,-19.531,-37.598,129.883,0.000,0
1606127479.374,-2.441,-25.391,-46.387,-0.488,0.000,0
1606127479.378,-17.090,-38.574,-57.617,-121.094,0.000,0
1606127479.382,-8.301,-30.273,-51.758,-74.707,0.000,0
1606127479.385,27.344,-14.160,-36.133,89.355,0.000,0
1606127479.389,27.344,-13.184,-37.109,131.836,0.000,0
1606127479.393,-2.930,-23.926,-46.875,6.836,0.000,0
1606127479.397,-33.691,-32.715,-58.594,-109.863,0.000,0
1606127479.401,-31.738,-24.902,-53.711,-81.543,0.000,0
1606127479.405,13.184,-6.836,-39.062,67.383,0.000,0
1606127479.409,34.668,0.977,-36.621,133.789,0.000,0
1606127479.413,7.324,-18.066,-46.387,28.320,0.000,0
1606127479.417,-30.273,-27.344,-58.105,-111.816,0.000,0
1606127479.421,-22.461,-22.949,-54.688,-101.074,0.000,0
1606127479.425,16.113,-20.508,-41.016,43.457,0.000,0
1606127479.428,46.875,-13.672,-32.715,123.535,0.000,0
1606127479.432,12.695,-20.508,-43.945,35.645,0.000,0
1606127479.436,-42.969,-27.344,-58.105,-109.863,0.000,0
1606127479.440,-24.414,-22.949,-52.734,-119.629,0.000,0
1606127479.444,4.395,-17.090,-48.340,8.789,0.000,0
1606127479.448,13.184,-11.719,-47.852,99.609,0.000,0
1606127479.452,0.977,-22.461,-49.316,35.645,0.000,0
1606127479.456,-27.344,-33.203,-54.199,-100.098,0.000,0
1606127479.460,-24.414,-31.250,-53.711,-122.559,0.000,0
1606127479.464,6.836,-10.742,-40.527,-1.953,0.000,0
1606127479.467,26.367,5.859,-29.785,103.516,0.000,0
1606127479.471,12.695,-19.531,-39.062,58.105,0.000,0
1606127479.475,-26.855,-43.945,-57.617,-91.797,0.000,0
1606127479.479,-32.227,-38.574,-62.012,-136.230,0.000,0
1606127479.483,8.301,-21.484,-41.504,-16.113,0.000,0
1606127479.487,32.715,-10.742,-28.320,96.191,0.000,0
1606127479.491,15.625,-8.789,-28.320,63.965,0.000,0
1606127479.495,-14.648,-17.090,-36.621,-69.824,0.000,0
1606127479.499,-20.996,-14.648,-44.922,-128.906,0.000,0
1606127479.503,9.766,-6.836,-41.016,-39.062,0.000,0
1606127479.507,25.879,-6.836,-31.738,85.449,0.000,0
1606127479.510,6.836,-12.207,-31.738,75.195,0.000,0
1606127479.514,-22.461,-20.508,-49.805,-69.336,0.000,0
1606127479.518,-44.434,-26.855,-59.570,-151.855,0.000,0
1606127479.522,-21.484,-26.367,-48.828,-66.895,0.000,0
1606127479.526,16.113,-20.020,-36.133,71.289,0.000,0
1606127479.530,12.207,-12.207,-38.086,83.008,0.000,0
1606127479.534,-20.508,-22.949,-55.176,-48.340,0.000,0
1606127479.538,-33.691,-30.762,-64.941,-143.066,0.000,0
1606127479.542,-10.742,-24.902,-53.223,-76.172,0.000,0
1606127479.546,23.926,-12.695,-46.875,70.801,0.000,0
1606127479.550,34.668,-6.836,-43.945,104.980,0.000,0
1606127479.553,-1.465,-23.438,-51.758,-21.484,0.000,0
1606127479.557,-33.691,-28.320,-65.918,-136.230,0.000,0
1606127479.561,-16.602,-17.578,-56.641,-96.191,0.000,0
1606127479.565,20.996,-6.348,-38.086,53.223,0.000,0
1606127479.569,40.039,-5.371,-32.715,103.027,0.000,0
1606127479.573,7.324,-20.020,-40.527,-7.324,0.000,0
1606127479.577,-32.715,-26.855,-46.387,-124.512,0.000,0
1606127479.581,-33.691,-27.344,-42.480,-104.980,0.000,0
1606127479.585,9.277,-24.414,-27.344,53.223,0.000,0
1606127479.589,52.734,-15.137,-24.414,131.836,0.000,0
1606127479.592,25.391,-9.277,-45.410,30.762,0.000,0
1606127479.596,-15.625,-13.184,-60.059,-114.746,0.000,0
1606127479.600,-14.160,-10.742,-58.105,-115.234,0.000,0
1606127479.604,27.344,0.977,-47.363,28.809,0.000,0
1606127479.608,38.574,3.418,-48.828,112.793,0.000,0
1606127479.612,8.789,-8.789,-62.500,35.645,0.000,0
1606127479.616,-20.508,-16.602,-75.684,-106.934,0.000,0
1606127479.620,-10.254,-13.672,-79.590,-124.512,0.000,0
1606127479.624,27.832,10.254,-69.824,13.184,0.000,0
1606127479.628,46.875,15.137,-63.477,117.188,0.000,0
1606127479.632,27.832,-6.348,-68.359,59.570,0.000,0
1606127479.635,-7.324,-14.648,-80.078,-80.078,0.000,0
1606127479.639,-6.348,-11.230,-79.590,-107.910,0.000,0
1606127479.643,27.344,-4.395,-67.383,8.789,0.000,0
1606127479.647,58.105,-5.371,-60.059,125.488,0.000,0
1606127479.651,51.270,-6.348,-60.059,88.379,0.000,0
1606127479.655,15.137,-4.395,-64.941,-62.500,0.000,0
1606127479.659,5.371,-11.230,-67.383,-117.676,0.000,0
1606127479.663,30.273,-12.695,-59.570,-16.113,0.000,0
1606127479.667,58.594,-8.301,-46.875,111.816,0.000,0
1606127479.671,53.711,-3.418,-44.922,93.750,0.000,0
1606127479.675,8.789,-11.230,-57.617,-49.805,0.000,0
1606127479.678,-6.836,-15.625,-65.430,-117.188,0.000,0
1606127479.682,23.926,-3.418,-54.199,-30.273,0.000,0
1606127479.686,49.805,6.836,-41.016,104.004,0.000,0
1606127479.690,45.898,4.395,-44.434,104.004,0.000,0
1606127479.694,5.371,-10.742,-54.199,-38.086,0.000,0
1606127479.698,-24.414,-17.090,-57.129,-126.465,0.000,0
1606127479.702,12.207,-5.859,-52.734,-47.852,0.000,0
1606127479.706,41.504,-0.977,-39.551,96.680,0.000,0
1606127479.710,36.621,-3.906,-34.180,115.723,0.000,0
1606127479.714,7.324,-11.719,-44.922,-11.230,0.000,0
1606127479.717,-9.766,-17.578,-59.082,-118.164,0.000,0
1606127479.721,11.230,-15.625,-56.152,-67.871,0.000,0
1606127479.725,32.227,-2.930,-34.668,78.613,0.000,0
1606127479.729,31.250,-6.348,-31.250,115.723,0.000,0
1606127479.733,-1.953,-15.137,-45.898,-4.883,0.000,0
1606127479.737,-25.879,-23.438,-57.617,-121.094,0.000,0
1606127479.741,-9.766,-23.926,-51.270,-84.961,0.000,0
1606127479.745,30.762,-12.207,-35.156,66.406,0.000,0
1606127479.749,46.875,-9.277,-37.109,122.559,0.000,0
1606127479.753,11.719,-15.137,-52.246,14.648,0.000,0
1606127479.757,-23.926,-29.297,-62.500,-118.652,0.000,0
1606127479.760,-15.137,-25.879,-55.664,-107.422,0.000,0
1606127479.764,17.578,-8.301,-41.016,42.969,0.000,0
1606127479.768,30.762,0.488,-33.691,117.188,0.000,0
1606127479.772,-2.441,-18.066,-41.016,26.367,0.000,0
1606127479.776,-36.133,-31.250,-49.316,-113.770,0.000,0
1606127479.780,-25.391,-18.066,-44.434,-110.352,0.000,0
1606127479.784,14.160,-11.230,-29.297,37.598,0.000,0
1606127479.788,34.668,-10.742,-21.973,131.348,0.000,0
1606127479.792,21.484,-14.648,-34.180,61.035,0.000,0
1606127479.796,-20.508,-29.297,-44.922,-89.355,0.000,0
1606127479.800,-36.133,-32.227,-46.875,-122.070,0.000,0
1606127479.803,0.977,-20.996,-31.738,13.184,0.000,0
1606127479.807,23.438,-20.996,-23.926,126.465,0.000,0
1606127479.811,-0.488,-23.926,-32.227,62.988,0.000,0
1606127479.815,-41.504,-27.832,-41.016,-90.820,0.000,0
1606127479.819,-41.992,-28.809,-50.293,-135.742,0.000,0
1606127479.823,-4.395,-17.578,-38.574,-24.902,0.000,0
1606127479.827,22.461,-1.953,-24.414,101.562,0.000,0
1606127479.831,14.648,-3.906,-33.203,74.219,0.000,0
1606127479.835,-18.555,-18.555,-47.852,-79.102,0.000,0
1606127479.839,-28.320,-17.578,-46.387,-143.555,0.000,0
1606127479.842,-4.883,-6.836,-32.715,-43.457,0.000,0
1606127479.846,18.555,-10.254,-23.438,91.309,0.000,0
1606127479.850,8.301,-14.160,-28.809,78.125,0.000,0
1606127479.854,-31.250,-20.996,-43.945,-75.195,0.000,0
1606127479.858,-32.715,-24.902,-51.270,-155.273,0.000,0
1606127479.862,3.418,-15.625,-41.992,-65.430,0.000,0
1606127479.866,24.902,-8.789,-26.367,80.566,0.000,0
1606127479.870,15.137,-9.766,-25.879,86.914,0.000,0
1606127479.874,-14.160,-14.648,-36.621,-46.387,0.000,0
1606127479.878,-36.621,-20.020,-48.340,-149.902,0.000,0
1606127479.882,-23.438,-20.996,-47.363,-95.215,0.000,0
1606127479.885,11.719,-14.160,-34.668,57.129,0.000,0
1606127479.889,13.672,-14.160,-31.738,90.820,0.000,0
1606127479.893,-25.391,-31.250,-38.574,-39.551,0.000,0
1606127479.897,-54.688,-34.668,-48.828,-154.297,0.000,0
1606127479.901,-45.898,-27.344,-49.805,-110.840,0.000,0
1606127479.905,-5.371,-16.602,-31.250,45.898,0.000,0
1606127479.909,13.672,-0.977,-23.438,96.191,0.000,0
1606127479.913,-23.438,-14.160,-27.344,-20.020,0.000,0
1606127479.917,-58.105,-26.367,-34.180,-149.414,0.000,0
1606127479.921,-37.598,-17.090,-39.551,-125.977,0.000,0
1606127479.925,5.859,-9.766,-30.273,33.691,0.000,0
1606127479.928,18.555,-14.648,-21.484,105.957,0.000,0
1606127479.932,-13.672,-20.508,-32.227,-3.418,0.000,0
1606127479.936,-36.621,-21.973,-46.387,-144.531,0.000,0
1606127479.940,-12.695,-20.020,-44.434,-130.859,0.000,0
1606127479.944,23.438,-13.672,-30.762,8.789,0.000,0
1606127479.948,36.133,-10.742,-23.438,99.609,0.000,0
1606127479.952,19.531,-14.648,-31.738,33.691,0.000,0
1606127479.956,-0.488,-17.090,-46.875,-105.469,0.000,0
1606127479.960,-8.301,-7.812,-53.711,-125.488,0.000,0
1606127479.964,11.719,14.160,-44.922,-4.883,0.000,0
1606127479.967,30.273,26.367,-34.668,98.145,0.000,0
1606127479.971,9.277,20.020,-43.945,41.016,0.000,0
1606127479.975,-46.875,6.348,-65.918,-129.883,0.000,0
1606127479.979,-67.383,-0.488,-78.125,-169.434,0.000,0
1606127479.983,-15.625,15.625,-69.336,-31.738,0.000,0
1606127479.987,26.367,24.902,-68.359,84.961,0.000,0
1606127479.991,28.809,4.883,-74.219,59.082,0.000,0
1606127479.995,-1.465,-15.625,-80.566,-77.637,0.000,0
1606127479.999,-15.625,-19.043,-82.031,-132.324,0.000,0
1606127480.003,11.230,-9.766,-65.430,-20.508,0.000,0
1606127480.007,43.945,-0.977,-53.223,111.816,0.000,0
1606127480.010,38.086,-2.930,-53.711,93.262,0.000,0
1606127480.014,-5.371,-18.555,-65.918,-56.152,0.000,0
1606127480.018,-17.578,-25.391,-75.195,-127.930,0.000,0
1606127480.022,13.184,-19.531,-63.965,-33.691,0.000,0
1606127480.026,51.758,-9.277,-43.945,106.445,0.000,0
1606127480.030,54.199,-8.789,-41.504,112.305,0.000,0
1606127480.034,14.648,-25.879,-52.734,-36.621,0.000,0
1606127480.038,0.000,-32.227,-54.199,-123.535,0.000,0
1606127480.042,39.062,-14.648,-44.434,-36.133,0.000,0
1606127480.046,80.566,2.441,-32.227,105.957,0.000,0
1606127480.050,72.266,-4.883,-35.645,120.605,0.000,0
1606127480.053,31.738,-21.973,-49.805,-15.137,0.000,0
1606127480.057,6.836,-23.438,-57.617,-115.723,0.000,0
1606127480.061,21.973,-18.066,-48.828,-58.105,0.000,0
1606127480.065,58.105,-13.672,-32.715,83.008,0.000,0
1606127480.069,61.035,-18.555,-30.273,122.559,0.000,0
1606127480.073,21.484,-24.902,-42.969,4.395,0.000,0
1606127480.077,-15.625,-26.367,-46.875,-116.699,0.000,0
1606127480.081,1.953,-23.926,-37.598,-79.590,0.000,0
1606127480.085,46.875,-15.625,-23.438,72.266,0.000,0
1606127480.089,53.711,-12.695,-16.113,137.695,0.000,0
1606127480.092,22.949,-19.531,-33.203,35.156,0.000,0
1606127480.096,-6.348,-25.391,-47.363,-91.797,0.000,0
1606127480.100,1.465,-25.879,-41.016,-79.590,0.000,0
1606127480.104,44.434,-19.531,-27.344,54.688,0.000,0
1606127480.108,51.270,-14.648,-23.438,131.836,0.000,0
1606127480.112,9.277,-24.902,-40.039,44.922,0.000,0
1606127480.116,-35.156,-41.016,-55.664,-91.309,0.000,0
1606127480.120,-30.273,-31.250,-46.875,-94.727,0.000,0
1606127480.124,10.254,-18.555,-22.949,41.504,0.000,0
1606127480.128,26.855,-36.133,-19.043,129.883,0.000,0
1606127480.132,8.301,-41.016,-33.203,60.059,0.000,0
1606127480.135,-26.855,-41.504,-40.527,-84.473,0.000,0
1606127480.139,-23.926,-38.574,-41.992,-113.281,0.000,0
1606127480.143,10.254,-31.250,-31.250,10.742,0.000,0
1606127480.147,30.762,-19.043,-25.391,111.328,0.000,0
1606127480.151,7.812,-17.090,-34.668,61.035,0.000,0
1606127480.155,-26.855,-27.344,-41.992,-83.008,0.000,0
1606127480.159,-24.902,-34.668,-46.875,-126.465,0.000,0
1606127480.163,3.906,-30.762,-35.645,-10.254,0.000,0
1606127480.167,26.855,-18.066,-20.020,104.004,0.000,0
1606127480.171,10.254,-20.996,-27.832,72.266,0.000,0
1606127480.175,-28.320,-33.203,-46.387,-74.219,0.000,0
1606127480.178,-39.062,-36.621,-52.734,-134.766,0.000,0
1606127480.182,-8.301,-30.273,-42.969,-34.668,0.000,0
1606127480.186,22.461,-13.672,-30.762,94.727,0.000,0
1606127480.190,10.254,-13.672,-31.250,86.914,0.000,0
1606127480.194,-28.809,-26.855,-42.480,-56.641,0.000,0
1606127480.198,-46.387,-30.762,-46.387,-141.113,0.000,0
1606127480.202,-20.996,-19.531,-37.598,-62.988,0.000,0
1606127480.206,9.277,-10.742,-25.879,78.613,0.000,0
1606127480.210,-2.441,-15.137,-23.926,97.168,0.000,0
1606127480.214,-42.969,-19.043,-33.691,-36.133,0.000,0
1606127480.217,-64.453,-21.973,-41.992,-143.066,0.000,0
1606127480.221,-38.086,-19.043,-42.480,-80.078,0.000,0
1606127480.225,1.465,-3.418,-28.320,66.895,0.000,0
1606127480.229,10.254,3.418,-28.809,92.285,0.000,0
1606127480.233,-6.348,-11.719,-41.504,-9.277,0.000,0
1606127480.237,-36.133,-28.809,-44.434,-112.793,0.000,0
1606127480.241,-43.457,-29.785,-36.621,-93.262,0.000,0
1606127480.245,-25.879,-23.438,-15.625,33.691,0.000,0
1606127480.249,-11.230,-18.555,-4.883,82.520,0.000,0
1606127480.253,-32.715,-21.484,-15.137,-19.531,0.000,0
1606127480.257,-68.359,-37.598,-26.367,-144.043,0.000,0
1606127480.260,-55.664,-25.879,-17.090,-118.164,0.000,0
1606127480.264,-5.859,-29.297,-4.883,38.086,0.000,0
1606127480.268,5.859,-48.340,-0.977,102.539,0.000,0
1606127480.272,-19.043,-35.156,-3.906,2.930,0.000,0
1606127480.276,-41.016,-39.062,-20.508,-129.395,0.000,0
1606127480.280,-50.781,-40.527,-29.785,-125.977,0.000,0
1606127480.284,-8.789,-27.832,-15.137,20.996,0.000,0
1606127480.288,18.555,-21.484,-5.859,110.840,0.000,0
1606127480.292,-12.207,-33.691,-19.531,40.527,0.000,0
1606127480.296,-50.293,-45.898,-39.062,-103.516,0.000,0
1606127480.300,-42.480,-39.551,-38.086,-119.141,0.000,0
1606127480.303,4.883,-26.367,-22.461,22.461,0.000,0
1606127480.307,28.809,-16.602,-15.137,114.258,0.000,0
1606127480.311,10.254,-14.648,-23.438,47.852,0.000,0
1606127480.315,-26.367,-31.738,-36.133,-102.051,0.000,0
1606127480.319,-33.691,-37.109,-34.180,-145.508,0.000,0
1606127480.323,-6.836,-29.785,-18.066,-26.367,0.000,0
1606127480.327,20.020,-26.855,-10.742,96.191,0.000,0
1606127480.331,6.348,-24.902,-20.996,64.453,0.000,0
1606127480.335,-24.902,-34.668,-35.645,-85.938,0.000,0
1606127480.339,-29.785,-36.621,-41.992,-141.602,0.000,0
1606127480.342,-2.441,-14.648,-32.227,-40.527,0.000,0
1606127480.346,35.156,1.953,-23.926,87.402,0.000,0
1606127480.350,32.715,-4.395,-24.414,79.102,0.000,0
1606127480.354,-6.836,-14.160,-41.504,-69.336,0.000,0
1606127480.358,-24.414,-13.184,-52.734,-146.973,0.000,0
1606127480.362,-6.348,-8.789,-41.992,-60.059,0.000,0
1606127480.366,23.926,-0.488,-25.391,80.078,0.000,0
1606127480.370,25.391,-3.418,-24.902,84.473,0.000,0
1606127480.374,-14.160,-14.648,-41.016,-52.246,0.000,0
1606127480.378,-39.551,-20.508,-47.363,-138.672,0.000,0
1606127480.382,-18.555,-17.578,-41.992,-66.406,0.000,0
1606127480.385,17.090,-9.766,-30.273,76.660,0.000,0
1606127480.389,13.672,-1.465,-28.320,105.469,0.000,0
1606127480.393,-20.996,-13.672,-41.992,-18.066,0.000,0
1606127480.397,-44.434,-28.809,-53.223,-128.906,0.000,0
1606127480.401,-20.996,-20.020,-48.828,-78.613,0.000,0
1606127480.405,22.949,-5.859,-30.273,78.125,0.000,0
1606127480.409,27.344,-11.230,-28.320,123.535,0.000,0
1606127480.413,-1.953,-23.926,-40.039,-0.977,0.000,0
1606127480.417,-29.297,-28.320,-47.363,-120.117,0.000,0
1606127480.421,-9.277,-18.555,-42.969,-80.566,0.000,0
1606127480.425,34.668,-9.277,-23.926,72.266,0.000,0
1606127480.428,39.551,-9.277,-21.484,125.000,0.000,0
1606127480.432,7.324,-23.926,-38.086,17.090,0.000,0
1606127480.436,-17.578,-31.250,-41.992,-104.980,0.000,0
1606127480.440,-6.348,-22.949,-38.086,-96.191,0.000,0
1606127480.444,31.738,-11.719,-30.273,41.992,0.000,0
1606127480.448,50.781,-10.254,-26.367,125.000,0.000,0
1606127480.452,23.926,-19.531,-40.527,35.156,0.000,0
1606127480.456,-11.719,-29.297,-54.199,-106.934,0.000,0
1606127480.460,-6.348,-25.879,-49.805,-116.699,0.000,0
1606127480.464,28.809,-6.836,-37.109,14.648,0.000,0
1606127480.467,43.945,3.418,-32.715,111.816,0.000,0
1606127480.471,5.859,-7.324,-47.852,38.086,0.000,0
1606127480.475,-38.574,-21.973,-56.152,-112.305,0.000,0
1606127480.479,-47.852,-24.414,-49.316,-135.254,0.000,0
1606127480.483,-21.973,-9.766,-38.086,-10.742,0.000,0
1606127480.487,2.930,-0.977,-29.297,95.703,0.000,0
1606127480.491,-14.160,-10.742,-32.227,48.828,0.000,0
1606127480.495,-60.059,-19.531,-49.316,-107.422,0.000,0
1606127480.499,-69.336,-13.184,-54.199,-156.250,0.000,0
1606127480.503,-24.902,-6.348,-39.062,-41.992,0.000,0
1606127480.507,17.090,-0.488,-28.320,81.543,0.000,0
1606127480.510,3.418,-4.883,-32.227,56.152,0.000,0
1606127480.514,-37.109,-18.066,-50.781,-90.332,0.000,0
1606127480.518,-40.039,-19.043,-58.594,-149.902,0.000,0
1606127480.522,8.789,-10.742,-47.852,-40.527,0.000,0
1606127480.526,57.129,-4.883,-35.645,111.816,0.000,0
1606127480.530,28.809,-6.348,-26.855,95.703,0.000,0
1606127480.534,-35.645,-12.695,-35.645,-72.754,0.000,0
1606127480.538,-45.898,-22.949,-46.387,-150.391,0.000,0
1606127480.542,-27.832,-21.484,-40.527,-68.359,0.000,0
1606127480.546,-3.418,-9.766,-27.832,64.453,0.000,0
1606127480.550,6.348,-13.184,-22.949,87.402,0.000,0
1606127480.553,-29.785,-22.461,-35.156,-44.922,0.000,0
1606127480.557,-49.316,-20.996,-52.246,-137.207,0.000,0
1606127480.561,-27.344,-11.719,-41.992,-61.035,0.000,0
1606127480.565,20.508,-2.441,-21.973,86.914,0.000,0
1606127480.569,36.621,-2.930,-22.461,112.305,0.000,0
1606127480.573,-11.719,-16.113,-34.180,-14.648,0.000,0
1606127480.577,-35.156,-24.902,-42.969,-132.324,0.000,0
1606127480.581,-30.762,-18.555,-42.969,-101.562,0.000,0
1606127480.585,-10.254,-6.348,-31.738,35.645,0.000,0
1606127480.589,-2.930,2.441,-30.273,75.684,0.000,0
1606127480.592,-44.922,-7.324,-49.805,-42.480,0.000,0
1606127480.596,-71.777,-26.855,-62.500,-159.180,0.000,0
1606127480.600,-53.223,-36.133,-59.082,-134.766,0.000,0
1606127480.604,-15.625,-11.719,-41.992,11.719,0.000,0
1606127480.608,4.883,18.555,-27.344,94.727,0.000,0
1606127480.612,-24.414,-0.977,-35.156,5.371,0.000,0
1606127480.616,-59.082,-21.973,-50.293,-121.582,0.000,0
1606127480.620,-42.480,-15.625,-45.410,-112.305,0.000,0
1606127480.624,0.000,2.441,-33.691,29.297,0.000,0
1606127480.628,23.926,-0.488,-26.855,117.676,0.000,0
1606127480.632,4.883,-12.207,-31.250,42.969,0.000,0
1606127480.635,-27.832,-12.207,-43.457,-98.145,0.000,0
1606127480.639,-24.414,-14.648,-44.922,-118.164,0.000,0
1606127480.643,14.648,-14.160,-27.832,12.695,0.000,0
1606127480.647,37.109,-5.371,-20.020,118.652,0.000,0
1606127480.651,18.066,-10.254,-33.691,58.594,0.000,0
1606127480.655,-20.020,-20.996,-48.828,-88.379,0.000,0
1606127480.659,-24.902,-17.578,-52.246,-125.488,0.000,0
1606127480.663,9.277,-11.230,-41.016,-13.184,0.000,0
1606127480.667,28.809,-8.301,-33.203,90.332,0.000,0
1606127480.671,14.160,-7.812,-34.180,53.711,0.000,0
1606127480.675,-16.602,-16.113,-40.039,-82.520,0.000,0
1606127480.678,-24.414,-24.414,-52.246,-138.184,0.000,0
1606127480.682,11.230,-12.695,-48.340,-20.508,0.000,0
1606127480.686,48.828,3.418,-37.109,115.234,0.000,0
1606127480.690,36.621,0.488,-43.945,83.984,0.000,0
1606127480.694,-18.066,-14.648,-61.523,-72.754,0.000,0
1606127480.698,-33.691,-20.996,-73.730,-153.809,0.000,0
1606127480.702,6.836,-11.230,-60.547,-52.246,0.000,0
1606127480.706,29.297,4.883,-41.504,88.867,0.000,0
1606127480.710,1.953,-1.465,-44.434,81.055,0.000,0
1606127480.714,-37.109,-16.602,-59.570,-59.082,0.000,0
1606127480.717,-48.340,-16.602,-67.871,-143.066,0.000,0
1606127480.721,-16.602,-3.418,-51.758,-62.988,0.000,0
1606127480.725,23.438,3.418,-27.832,79.102,0.000,0
1606127480.729,28.320,-7.812,-28.809,105.957,0.000,0
1606127480.733,-8.789,-15.625,-45.410,-15.625,0.000,0
1606127480.737,-31.250,-12.695,-56.152,-117.188,0.000,0
1606127480.741,-8.789,-9.277,-50.781,-67.383,0.000,0
1606127480.745,31.250,4.883,-37.109,80.078,0.000,0
1606127480.749,39.551,0.977,-30.762,123.047,0.000,0
1606127480.753,5.371,-18.066,-40.527,3.418,0.000,0
1606127480.757,-22.949,-23.926,-54.688,-117.188,0.000,0
1606127480.760,-12.207,-13.672,-49.805,-94.727,0.000,0
1606127480.764,20.508,-7.324,-36.133,45.410,0.000,0
1606127480.768,29.785,-15.137,-28.320,107.910,0.000,0
1606127480.772,4.883,-24.902,-41.504,6.348,0.000,0
1606127480.776,-34.180,-25.879,-55.664,-125.977,0.000,0
1606127480.780,-27.344,-10.254,-45.898,-110.352,0.000,0
1606127480.784,11.230,-1.953,-33.691,29.297,0.000,0
1606127480.788,22.949,-10.742,-33.203,98.145,0.000,0
1606127480.792,-7.812,-22.949,-36.621,14.160,0.000,0
1606127480.796,-47.363,-30.273,-43.457,-119.629,0.000,0
1606127480.800,-43.457,-31.250,-44.434,-130.371,0.000,0
1606127480.803,-5.371,-26.855,-34.180,2.441,0.000,0
1606127480.807,10.742,-19.531,-24.902,94.238,0.000,0
1606127480.811,-16.113,-17.090,-26.855,28.320,0.000,0
1606127480.815,-59.570,-30.273,-48.340,-119.141,0.000,0
1606127480.819,-66.406,-33.691,-48.340,-152.832,0.000,0
1606127480.823,-18.066,-6.348,-30.762,-22.461,0.000,0
1606127480.827,17.578,2.441,-25.391,97.168,0.000,0
1606127480.831,-7.324,-19.531,-33.691,49.805,0.000,0
1606127480.835,-49.316,-27.832,-41.992,-93.750,0.000,0
1606127480.839,-48.340,-26.855,-40.039,-124.512,0.000,0
1606127480.842,-6.836,-22.461,-29.785,-10.254,0.000,0
1606127480.846,28.809,-14.648,-20.508,98.633,0.000,0
1606127480.850,11.719,-16.113,-23.438,69.824,0.000,0
1606127480.854,-26.855,-30.762,-37.109,-71.289,0.000,0
1606127480.858,-34.668,-29.785,-48.340,-132.324,0.000,0
1606127480.862,-7.324,-25.391,-39.062,-41.016,0.000,0
1606127480.866,19.043,-24.902,-24.414,79.590,0.000,0
1606127480.870,10.742,-24.414,-31.250,74.707,0.000,0
1606127480.874,-29.785,-27.832,-47.852,-66.406,0.000,0
1606127480.878,-43.945,-23.926,-44.434,-145.996,0.000,0
1606127480.882,-17.578,-25.391,-34.180,-64.941,0.000,0
1606127480.885,21.484,-9.277,-13.184,76.660,0.000,0
1606127480.889,23.438,1.465,-11.719,98.633,0.000,0
1606127480.893,-17.578,-14.160,-28.320,-30.273,0.000,0
1606127480.897,-39.062,-23.926,-38.086,-132.324,0.000,0
1606127480.901,-29.785,-23.926,-43.945,-74.707,0.000,0
1606127480.905,2.930,-15.137,-37.598,65.918,0.000,0
1606127480.909,3.418,-14.160,-32.227,95.703,0.000,0
1606127480.913,-27.832,-26.367,-43.945,-18.555,0.000,0
1606127480.917,-49.316,-32.227,-51.270,-122.070,0.000,0
1606127480.921,-36.133,-22.461,-40.039,-82.031,0.000,0
1606127480.925,-6.348,-26.367,-23.926,53.223,0.000,0
1606127480.928,-4.395,-26.855,-20.508,96.680,0.000,0
1606127480.932,-32.227,-22.461,-32.227,-3.906,0.000,0
1606127480.936,-62.988,-33.691,-47.363,-130.859,0.000,0
1606127480.940,-54.199,-35.645,-48.340,-116.699,0.000,0
1606127480.944,-12.207,-21.973,-32.715,32.227,0.000,0
1606127480.948,0.977,-21.484,-23.926,106.934,0.000,0
1606127480.952,-22.949,-27.832,-32.715,17.578,0.000,0
1606127480.956,-40.527,-28.809,-42.969,-109.863,0.000,0
1606127480.960,-27.344,-26.367,-37.109,-107.422,0.000,0
1606127480.964,21.973,-4.395,-20.508,27.344,0.000,0
1606127480.967,42.480,11.719,-13.184,115.234,0.000,0
1606127480.971,1.465,-13.184,-25.391,38.574,0.000,0
1606127480.975,-38.086,-35.645,-45.898,-109.863,0.000,0
1606127480.979,-36.133,-37.109,-48.828,-129.883,0.000,0
1606127480.983,4.883,-20.996,-29.785,1.465,0.000,0
1606127480.987,33.691,-0.488,-21.484,101.074,0.000,0
1606127480.991,3.906,-9.766,-36.133,41.016,0.000,0
1606127480.995,-40.527,-21.973,-49.805,-108.398,0.000,0
1606127480.999,-42.969,-22.949,-48.340,-147.949,0.000,0
1606127481.003,-11.230,-20.020,-38.086,-28.320,0.000,0
1606127481.007,13.184,-15.625,-30.762,80.566,0.000,0
1606127481.010,-3.906,-12.695,-33.203,41.504,0.000,0
1606127481.014,-42.480,-22.461,-41.992,-97.168,0.000,0
1606127481.018,-45.898,-26.855,-41.504,-149.902,0.000,0
1606127481.022,-18.066,-20.020,-33.203,-44.434,0.000,0
1606127481.026,-1.953,-10.742,-27.832,71.289,0.000,0
1606127481.030,-18.555,-13.672,-32.715,53.223,0.000,0
1606127481.034,-49.805,-27.344,-42.969,-81.055,0.000,0
1606127481.038,-59.570,-35.156,-52.246,-152.344,0.000,0
1606127481.042,-38.086,-23.926,-40.527,-64.453,0.000,0
1606127481.046,1.465,-8.789,-24.414,69.336,0.000,0
1606127481.050,6.348,-16.602,-29.297,81.055,0.000,0
1606127481.053,-36.133,-27.344,-41.504,-53.223,0.000,0
1606127481.057,-48.340,-23.926,-48.340,-139.160,0.000,0
1606127481.061,-23.438,-22.949,-42.969,-66.895,0.000,0
1606127481.065,10.254,-7.812,-28.320,74.219,0.000,0
1606127481.069,16.113,1.465,-21.973,96.191,0.000,0
1606127481.073,-14.160,-23.438,-37.109,-34.668,0.000,0
1606127481.077,-33.691,-30.762,-47.852,-139.648,0.000,0
1606127481.081,-15.137,-20.508,-47.852,-90.820,0.000,0
1606127481.085,22.461,-14.160,-35.645,52.246,0.000,0
1606127481.089,30.273,-12.207,-26.367,99.609,0.000,0
1606127481.092,-4.883,-18.066,-37.109,-10.254,0.000,0
1606127481.096,-34.668,-25.879,-47.852,-128.418,0.000,0
1606127481.100,-23.926,-26.367,-48.340,-102.051,0.000,0
1606127481.104,10.742,-20.508,-31.738,37.109,0.000,0
1606127481.108,15.625,-16.113,-24.414,96.191,0.000,0
1606127481.112,-15.137,-34.180,-39.062,-2.441,0.000,0
1606127481.116,-43.945,-47.363,-51.758,-126.953,0.000,0
1606127481.120,-36.133,-43.945,-46.875,-116.211,0.000,0
1606127481.124,6.348,-28.809,-25.879,25.879,0.000,0
1606127481.128,21.484,-17.578,-14.648,100.098,0.000,0
1606127481.132,-6.836,-22.461,-29.297,18.066,0.000,0
1606127481.135,-38.086,-24.902,-46.387,-107.422,0.000,0
1606127481.139,-28.809,-18.555,-44.434,-108.887,0.000,0
1606127481.143,13.672,-4.883,-26.367,33.691,0.000,0
1606127481.147,30.762,-3.906,-17.090,123.535,0.000,0
1606127481.151,8.301,-8.301,-20.996,55.176,0.000,0
1606127481.155,-22.461,-9.766,-33.203,-80.078,0.000,0
1606127481.159,-30.762,-12.695,-37.109,-113.770,0.000,0
1606127481.163,-10.254,-11.230,-26.855,-1.465,0.000,0
1606127481.167,13.184,-3.418,-14.160,104.980,0.000,0
1606127481.171,0.000,-2.930,-20.508,58.594,0.000,0
1606127481.175,-29.785,-18.066,-38.574,-82.520,0.000,0
1606127481.178,-35.156,-25.391,-44.434,-123.047,0.000,0
1606127481.182,-11.719,-19.531,-37.598,-19.043,0.000,0
1606127481.186,22.461,-4.883,-26.855,100.586,0.000,0
1606127481.190,15.137,-5.859,-24.414,76.660,0.000,0
1606127481.194,-27.832,-25.879,-35.156,-70.801,0.000,0
1606127481.198,-36.133,-26.855,-46.387,-134.766,0.000,0
1606127481.202,-2.441,-15.137,-39.062,-39.062,0.000,0
1606127481.206,23.438,-2.930,-28.320,86.914,0.000,0
1606127481.210,26.855,-5.859,-30.273,80.078,0.000,0
1606127481.214,-7.324,-21.973,-40.527,-55.664,0.000,0
1606127481.217,-34.668,-24.414,-47.852,-135.254,0.000,0
1606127481.221,-6.348,-14.648,-39.551,-57.129,0.000,0
1606127481.225,29.785,-0.488,-32.227,76.660,0.000,0
1606127481.229,28.809,-0.488,-31.738,94.238,0.000,0
1606127481.233,-8.789,-10.742,-41.992,-30.273,0.000,0
1606127481.237,-31.738,-19.043,-56.152,-128.418,0.000,0
1606127481.241,-10.254,-14.648,-43.945,-73.242,0.000,0
1606127481.245,26.855,1.953,-27.832,66.895,0.000,0
1606127481.249,28.809,8.301,-28.320,97.656,0.000,0
1606127481.253,-9.766,-13.184,-44.922,-23.438,0.000,0
1606127481.257,-31.250,-25.879,-57.129,-132.324,0.000,0
1606127481.260,-20.508,-21.973,-51.270,-95.215,0.000,0
1606127481.264,16.602,-11.719,-32.227,62.012,0.000,0
1606127481.268,39.551,2.441,-32.715,126.465,0.000,0
1606127481.272,6.836,-15.625,-55.664,5.371,0.000,0
1606127481.276,-33.203,-31.738,-66.406,-128.906,0.000,0
1606127481.280,-20.996,-19.531,-65.918,-115.234,0.000,0
1606127481.284,27.344,-0.977,-55.176,22.949,0.000,0
1606127481.288,35.645,5.371,-47.363,95.703,0.000,0
1606127481.292,3.418,-0.488,-53.223,15.137,0.000,0
1606127481.296,-25.391,-5.859,-59.570,-109.375,0.000,0
1606127481.300,-20.996,-8.789,-54.199,-113.281,0.000,0
1606127481.303,15.137,0.977,-39.551,27.344,0.000,0
1606127481.307,32.227,1.465,-31.738,111.816,0.000,0
1606127481.311,4.883,-18.066,-45.410,30.762,0.000,0
1606127481.315,-20.996,-25.879,-57.129,-100.586,0.000,0
1606127481.319,-20.508,-23.438,-51.758,-116.211,0.000,0
1606127481.323,4.395,-17.578,-45.898,3.418,0.000,0
1606127481.327,35.645,-9.766,-36.133,113.770,0.000,0
1606127481.331,21.973,-17.090,-38.086,64.941,0.000,0
1606127481.335,-12.207,-28.320,-60.547,-84.473,0.000,0
1606127481.339,-15.137,-28.809,-53.711,-114.746,0.000,0
1606127481.342,10.254,-20.020,-37.598,4.395,0.000,0
1606127481.346,29.297,-5.371,-34.180,104.980,0.000,0
1606127481.350,10.254,-8.301,-39.551,64.941,0.000,0
1606127481.354,-31.738,-23.926,-47.852,-76.660,0.000,0
1606127481.358,-42.480,-18.555,-46.875,-130.859,0.000,0
1606127481.362,-16.602,-13.184,-45.898,-34.668,0.000,0
1606127481.366,11.230,-12.207,-34.668,83.496,0.000,0
1606127481.370,4.395,-11.230,-30.762,67.383,0.000,0
1606127481.374,-37.109,-17.578,-45.898,-77.637,0.000,0
1606127481.378,-41.504,-22.949,-48.828,-142.578,0.000,0
1606127481.382,-1.953,-18.555,-41.016,-43.457,0.000,0
1606127481.385,36.133,-3.418,-30.762,96.191,0.000,0
1606127481.389,29.297,-4.883,-30.273,101.562,0.000,0
1606127481.393,-15.137,-26.855,-41.504,-39.551,0.000,0
1606127481.397,-33.203,-33.691,-48.828,-126.953,0.000,0
1606127481.401,-9.277,-19.043,-44.922,-54.688,0.000,0
1606127481.405,20.996,-6.836,-32.715,82.031,0.000,0
1606127481.409,19.531,-8.789,-33.203,92.773,0.000,0
1606127481.413,-15.625,-17.578,-41.992,-35.645,0.000,0
1606127481.417,-32.715,-21.484,-49.316,-132.324,0.000,0
1606127481.421,-8.301,-17.090,-40.527,-77.637,0.000,0
1606127481.425,22.949,-3.418,-28.320,63.965,0.000,0
1606127481.428,19.043,-7.324,-31.250,94.238,0.000,0
1606127481.432,-10.742,-23.926,-35.645,-11.230,0.000,0
1606127481.436,-28.320,-22.949,-39.551,-115.723,0.000,0
1606127481.440,-19.043,-26.367,-41.016,-98.145,0.000,0
1606127481.444,19.531,-15.625,-32.715,40.527,0.000,0
1606127481.448,31.738,-8.301,-26.367,103.027,0.000,0
1606127481.452,-5.859,-23.926,-34.180,0.977,0.000,0
1606127481.456,-32.715,-34.180,-42.969,-126.465,0.000,0
1606127481.460,-16.113,-28.809,-37.109,-113.281,0.000,0
1606127481.464,12.207,-16.602,-30.762,27.344,0.000,0
1606127481.467,27.344,-12.695,-31.738,102.051,0.000,0
1606127481.471,3.906,-20.996,-42.969,12.207,0.000,0
1606127481.475,-27.344,-33.203,-56.152,-117.188,0.000,0
1606127481.479,-18.555,-24.414,-47.852,-116.699,0.000,0
1606127481.483,22.461,-15.625,-32.227,13.672,0.000,0
1606127481.487,43.945,-18.066,-27.832,102.539,0.000,0
1606127481.491,18.066,-22.461,-36.621,35.645,0.000,0
1606127481.495,-27.344,-33.691,-51.758,-110.352,0.000,0
1606127481.499,-29.785,-30.273,-50.293,-136.230,0.000,0
1606127481.503,10.742,-18.066,-34.180,-7.812,0.000,0
1606127481.507,40.039,-12.695,-27.344,103.516,0.000,0
1606127481.510,21.973,-17.090,-35.645,57.617,0.000,0
1606127481.514,-28.320,-31.738,-47.363,-97.656,0.000,0
1606127481.518,-33.203,-30.273,-48.340,-141.602,0.000,0
1606127481.522,7.324,-14.160,-38.574,-20.020,0.000,0
1606127481.526,36.133,-7.324,-29.785,105.957,0.000,0
1606127481.530,19.043,-10.254,-33.203,80.566,0.000,0
1606127481.534,-19.531,-20.508,-40.527,-73.730,0.000,0
1606127481.538,-28.809,-22.461,-47.363,-138.672,0.000,0
1606127481.542,-2.930,-8.789,-41.504,-44.434,0.000,0
1606127481.546,27.832,2.441,-26.367,84.473,0.000,0
1606127481.550,25.391,-4.395,-32.715,87.891,0.000,0
1606127481.553,-12.207,-24.414,-46.875,-50.293,0.000,0
1606127481.557,-33.203,-23.438,-47.363,-133.301,0.000,0
1606127481.561,-12.695,-12.207,-38.574,-54.199,0.000,0
1606127481.565,13.672,-8.789,-28.320,76.660,0.000,0
1606127481.569,8.789,-16.113,-29.297,86.426,0.000,0
1606127481.573,-23.438,-23.926,-41.504,-46.387,0.000,0
1606127481.577,-50.293,-26.367,-51.758,-147.461,0.000,0
1606127481.581,-27.832,-21.973,-40.527,-83.008,0.000,0
1606127481.585,12.695,-12.207,-25.879,68.848,0.000,0
1606127481.589,11.230,-18.555,-31.738,102.539,0.000,0
1606127481.592,-17.578,-28.320,-47.363,-20.508,0.000,0
1606127481.596,-43.945,-29.785,-51.270,-131.348,0.000,0
1606127481.600,-28.809,-23.926,-41.992,-90.820,0.000,0
1606127481.604,16.602,-16.602,-32.227,53.223,0.000,0
1606127481.608,27.344,-10.742,-20.996,105.469,0.000,0
1606127481.612,-0.488,-13.184,-32.715,-5.371,0.000,0
1606127481.616,-25.879,-23.926,-50.781,-126.465,0.000,0
1606127481.620,-10.254,-18.066,-41.016,-97.656,0.000,0
1606127481.624,30.273,-4.883,-21.973,50.293,0.000,0
1606127481.628,41.016,-5.371,-20.996,119.141,0.000,0
1606127481.632,11.230,-14.160,-40.039,20.996,0.000,0
1606127481.635,-21.484,-23.926,-43.945,-103.516,0.000,0
1606127481.639,-17.090,-21.973,-39.551,-94.727,0.000,0
1606127481.643,15.625,-9.766,-31.250,34.668,0.000,0
1606127481.647,30.273,-10.254,-30.273,109.863,0.000,0
1606127481.651,8.301,-17.578,-41.016,31.250,0.000,0
1606127481.655,-23.926,-28.320,-48.340,-100.098,0.000,0
1606127481.659,-21.973,-30.762,-43.457,-107.422,0.000,0
1606127481.663,8.789,-12.207,-29.785,13.184,0.000,0
1606127481.667,20.020,-6.836,-28.320,98.145,0.000,0
1606127481.671,12.207,-18.555,-37.598,41.016,0.000,0
1606127481.675,-20.996,-29.297,-42.480,-96.191,0.000,0
1606127481.678,-40.527,-31.738,-36.621,-127.930,0.000,0
1606127481.682,-5.859,-23.926,-25.879,-15.137,0.000,0
1606127481.686,22.949,-19.531,-16.113,96.680,0.000,0
1606127481.690,6.836,-25.391,-25.391,61.035,0.000,0
1606127481.694,-36.133,-35.645,-47.852,-83.496,0.000,0
1606127481.698,-43.457,-34.668,-48.828,-126.953,0.000,0
1606127481.702,-8.789,-15.137,-31.738,-19.043,0.000,0
1606127481.706,18.555,-5.859,-23.926,98.145,0.000,0
1606127481.710,16.113,-13.672,-24.902,78.613,0.000,0
1606127481.714,-16.113,-21.484,-37.109,-54.688,0.000,0
1606127481.717,-35.156,-25.879,-48.828,-126.465,0.000,0
1606127481.721,-11.230,-22.949,-42.969,-50.781,0.000,0
1606127481.725,20.996,-11.230,-27.832,80.078,0.000,0
1606127481.729,20.996,-10.742,-22.461,88.867,0.000,0
1606127481.733,-15.137,-10.742,-32.715,-42.480,0.000,0
1606127481.737,-37.598,-18.066,-41.992,-131.836,0.000,0
1606127481.741,-11.230,-23.438,-39.062,-66.895,0.000,0
1606127481.745,23.438,-11.230,-32.227,68.848,0.000,0
1606127481.749,17.578,-13.184,-32.715,83.008,0.000,0
1606127481.753,-16.602,-22.461,-38.574,-39.062,0.000,0
1606127481.757,-36.133,-29.297,-43.945,-128.418,0.000,0
1606127481.760,-14.160,-18.555,-37.598,-70.801,0.000,0
1606127481.764,20.508,1.465,-25.879,69.824,0.000,0
1606127481.768,21.973,-1.953,-24.414,105.469,0.000,0
1606127481.772,-9.766,-11.230,-41.504,-3.906,0.000,0
1606127481.776,-35.156,-22.949,-48.340,-115.234,0.000,0
1606127481.780,-19.043,-22.949,-36.621,-81.055,0.000,0
1606127481.784,13.672,-12.695,-31.250,55.664,0.000,0
1606127481.788,23.926,-12.207,-30.273,106.934,0.000,0
1606127481.792,-6.836,-18.066,-34.180,12.207,0.000,0
1606127481.796,-38.086,-24.414,-42.480,-105.469,0.000,0
1606127481.800,-28.320,-21.484,-41.992,-89.355,0.000,0
1606127481.803,7.324,-8.301,-38.574,45.410,0.000,0
1606127481.807,18.066,-7.812,-26.855,113.770,0.000,0
1606127481.811,-5.859,-19.043,-19.531,33.203,0.000,0
1606127481.815,-34.180,-29.297,-28.809,-102.051,0.000,0
1606127481.819,-30.762,-34.180,-36.621,-115.723,0.000,0
1606127481.823,10.742,-21.973,-20.508,17.578,0.000,0
1606127481.827,36.621,-5.859,-14.160,115.723,0.000,0
1606127481.831,13.672,-9.766,-23.438,52.734,0.000,0
1606127481.835,-26.367,-20.020,-32.715,-89.844,0.000,0
1606127481.839,-21.973,-20.508,-35.156,-117.676,0.000,0
1606127481.842,12.695,-9.277,-26.367,-0.488,0.000,0
1606127481.846,35.645,0.000,-23.438,94.238,0.000,0
1606127481.850,43.457,-9.766,-30.273,59.082,0.000,0
1606127481.854,0.488,-22.949,-35.645,-71.289,0.000,0
1606127481.858,-52.734,-27.832,-26.855,-134.766,0.000,0
1606127481.862,-43.945,-20.996,-25.391,-52.246,0.000,0
1606127481.866,-13.184,-5.859,-13.672,67.383,0.000,0
1606127481.870,-24.414,-22.461,-15.625,46.387,0.000,0
1606127481.874,-65.430,-42.969,-35.156,-101.562,0.000,0
1606127481.878,-76.172,-37.109,-33.203,-161.133,0.000,0
1606127481.882,-38.574,-27.832,-21.484,-62.012,0.000,0
1606127481.885,-5.371,-17.090,-9.277,68.848,0.000,0
1606127481.889,-4.883,-7.812,-8.301,66.406,0.000,0
1606127481.893,-36.621,-21.484,-22.949,-65.918,0.000,0
1606127481.897,-53.223,-33.691,-33.691,-139.160,0.000,0
1606127481.901,-28.320,-24.414,-22.949,-60.059,0.000,0
1606127481.905,2.441,-8.789,-5.859,79.102,0.000,0
1606127481.909,-8.789,-17.578,-9.277,92.773,0.000,0
1606127481.913,-47.363,-35.156,-26.855,-39.062,0.000,0
1606127481.917,-49.316,-33.691,-23.926,-125.000,0.000,0
1606127481.921,-16.113,-21.973,-18.555,-64.453,0.000,0
1606127481.925,24.902,-14.160,-19.531,66.895,0.000,0
1606127481.928,32.227,-13.672,-17.578,90.332,0.000,0
1606127481.932,-4.395,-20.996,-24.902,-22.461,0.000,0
1606127481.936,-39.062,-27.344,-35.645,-121.582,0.000,0
1606127481.940,-14.648,-21.484,-26.855,-77.148,0.000,0
1606127481.944,29.785,-11.230,-14.160,62.012,0.000,0
1606127481.948,30.273,-6.836,-17.578,107.422,0.000,0
1606127481.952,-3.906,-21.484,-26.855,2.930,0.000,0
1606127481.956,-29.785,-30.762,-36.133,-114.746,0.000,0
1606127481.960,-18.066,-24.414,-36.133,-98.145,0.000,0
1606127481.964,26.855,-7.812,-21.973,36.133,0.000,0
1606127481.967,38.086,0.488,-12.207,109.375,0.000,0
1606127481.971,-4.395,-24.414,-31.250,13.672,0.000,0
1606127481.975,-33.691,-33.203,-53.711,-117.676,0.000,0
1606127481.979,-25.879,-23.438,-50.781,-104.004,0.000,0
1606127481.983,6.836,-20.996,-29.297,32.715,0.000,0
1606127481.987,22.949,-22.461,-25.391,118.164,0.000,0
1606127481.991,-0.488,-21.484,-36.133,33.691,0.000,0
1606127481.995,-28.809,-19.043,-42.969,-102.051,0.000,0
1606127481.999,-18.555,-21.973,-44.434,-111.328,0.000,0
1606127482.003,15.137,-16.113,-28.320,13.184,0.000,0
1606127482.007,26.367,-10.254,-16.602,105.957,0.000,0
1606127482.010,1.953,-20.508,-21.484,50.293,0.000,0
1606127482.014,-35.156,-29.785,-37.109,-79.590,0.000,0
1606127482.018,-39.551,-29.785,-41.504,-116.699,0.000,0
1606127482.022,-5.859,-22.461,-31.250,-7.324,0.000,0
1606127482.026,19.531,-8.301,-17.578,102.051,0.000,0
1606127482.030,3.418,-11.230,-19.531,69.336,0.000,0
1606127482.034,-33.203,-23.438,-37.109,-69.824,0.000,0
1606127482.038,-42.480,-32.227,-40.039,-127.930,0.000,0
1606127482.042,-17.578,-32.715,-26.855,-32.227,0.000,0
1606127482.046,11.230,-18.066,-20.020,88.379,0.000,0
1606127482.050,11.719,-22.949,-32.227,68.848,0.000,0
1606127482.053,-18.555,-33.691,-45.898,-66.895,0.000,0
1606127482.057,-28.809,-30.273,-48.340,-131.348,0.000,0
1606127482.061,1.465,-19.531,-38.086,-44.922,0.000,0
1606127482.065,30.762,-12.695,-30.762,78.613,0.000,0
1606127482.069,22.949,-16.113,-29.297,82.520,0.000,0
1606127482.073,-8.789,-23.438,-30.762,-41.992,0.000,0
1606127482.077,-26.855,-29.297,-42.969,-134.766,0.000,0
1606127482.081,-15.625,-28.809,-43.945,-75.195,0.000,0
1606127482.085,9.277,-21.973,-36.621,65.430,0.000,0
1606127482.089,10.742,-22.461,-37.598,81.055,0.000,0
1606127482.092,-11.719,-31.250,-41.504,-37.598,0.000,0
1606127482.096,-29.785,-34.668,-45.898,-122.559,0.000,0
1606127482.100,-16.602,-36.133,-40.527,-75.195,0.000,0
1606127482.104,18.555,-23.438,-24.902,68.359,0.000,0
1606127482.108,20.020,-6.836,-22.461,109.375,0.000,0
1606127482.112,-15.625,-20.508,-34.180,-4.395,0.000,0
1606127482.116,-46.875,-33.691,-41.992,-114.258,0.000,0
1606127482.120,-41.992,-28.320,-36.621,-89.844,0.000,0
1606127482.124,-3.418,-14.160,-25.879,41.016,0.000,0
1606127482.128,12.207,-12.207,-22.949,99.121,0.000,0
1606127482.132,-13.184,-23.926,-30.762,5.859,0.000,0
1606127482.135,-51.270,-32.715,-49.316,-115.723,0.000,0
1606127482.139,-43.457,-22.461,-47.363,-97.656,0.000,0
1606127482.143,4.883,-21.484,-22.949,49.805,0.000,0
1606127482.147,11.719,-30.762,-15.137,115.234,0.000,0
1606127482.151,-15.625,-27.344,-22.461,28.809,0.000,0
1606127482.155,-41.992,-21.484,-28.320,-95.215,0.000,0
1606127482.159,-40.039,-27.832,-30.273,-104.492,0.000,0
1606127482.163,-0.977,-24.902,-22.949,17.090,0.000,0
1606127482.167,19.043,-20.508,-19.043,103.027,0.000,0
1606127482.171,5.859,-23.438,-23.926,54.688,0.000,0
1606127482.175,-18.555,-25.879,-33.203,-80.566,0.000,0
1606127482.178,-24.902,-34.668,-40.527,-112.793,0.000,0
1606127482.182,9.277,-23.926,-32.227,13.184,0.000,0
1606127482.186,41.992,-8.789,-16.602,115.234,0.000,0
1606127482.190,22.461,-14.648,-22.461,63.965,0.000,0
1606127482.194,-17.090,-31.738,-34.180,-80.566,0.000,0
1606127482.198,-19.531,-33.203,-37.109,-126.465,0.000,0
1606127482.202,15.137,-11.230,-27.344,-22.461,0.000,0
1606127482.206,38.574,-5.371,-13.672,90.332,0.000,0
1606127482.210,19.531,-19.043,-21.484,70.312,0.000,0
1606127482.214,-21.484,-32.227,-41.992,-74.707,0.000,0
1606127482.217,-27.832,-26.367,-44.434,-135.742,0.000,0
1606127482.221,-0.977,-8.789,-32.227,-40.527,0.000,0
1606127482.225,27.344,1.953,-17.090,88.867,0.000,0
1606127482.229,16.113,-3.906,-17.090,87.891,0.000,0
1606127482.233,-26.855,-17.578,-32.227,-55.664,0.000,0
1606127482.237,-43.945,-31.250,-38.086,-141.602,0.000,0
1606127482.241,-24.414,-28.809,-36.133,-64.941,0.000,0
1606127482.245,3.906,-15.137,-27.344,69.336,0.000,0
1606127482.249,6.836,-15.625,-21.973,88.379,0.000,0
1606127482.253,-23.926,-29.785,-35.156,-43.457,0.000,0
1606127482.257,-51.758,-32.715,-41.504,-148.438,0.000,0
1606127482.260,-34.668,-29.785,-33.203,-89.355,0.000,0
1606127482.264,-2.930,-19.531,-21.484,49.316,0.000,0
1606127482.268,-2.441,-14.648,-20.020,80.078,0.000,0
1606127482.272,-29.785,-24.902,-31.250,-33.203,0.000,0
1606127482.276,-50.781,-32.227,-40.527,-138.184,0.000,0
1606127482.280,-39.062,-29.297,-33.203,-100.098,0.000,0
1606127482.284,2.930,-13.672,-17.578,39.551,0.000,0
1606127482.288,18.066,-4.883,-13.672,93.262,0.000,0
1606127482.292,-18.555,-23.438,-31.250,-6.348,0.000,0
1606127482.296,-39.062,-34.180,-47.852,-122.070,0.000,0
1606127482.300,-12.207,-21.484,-40.039,-94.238,0.000,0
1606127482.303,30.762,-11.230,-17.090,50.781,0.000,0
1606127482.307,43.945,-20.020,-12.695,112.793,0.000,0
1606127482.311,23.438,-16.113,-22.949,26.367,0.000,0
1606127482.315,-4.883,-12.207,-28.809,-98.633,0.000,0
1606127482.319,-10.254,-16.602,-35.156,-107.422,0.000,0
1606127482.323,22.461,-5.859,-23.926,21.973,0.000,0
1606127482.327,42.969,0.977,-9.277,106.445,0.000,0
1606127482.331,18.555,-13.672,-17.090,34.668,0.000,0
1606127482.335,-22.461,-28.320,-32.227,-101.074,0.000,0
1606127482.339,-27.344,-21.973,-38.574,-122.559,0.000,0
1606127482.342,12.695,-0.977,-26.855,-2.930,0.000,0
1606127482.346,31.738,6.348,-12.695,99.121,0.000,0
1606127482.350,8.301,-8.789,-15.137,49.316,0.000,0
1606127482.354,-27.832,-22.949,-29.297,-95.703,0.000,0
1606127482.358,-35.645,-25.391,-39.551,-137.207,0.000,0
1606127482.362,-8.301,-13.672,-34.180,-26.855,0.000,0
1606127482.366,8.301,-8.301,-24.902,84.473,0.000,0
1606127482.370,-13.184,-15.137,-26.367,49.805,0.000,0
1606127482.374,-45.898,-19.531,-39.551,-95.215,0.000,0
1606127482.378,-50.293,-20.020,-45.410,-151.855,0.000,0
1606127482.382,-33.203,-14.648,-33.691,-48.828,0.000,0
1606127482.385,-12.207,-2.930,-21.484,72.266,0.000,0
1606127482.389,-22.949,-5.859,-29.785,50.781,0.000,0
1606127482.393,-49.316,-31.738,-42.480,-74.219,0.000,0
1606127482.397,-37.109,-34.668,-45.410,-120.605,0.000,0
1606127482.401,-1.465,-12.695,-46.875,-43.457,0.000,0
1606127482.405,25.391,10.254,-35.156,74.707,0.000,0
1606127482.409,27.832,19.531,-31.738,85.449,0.000,0
1606127482.413,7.324,7.812,-49.805,-36.621,0.000,0
1606127482.417,-7.812,3.906,-69.824,-124.023,0.000,0
1606127482.421,18.066,13.672,-78.613,-59.082,0.000,0
1606127482.425,71.777,20.996,-64.941,89.355,0.000,0
1606127482.428,95.215,13.184,-50.781,135.742,0.000,0
1606127482.432,63.965,-0.488,-63.477,29.785,0.000,0
1606127482.436,33.691,-4.395,-71.289,-72.266,0.000,0
1606127482.440,51.758,-7.324,-54.688,-29.785,0.000,0
1606127482.444,73.730,0.488,-41.016,109.863,0.000,0
1606127482.448,79.590,0.488,-36.621,154.785,0.000,0
1606127482.452,43.457,-8.301,-43.457,43.457,0.000,0
1606127482.456,3.906,-20.020,-45.898,-72.266,0.000,0
1606127482.460,19.531,-25.391,-43.945,-38.574,0.000,0
1606127482.464,54.688,-12.695,-32.227,97.656,0.000,0
1606127482.467,65.918,-5.371,-19.531,152.832,0.000,0
1606127482.471,32.715,-18.555,-31.250,52.734,0.000,0
1606127482.475,3.418,-30.762,-48.828,-83.008,0.000,0
1606127482.479,13.672,-31.738,-49.316,-74.707,0.000,0
1606127482.483,40.527,-20.996,-39.062,69.336,0.000,0
1606127482.487,51.758,-12.207,-35.156,141.602,0.000,0
1606127482.491,27.832,-18.066,-39.062,61.035,0.000,0
1606127482.495,-6.348,-24.414,-51.270,-69.336,0.000,0
1606127482.499,-0.977,-22.461,-52.734,-78.125,0.000,0
1606127482.503,40.527,-10.742,-33.691,51.270,0.000,0
1606127482.507,63.965,0.000,-21.973,147.949,0.000,0
1606127482.510,43.457,-11.719,-29.297,89.355,0.000,0
1606127482.514,0.977,-27.832,-45.898,-55.176,0.000,0
1606127482.518,-0.488,-26.367,-48.828,-83.984,0.000,0
1606127482.522,41.016,-20.020,-37.109,31.738,0.000,0
1606127482.526,62.988,-7.324,-22.949,129.883,0.000,0
1606127482.530,45.410,-3.418,-22.461,89.355,0.000,0
1606127482.534,9.277,-20.020,-34.668,-49.316,0.000,0
1606127482.538,2.930,-28.320,-37.598,-97.168,0.000,0
1606127482.542,42.969,-18.555,-30.762,7.324,0.000,0
1606127482.546,80.078,-8.789,-22.461,125.977,0.000,0
1606127482.550,60.059,-13.672,-23.438,104.004,0.000,0
1606127482.553,20.996,-27.344,-35.156,-37.598,0.000,0
1606127482.557,12.695,-31.738,-42.969,-104.492,0.000,0
1606127482.561,34.180,-21.484,-37.598,-8.789,0.000,0
1606127482.565,57.129,-11.230,-24.902,114.258,0.000,0
1606127482.569,43.945,-14.648,-25.879,101.074,0.000,0
1606127482.573,-1.953,-32.715,-40.039,-36.621,0.000,0
1606127482.577,-20.508,-28.320,-43.457,-115.723,0.000,0
1606127482.581,-1.953,-19.531,-35.156,-40.039,0.000,0
1606127482.585,28.809,-16.113,-33.203,92.773,0.000,0
1606127482.589,26.855,-10.742,-30.762,102.539,0.000,0
1606127482.592,-1.465,-13.184,-28.320,-20.020,0.000,0
1606127482.596,-18.066,-20.020,-40.527,-112.793,0.000,0
1606127482.600,2.441,-14.160,-38.574,-53.223,0.000,0
1606127482.604,41.504,-2.930,-19.043,91.797,0.000,0
1606127482.608,51.270,-6.348,-14.160,132.812,0.000,0
1606127482.612,24.414,-10.254,-24.902,14.648,0.000,0
1606127482.616,-6.836,-12.695,-40.039,-106.934,0.000,0
1606127482.620,3.418,-11.230,-41.016,-72.754,0.000,0
1606127482.624,46.875,7.812,-24.414,72.754,0.000,0
1606127482.628,39.551,7.324,-21.484,114.258,0.000,0
1606127482.632,-11.719,-15.625,-32.227,0.000,0.000,0
1606127482.635,-40.039,-24.414,-40.039,-119.629,0.000,0
1606127482.639,-30.762,-21.973,-41.992,-99.609,0.000,0
1606127482.643,15.625,-9.277,-28.809,39.551,0.000,0
1606127482.647,29.785,-3.418,-20.996,109.863,0.000,0
1606127482.651,-0.977,-12.207,-37.109,21.973,0.000,0
1606127482.655,-28.320,-20.996,-45.898,-109.863,0.000,0
1606127482.659,-24.902,-23.926,-36.621,-107.422,0.000,0
1606127482.663,0.488,-18.555,-31.738,16.113,0.000,0
1606127482.667,18.555,-10.254,-26.855,94.727,0.000,0
1606127482.671,-7.324,-17.578,-35.645,22.949,0.000,0
1606127482.675,-47.852,-32.227,-47.363,-113.770,0.000,0
1606127482.678,-48.340,-30.273,-50.293,-131.836,0.000,0
1606127482.682,-20.996,-24.902,-45.898,-10.742,0.000,0
1606127482.686,1.953,-14.648,-33.691,91.309,0.000,0
1606127482.690,-9.766,-21.973,-36.621,41.016,0.000,0
1606127482.694,-47.363,-43.945,-50.293,-98.633,0.000,0
1606127482.698,-57.617,-43.945,-57.617,-135.254,0.000,0
1606127482.702,-22.461,-30.273,-43.945,-21.973,0.000,0
1606127482.706,12.207,-16.602,-22.461,91.797,0.000,0
1606127482.710,-8.301,-26.855,-32.715,53.711,0.000,0
1606127482.714,-46.387,-41.504,-47.852,-88.867,0.000,0
1606127482.717,-43.457,-28.809,-47.852,-131.348,0.000,0
1606127482.721,-14.160,-22.949,-36.621,-24.902,0.000,0
1606127482.725,13.672,-22.949,-25.879,98.145,0.000,0
1606127482.729,14.160,-24.414,-24.902,83.984,0.000,0
1606127482.733,-18.066,-32.227,-38.574,-51.758,0.000,0
1606127482.737,-32.715,-33.203,-46.875,-124.512,0.000,0
1606127482.741,-8.301,-21.484,-34.668,-46.875,0.000,0
1606127482.745,26.367,-5.859,-20.508,85.449,0.000,0
1606127482.749,20.996,-7.812,-24.414,88.867,0.000,0
1606127482.753,-15.137,-27.832,-40.527,-46.387,0.000,0
1606127482.757,-40.039,-34.668,-47.852,-133.301,0.000,0
1606127482.760,-32.227,-22.461,-38.574,-67.871,0.000,0
1606127482.764,9.766,-11.719,-18.555,69.824,0.000,0
1606127482.768,10.254,-17.090,-17.578,94.727,0.000,0
1606127482.772,-30.762,-28.809,-36.621,-31.738,0.000,0
1606127482.776,-49.316,-28.320,-47.363,-133.789,0.000,0
1606127482.780,-25.879,-18.066,-37.109,-80.566,0.000,0
1606127482.784,4.883,-10.254,-24.414,52.246,0.000,0
1606127482.788,8.301,-18.555,-24.902,82.031,0.000,0
1606127482.792,-25.391,-25.391,-31.738,-23.438,0.000,0
1606127482.796,-54.688,-25.879,-41.992,-128.906,0.000,0
1606127482.800,-41.016,-26.367,-38.574,-100.098,0.000,0
1606127482.803,-5.371,-18.555,-27.832,38.086,0.000,0
1606127482.807,3.906,-22.461,-23.926,97.656,0.000,0
1606127482.811,-20.996,-26.367,-32.227,5.371,0.000,0
1606127482.815,-43.457,-30.762,-39.551,-117.188,0.000,0
1606127482.819,-34.180,-33.203,-34.180,-109.375,0.000,0
1606127482.823,2.930,-14.160,-24.414,29.785,0.000,0
1606127482.827,22.949,-3.906,-15.625,109.375,0.000,0
1606127482.831,2.441,-11.230,-20.020,37.598,0.000,0
1606127482.835,-25.391,-18.066,-33.203,-87.402,0.000,0
1606127482.839,-21.484,-22.949,-38.574,-102.051,0.000,0
1606127482.842,12.207,-10.742,-22.949,22.461,0.000,0
1606127482.846,36.621,-6.836,-10.254,111.328,0.000,0
1606127482.850,11.719,-18.555,-23.438,46.875,0.000,0
1606127482.854,-20.996,-22.461,-38.086,-95.215,0.000,0
1606127482.858,-16.602,-10.742,-43.945,-122.559,0.000,0
1606127482.862,18.555,2.930,-38.574,0.488,0.000,0
1606127482.866,44.434,3.906,-23.926,103.516,0.000,0
1606127482.870,35.645,-7.812,-27.344,56.152,0.000,0
1606127482.874,-15.625,-19.043,-42.969,-83.984,0.000,0
1606127482.878,-43.457,-21.973,-44.922,-134.766,0.000,0
1606127482.882,-4.883,-10.742,-37.109,-29.297,0.000,0
1606127482.885,28.320,-0.977,-25.879,98.145,0.000,0
1606127482.889,6.836,-15.625,-26.855,75.195,0.000,0
1606127482.893,-37.109,-27.832,-42.480,-67.871,0.000,0
1606127482.897,-49.316,-30.273,-51.758,-132.812,0.000,0
1606127482.901,-29.785,-27.344,-40.039,-42.969,0.000,0
1606127482.905,1.465,-15.137,-18.066,86.426,0.000,0
1606127482.909,0.000,-16.113,-17.578,87.891,0.000,0
1606127482.913,-44.434,-35.156,-35.645,-49.805,0.000,0
1606127482.917,-63.965,-35.156,-41.504,-130.371,0.000,0
1606127482.921,-36.133,-20.020,-31.738,-48.340,0.000,0
1606127482.925,-1.953,-13.672,-23.926,77.637,0.000,0
1606127482.928,0.000,-14.648,-25.391,88.379,0.000,0
1606127482.932,-28.320,-16.602,-32.715,-27.832,0.000,0
1606127482.936,-46.875,-14.648,-37.598,-117.676,0.000,0
1606127482.940,-29.785,-24.902,-34.180,-68.848,0.000,0
1606127482.944,4.395,-20.996,-24.414,65.430,0.000,0
1606127482.948,8.301,-17.090,-21.484,101.074,0.000,0
1606127482.952,-19.043,-22.949,-32.227,-13.184,0.000,0
1606127482.956,-38.086,-18.555,-35.645,-118.652,0.000,0
1606127482.960,-24.414,-16.602,-35.156,-82.031,0.000,0
1606127482.964,13.184,-11.719,-25.391,60.059,0.000,0
1606127482.967,28.809,-7.812,-16.602,117.188,0.000,0
1606127482.971,2.441,-15.625,-28.320,15.625,0.000,0
1606127482.975,-22.461,-20.020,-34.180,-105.957,0.000,0
1606127482.979,-7.324,-11.719,-24.902,-91.797,0.000,0
1606127482.983,26.367,-5.859,-16.113,45.410,0.000,0
1606127482.987,39.551,-15.625,-13.184,115.723,0.000,0
1606127482.991,23.926,-25.391,-22.949,27.344,0.000,0
1606127482.995,-18.555,-31.250,-42.969,-102.051,0.000,0
1606127482.999,-25.879,-21.484,-41.992,-101.074,0.000,0
1606127483.003,7.324,-15.137,-32.227,22.461,0.000,0
1606127483.007,21.973,-18.555,-26.855,106.445,0.000,0
1606127483.010,7.812,-18.066,-22.949,48.340,0.000,0
1606127483.014,-24.414,-17.090,-30.762,-85.938,0.000,0
1606127483.018,-26.367,-20.020,-39.062,-108.887,0.000,0
1606127483.022,7.812,-18.555,-26.855,5.371,0.000,0
1606127483.026,20.996,-12.695,-12.695,97.656,0.000,0
1606127483.030,-7.812,-14.648,-20.508,46.875,0.000,0
1606127483.034,-40.527,-20.020,-29.785,-93.750,0.000,0
1606127483.038,-44.434,-23.926,-32.715,-135.742,0.000,0
1606127483.042,-13.184,-17.090,-27.344,-25.879,0.000,0
1606127483.046,13.672,-21.973,-15.625,86.914,0.000,0
1606127483.050,0.488,-31.250,-19.043,60.059,0.000,0
1606127483.053,-35.156,-23.926,-34.668,-75.684,0.000,0
1606127483.057,-47.852,-23.926,-47.363,-134.766,0.000,0
1606127483.061,-16.113,-14.648,-38.574,-40.527,0.000,0
1606127483.065,25.879,-9.277,-20.996,82.520,0.000,0
1606127483.069,29.297,-10.742,-15.137,72.754,0.000,0
1606127483.073,-11.230,-17.578,-28.809,-67.871,0.000,0
1606127483.077,-33.691,-20.020,-38.086,-135.742,0.000,0
1606127483.081,-5.859,-12.207,-31.738,-47.363,0.000,0
1606127483.085,23.438,-7.812,-18.555,77.637,0.000,0
1606127483.089,17.090,-7.812,-17.090,86.914,0.000,0
1606127483.092,-10.742,-7.812,-31.738,-36.621,0.000,0
1606127483.096,-22.461,-10.742,-40.527,-125.488,0.000,0
1606127483.100,-7.324,-13.672,-35.645,-63.965,0.000,0
1606127483.104,20.508,-8.301,-22.949,67.871,0.000,0
1606127483.108,30.273,0.488,-20.020,97.168,0.000,0
1606127483.112,-7.812,-11.230,-32.715,-17.578,0.000,0
1606127483.116,-38.086,-18.555,-41.504,-129.395,0.000,0
1606127483.120,-28.809,-9.277,-34.668,-93.262,0.000,0
1606127483.124,7.324,0.488,-23.438,50.781,0.000,0
1606127483.128,14.160,-9.766,-24.902,92.773,0.000,0
1606127483.132,-11.719,-23.438,-31.250,-8.301,0.000,0
1606127483.135,-35.645,-30.762,-27.832,-107.910,0.000,0
1606127483.139,-56.152,-28.809,-18.066,-109.863,0.000,0
1606127483.143,-53.711,-20.996,-5.859,-5.859,0.000,0
1606127483.147,-50.293,-22.461,-1.953,51.758,0.000,0
1606127483.151,-89.355,-37.109,-15.137,-50.293,0.000,0
1606127483.155,-138.672,-42.969,-17.578,-195.312,0.000,0
1606127483.159,-136.719,-40.527,11.230,-200.684,0.000,0
1606127483.163,-97.656,-43.945,35.156,-66.895,0.000,0
1606127483.167,-86.914,-32.715,44.434,12.695,0.000,0
1606127483.171,-117.676,-37.109,30.762,-67.383,0.000,0
1606127483.175,-145.020,-60.059,7.324,-191.895,0.000,0
1606127483.178,-138.184,-54.199,17.578,-190.430,0.000,0
1606127483.182,-112.305,-43.945,42.969,-62.012,0.000,0
1606127483.186,-88.867,-56.641,43.945,36.621,0.000,0
1606127483.190,-104.004,-63.965,40.039,-15.137,0.000,0
1606127483.194,-129.395,-63.965,36.621,-147.461,0.000,0
1606127483.198,-115.723,-63.965,33.203,-161.133,0.000,0
1606127483.202,-74.219,-56.152,46.387,-32.715,0.000,0
1606127483.206,-36.133,-52.734,50.293,72.754,0.000,0
1606127483.210,-46.875,-64.453,37.598,34.668,0.000,0
1606127483.214,-74.219,-69.336,21.484,-94.727,0.000,0
1606127483.217,-66.895,-66.406,10.254,-128.906,0.000,0
1606127483.221,-28.320,-58.105,19.043,-19.531,0.000,0
1606127483.225,8.789,-50.293,24.414,101.074,0.000,0
1606127483.229,4.395,-53.711,16.113,87.402,0.000,0
1606127483.233,-22.949,-55.176,7.812,-35.156,0.000,0
1606127483.237,-35.645,-54.688,-2.441,-97.656,0.000,0
1606127483.241,-9.277,-51.758,-0.488,-12.207,0.000,0
1606127483.245,27.832,-42.969,15.137,120.117,0.000,0
1606127483.249,20.508,-33.691,15.137,117.188,0.000,0
1606127483.253,-20.996,-41.992,-5.371,-14.648,0.000,0
1606127483.257,-34.180,-53.223,-12.207,-95.703,0.000,0
1606127483.260,-14.648,-37.598,-7.812,-30.273,0.000,0
1606127483.264,10.254,-34.180,-2.930,104.980,0.000,0
1606127483.268,17.090,-45.898,-1.465,126.465,0.000,0
1606127483.272,-17.578,-49.805,-18.066,-0.488,0.000,0
1606127483.276,-41.992,-52.734,-30.762,-99.121,0.000,0
1606127483.280,-16.602,-40.039,-22.949,-42.969,0.000,0
1606127483.284,17.578,-24.414,-13.672,96.191,0.000,0
1606127483.288,27.832,-30.273,-12.695,130.371,0.000,0
1606127483.292,-4.395,-41.992,-18.066,12.695,0.000,0
1606127483.296,-44.922,-46.875,-30.273,-102.051,0.000,0
1606127483.300,-28.320,-38.574,-29.297,-69.336,0.000,0
1606127483.303,5.859,-31.738,-16.602,62.500,0.000,0
1606127483.307,14.648,-29.785,-9.277,110.840,0.000,0
1606127483.311,-5.859,-24.902,-16.602,18.066,0.000,0
1606127483.315,-31.250,-32.715,-31.250,-99.121,0.000,0
1606127483.319,-19.531,-41.016,-31.738,-83.984,0.000,0
1606127483.323,20.996,-31.250,-18.555,52.246,0.000,0
1606127483.327,34.180,-27.344,-11.719,123.047,0.000,0
1606127483.331,8.301,-29.297,-21.484,36.621,0.000,0
1606127483.335,-20.996,-31.250,-37.598,-95.215,0.000,0
1606127483.339,-17.090,-31.738,-38.086,-101.074,0.000,0
1606127483.342,16.602,-21.484,-22.949,28.809,0.000,0
1606127483.346,35.645,-14.160,-14.648,116.699,0.000,0
1606127483.350,11.719,-25.879,-22.461,48.828,0.000,0
1606127483.354,-22.461,-37.109,-35.645,-80.078,0.000,0
1606127483.358,-20.508,-35.156,-40.527,-98.633,0.000,0
1606127483.362,12.695,-25.879,-31.250,18.066,0.000,0
1606127483.366,37.109,-19.043,-16.113,119.141,0.000,0
1606127483.370,19.043,-24.902,-14.648,72.266,0.000,0
1606127483.374,-18.066,-27.832,-25.391,-68.359,0.000,0
1606127483.378,-27.832,-26.855,-31.738,-109.375,0.000,0
1606127483.382,-2.441,-29.297,-28.809,-13.184,0.000,0
1606127483.385,20.020,-26.367,-13.672,96.191,0.000,0
1606127483.389,-0.977,-23.438,-13.672,69.824,0.000,0
1606127483.393,-30.762,-29.297,-30.273,-73.242,0.000,0
1606127483.397,-32.715,-31.738,-34.668,-123.047,0.000,0
1606127483.401,-12.207,-24.414,-22.949,-17.090,0.000,0
1606127483.405,37.598,-16.602,-3.418,132.324,0.000,0
1606127483.409,36.133,-11.230,-9.277,120.605,0.000,0
1606127483.413,-37.598,-13.184,-32.227,-59.570,0.000,0
1606127483.417,-58.105,-21.973,-42.969,-144.531,0.000,0
1606127483.421,-32.227,-17.578,-39.551,-67.871,0.000,0
1606127483.425,4.395,-10.254,-16.602,58.594,0.000,0
1606127483.428,3.418,-1.465,-12.207,70.312,0.000,0
1606127483.432,-45.410,-6.348,-27.832,-61.035,0.000,0
1606127483.436,-59.570,-19.531,-29.785,-146.484,0.000,0
1606127483.440,-37.598,-17.090,-32.227,-83.496,0.000,0
1606127483.444,0.977,-13.184,-25.879,50.293,0.000,0
1606127483.448,18.066,-9.277,-27.344,82.031,0.000,0
1606127483.452,-10.742,-11.230,-40.527,-27.344,0.000,0
1606127483.456,-24.414,-22.949,-48.340,-125.000,0.000,0
1606127483.460,-0.488,-18.555,-42.969,-80.566,0.000,0
1606127483.464,33.203,-9.766,-29.297,54.688,0.000,0
1606127483.467,37.598,-8.789,-25.391,99.121,0.000,0
1606127483.471,14.648,-8.789,-32.715,-2.930,0.000,0
1606127483.475,-15.625,-18.555,-39.551,-115.234,0.000,0
1606127483.479,-17.090,-17.090,-27.832,-95.215,0.000,0
1606127483.483,19.043,-7.324,-22.461,34.668,0.000,0
1606127483.487,23.926,-12.695,-27.832,89.355,0.000,0
1606127483.491,-14.648,-24.414,-31.250,-7.324,0.000,0
1606127483.495,-44.434,-20.020,-40.527,-126.953,0.000,0
1606127483.499,-37.598,-15.137,-40.039,-114.746,0.000,0
1606127483.503,-8.301,-15.625,-29.297,10.254,0.000,0
1606127483.507,1.953,-26.855,-23.926,83.008,0.000,0
1606127483.510,-23.926,-40.039,-32.227,6.836,0.000,0
1606127483.514,-56.641,-38.086,-39.062,-124.512,0.000,0
1606127483.518,-63.965,-33.691,-36.133,-131.836,0.000,0
1606127483.522,-27.832,-20.996,-27.344,0.488,0.000,0
1606127483.526,1.465,-12.207,-19.043,96.191,0.000,0
1606127483.530,-22.949,-20.508,-19.043,36.133,0.000,0
1606127483.534,-66.895,-33.203,-35.645,-98.145,0.000,0
1606127483.538,-69.336,-38.086,-44.922,-128.906,0.000,0
1606127483.542,-30.273,-25.391,-31.250,-13.184,0.000,0
1606127483.546,2.441,-13.184,-18.555,93.750,0.000,0
1606127483.550,-19.043,-25.391,-20.508,45.898,0.000,0
1606127483.553,-51.270,-32.227,-33.203,-98.145,0.000,0
1606127483.557,-51.270,-28.320,-43.457,-149.414,0.000,0
1606127483.561,-22.461,-21.484,-40.039,-46.875,0.000,0
1606127483.565,12.695,-12.695,-29.297,75.684,0.000,0
1606127483.569,18.066,-12.695,-23.438,67.383,0.000,0
1606127483.573,-18.066,-20.020,-35.156,-70.801,0.000,0
1606127483.577,-38.086,-23.926,-46.875,-138.184,0.000,0
1606127483.581,-11.719,-20.996,-40.039,-49.316,0.000,0
1606127483.585,21.973,-10.742,-24.902,71.289,0.000,0
1606127483.589,24.902,-12.207,-18.555,73.730,0.000,0
1606127483.592,-9.766,-21.484,-24.414,-52.246,0.000,0
1606127483.596,-31.738,-26.855,-35.156,-141.113,0.000,0
1606127483.600,-3.906,-17.578,-36.133,-68.848,0.000,0
1606127483.604,34.180,-13.672,-23.438,72.266,0.000,0
1606127483.608,43.457,-21.484,-13.672,105.469,0.000,0
1606127483.612,20.020,-18.555,-29.785,-8.301,0.000,0
1606127483.616,-11.719,-19.043,-53.223,-125.488,0.000,0
1606127483.620,1.953,-13.672,-44.434,-77.148,0.000,0
1606127483.624,33.691,-4.883,-21.973,63.965,0.000,0
1606127483.628,27.344,-17.090,-26.855,89.355,0.000,0
1606127483.632,-4.395,-28.809,-37.109,-19.043,0.000,0
1606127483.635,-23.926,-20.996,-47.852,-122.559,0.000,0
1606127483.639,-10.254,-15.137,-43.457,-91.797,0.000,0
1606127483.643,16.113,-19.043,-22.949,47.363,0.000,0
1606127483.647,26.367,-18.555,-16.113,104.980,0.000,0
1606127483.651,1.953,-23.438,-25.391,11.719,0.000,0
1606127483.655,-28.320,-30.762,-40.039,-101.074,0.000,0
1606127483.659,-22.461,-20.996,-36.133,-84.473,0.000,0
1606127483.663,15.625,-14.160,-17.090,49.805,0.000,0
1606127483.667,27.832,-17.090,-18.555,117.676,0.000,0
1606127483.671,0.488,-20.508,-28.320,29.785,0.000,0
1606127483.675,-38.086,-29.297,-39.551,-109.863,0.000,0
1606127483.678,-38.574,-27.344,-45.410,-120.117,0.000,0
1606127483.682,4.883,-12.695,-24.902,15.137,0.000,0
1606127483.686,20.996,-13.672,-12.207,100.098,0.000,0
1606127483.690,-1.465,-21.973,-25.879,34.668,0.000,0
1606127483.694,-33.691,-32.227,-42.480,-105.469,0.000,0
1606127483.698,-40.039,-34.180,-35.156,-133.789,0.000,0
1606127483.702,-1.465,-16.602,-21.973,-9.766,0.000,0
1606127483.706,36.621,-17.090,-20.508,94.727,0.000,0
1606127483.710,7.812,-29.785,-22.949,47.852,0.000,0
1606127483.714,-35.645,-32.715,-37.598,-95.703,0.000,0
1606127483.717,-26.367,-27.344,-40.527,-135.742,0.000,0
1606127483.721,11.230,-19.043,-29.297,-29.297,0.000,0
1606127483.725,39.062,-10.742,-19.043,87.891,0.000,0
1606127483.729,23.438,-8.789,-22.949,68.359,0.000,0
1606127483.733,-12.695,-14.648,-36.133,-66.406,0.000,0
1606127483.737,-21.484,-15.625,-31.738,-125.977,0.000,0
1606127483.741,2.930,-4.883,-24.414,-31.738,0.000,0
1606127483.745,28.809,-1.465,-17.578,95.703,0.000,0
1606127483.749,14.160,-10.742,-19.531,83.008,0.000,0
1606127483.753,-21.973,-20.508,-37.109,-54.199,0.000,0
1606127483.757,-37.109,-25.391,-44.434,-125.977,0.000,0
1606127483.760,-9.766,-16.602,-40.527,-49.316,0.000,0
1606127483.764,21.484,-2.441,-26.855,85.938,0.000,0
1606127483.768,10.254,-1.465,-17.090,100.586,0.000,0
1606127483.772,-16.602,-16.602,-22.949,-20.996,0.000,0
1606127483.776,-28.320,-21.484,-29.297,-107.422,0.000,0
1606127483.780,-3.418,-1.953,-27.344,-48.828,0.000,0
1606127483.784,37.598,2.441,-20.020,86.426,0.000,0
1606127483.788,44.922,-13.672,-18.066,108.398,0.000,0
1606127483.792,16.113,-11.230,-28.320,-9.766,0.000,0
1606127483.796,-14.648,-6.836,-35.645,-106.934,0.000,0
1606127483.800,2.930,0.488,-22.949,-59.570,0.000,0
1606127483.803,39.551,0.000,-18.066,71.777,0.000,0
1606127483.807,31.250,-17.090,-24.414,105.469,0.000,0
1606127483.811,-2.930,-19.531,-32.715,-4.883,0.000,0
1606127483.815,-27.832,-24.902,-39.551,-123.535,0.000,0
1606127483.819,-12.207,-20.508,-30.273,-95.215,0.000,0
1606127483.823,16.602,-8.301,-16.113,46.387,0.000,0
1606127483.827,15.137,-15.625,-25.391,98.145,0.000,0
1606127483.831,-14.160,-27.832,-41.992,-3.906,0.000,0
1606127483.835,-38.574,-31.738,-41.016,-121.094,0.000,0
1606127483.839,-29.297,-23.926,-38.574,-113.770,0.000,0
1606127483.842,11.230,-3.418,-31.250,25.391,0.000,0
1606127483.846,26.855,-2.930,-16.602,110.352,0.000,0
1606127483.850,-3.418,-17.578,-20.020,31.250,0.000,0
1606127483.854,-30.273,-25.391,-36.621,-102.539,0.000,0
1606127483.858,-25.879,-20.508,-36.621,-115.234,0.000,0
1606127483.862,2.930,-13.672,-24.414,4.883,0.000,0
1606127483.866,25.391,-7.812,-21.484,99.121,0.000,0
1606127483.870,14.160,-5.859,-27.344,53.223,0.000,0
1606127483.874,-23.926,-13.672,-29.297,-86.426,0.000,0
1606127483.878,-36.621,-24.902,-28.320,-129.883,0.000,0
1606127483.882,-6.348,-28.809,-28.320,-17.090,0.000,0
1606127483.885,20.508,-27.832,-17.578,93.262,0.000,0
1606127483.889,16.113,-23.926,-17.090,62.500,0.000,0
1606127483.893,-13.184,-16.113,-33.203,-68.848,0.000,0
1606127483.897,-29.785,-14.648,-37.598,-112.793,0.000,0
1606127483.901,-4.883,-13.184,-26.855,-17.578,0.000,0
1606127483.905,23.926,-8.789,-20.020,93.750,0.000,0
1606127483.909,15.137,-0.488,-23.926,78.125,0.000,0
1606127483.913,-19.531,-12.695,-29.297,-64.453,0.000,0
1606127483.917,-33.691,-20.508,-34.180,-138.672,0.000,0
1606127483.921,-7.324,-11.719,-29.297,-53.711,0.000,0
1606127483.925,31.250,-7.324,-14.160,79.102,0.000,0
1606127483.928,24.902,-8.789,-10.254,84.473,0.000,0
1606127483.932,-21.973,-28.320,-28.320,-57.617,0.000,0
1606127483.936,-43.457,-37.109,-36.133,-144.043,0.000,0
1606127483.940,-22.461,-19.043,-29.297,-73.242,0.000,0
1606127483.944,15.137,-0.488,-16.602,69.336,0.000,0
1606127483.948,29.297,-1.465,-15.137,93.750,0.000,0
1606127483.952,-4.883,-8.301,-28.809,-27.344,0.000,0
1606127483.956,-35.156,-12.207,-33.203,-116.699,0.000,0
1606127483.960,-12.695,-13.184,-25.391,-67.871,0.000,0
1606127483.964,22.461,-9.277,-19.531,65.918,0.000,0
1606127483.967,27.832,-4.883,-23.926,104.492,0.000,0
1606127483.971,0.488,-16.113,-41.016,-9.277,0.000,0
1606127483.975,-31.738,-26.367,-44.434,-123.047,0.000,0
1606127483.979,-29.297,-23.438,-34.668,-99.121,0.000,0
1606127483.983,3.906,-11.230,-22.949,39.551,0.000,0
1606127483.987,15.625,-9.766,-17.578,101.074,0.000,0
1606127483.991,-11.230,-21.484,-31.738,2.930,0.000,0
1606127483.995,-38.574,-26.855,-43.457,-114.258,0.000,0
1606127483.999,-21.484,-16.113,-35.645,-92.285,0.000,0
1606127484.003,19.043,-3.906,-25.391,43.457,0.000,0
1606127484.007,27.344,-10.254,-24.414,103.027,0.000,0
1606127484.010,-1.465,-17.090,-30.273,17.578,0.000,0
1606127484.014,-32.715,-17.578,-42.969,-107.910,0.000,0
1606127484.018,-26.367,-23.438,-40.527,-113.770,0.000,0
1606127484.022,12.695,-14.160,-18.066,20.020,0.000,0
1606127484.026,36.621,2.930,-6.348,116.699,0.000,0
1606127484.030,13.672,0.977,-22.461,49.316,0.000,0
1606127484.034,-25.391,-9.277,-34.668,-91.797,0.000,0
1606127484.038,-25.879,-10.254,-36.621,-116.211,0.000,0
1606127484.042,3.418,-9.766,-33.691,-9.277,0.000,0
1606127484.046,21.973,-1.465,-24.902,87.402,0.000,0
1606127484.050,7.324,7.324,-25.391,54.688,0.000,0
1606127484.053,-26.855,-16.602,-41.992,-84.473,0.000,0
1606127484.057,-36.621,-26.367,-41.992,-129.395,0.000,0
1606127484.061,-6.348,-3.418,-24.414,-19.043,0.000,0
1606127484.065,16.602,-4.883,-22.949,86.914,0.000,0
1606127484.069,10.254,-23.926,-26.367,62.012,0.000,0
1606127484.073,-12.695,-32.715,-28.809,-65.430,0.000,0
1606127484.077,-33.691,-25.391,-29.785,-120.117,0.000,0
1606127484.081,-5.371,-14.160,-20.996,-23.438,0.000,0
1606127484.085,29.785,-10.742,-17.090,102.051,0.000,0
1606127484.089,15.137,-20.508,-27.344,91.309,0.000,0
1606127484.092,-20.020,-25.879,-27.344,-40.527,0.000,0
1606127484.096,-32.715,-17.090,-23.438,-107.910,0.000,0
1606127484.100,-17.578,-11.230,-32.227,-42.480,0.000,0
1606127484.104,16.602,4.395,-22.949,85.938,0.000,0
1606127484.108,17.090,0.488,-15.137,97.168,0.000,0
1606127484.112,-28.809,-23.438,-24.902,-41.016,0.000,0
1606127484.116,-52.246,-32.227,-31.738,-133.301,0.000,0
1606127484.120,-24.902,-23.438,-22.949,-70.312,0.000,0
1606127484.124,17.578,-8.301,-14.160,66.406,0.000,0
1606127484.128,23.926,-2.930,-17.578,95.215,0.000,0
1606127484.132,-11.230,-15.137,-22.949,-21.484,0.000,0
1606127484.135,-37.109,-25.879,-29.297,-132.812,0.000,0
1606127484.139,-27.344,-17.090,-35.645,-106.934,0.000,0
1606127484.143,3.906,-10.254,-32.715,30.762,0.000,0
1606127484.147,17.578,-10.254,-23.926,84.961,0.000,0
1606127484.151,-20.508,-24.902,-33.691,-27.344,0.000,0
1606127484.155,-48.340,-31.738,-42.480,-139.160,0.000,0
1606127484.159,-23.926,-26.855,-33.691,-108.887,0.000,0
1606127484.163,6.348,-28.320,-22.949,30.273,0.000,0
1606127484.167,5.859,-18.066,-16.602,101.074,0.000,0
1606127484.171,-13.672,-7.812,-20.508,21.973,0.000,0
1606127484.175,-40.039,-17.578,-32.715,-106.445,0.000,0
1606127484.178,-38.574,-26.855,-37.598,-115.723,0.000,0
1606127484.182,-1.953,-12.207,-24.414,19.531,0.000,0
1606127484.186,16.113,-3.906,-20.508,102.539,0.000,0
1606127484.190,-8.301,-14.648,-32.715,27.344,0.000,0
1606127484.194,-36.621,-24.414,-41.016,-107.422,0.000,0
1606127484.198,-35.156,-26.855,-34.180,-123.535,0.000,0
1606127484.202,-7.324,-22.461,-21.484,0.000,0.000,0
1606127484.206,20.508,-25.879,-14.648,96.191,0.000,0
1606127484.210,2.441,-24.902,-23.926,42.969,0.000,0
1606127484.214,-33.203,-25.391,-39.062,-95.703,0.000,0
1606127484.217,-32.715,-24.902,-37.598,-132.812,0.000,0
1606127484.221,6.348,-14.648,-20.996,-10.742,0.000,0
1606127484.225,38.574,-9.277,-13.672,105.957,0.000,0
1606127484.229,16.113,-18.066,-27.832,65.918,0.000,0
1606127484.233,-23.438,-25.879,-36.621,-70.801,0.000,0
1606127484.237,-32.715,-23.926,-37.109,-125.977,0.000,0
1606127484.241,-4.395,-18.066,-29.297,-27.344,0.000,0
1606127484.245,25.879,-12.207,-21.484,94.727,0.000,0
1606127484.249,15.137,-10.742,-25.391,79.102,0.000,0
1606127484.253,-16.602,-23.926,-35.156,-58.105,0.000,0
1606127484.257,-18.555,-38.574,-40.527,-125.488,0.000,0
1606127484.260,1.953,-32.715,-32.227,-42.480,0.000,0
1606127484.264,25.391,-22.461,-18.555,85.938,0.000,0
1606127484.268,27.344,-20.020,-16.602,96.191,0.000,0
1606127484.272,-9.766,-27.344,-26.855,-30.762,0.000,0
1606127484.276,-33.691,-31.250,-35.645,-118.652,0.000,0
1606127484.280,-6.836,-21.973,-31.250,-52.246,0.000,0
1606127484.284,32.227,-12.207,-18.066,80.078,0.000,0
1606127484.288,29.297,-13.672,-15.137,103.027,0.000,0
1606127484.292,-7.324,-20.020,-26.367,-18.066,0.000,0
1606127484.296,-36.133,-30.762,-39.062,-120.605,0.000,0
1606127484.300,-23.926,-35.156,-35.645,-77.148,0.000,0
1606127484.303,10.254,-27.344,-24.902,51.758,0.000,0
1606127484.307,15.625,-20.020,-21.973,89.844,0.000,0
1606127484.311,-20.508,-21.484,-36.621,-17.090,0.000,0
1606127484.315,-38.086,-33.203,-40.039,-123.047,0.000,0
1606127484.319,-21.973,-25.879,-27.344,-86.914,0.000,0
1606127484.323,3.418,-14.160,-20.020,47.852,0.000,0
1606127484.327,15.625,-10.742,-15.137,106.445,0.000,0
1606127484.331,-10.254,-12.695,-20.996,18.066,0.000,0
1606127484.335,-33.203,-25.879,-36.133,-108.398,0.000,0
1606127484.339,-27.832,-31.250,-38.086,-104.004,0.000,0
1606127484.342,5.371,-21.484,-29.785,35.645,0.000,0
1606127484.346,23.926,-18.066,-25.391,110.352,0.000,0
1606127484.350,-2.441,-19.043,-23.438,30.273,0.000,0
1606127484.354,-39.551,-26.367,-31.738,-100.098,0.000,0
1606127484.358,-40.527,-30.762,-33.203,-111.328,0.000,0
1606127484.362,-3.418,-19.043,-19.043,17.090,0.000,0
1606127484.366,23.926,-6.348,-13.184,112.305,0.000,0
1606127484.370,15.625,-4.883,-10.254,56.152,0.000,0
1606127484.374,-19.043,-12.695,-17.090,-84.961,0.000,0
1606127484.378,-26.367,-16.113,-29.785,-125.000,0.000,0
1606127484.382,8.789,-12.695,-20.508,-5.859,0.000,0
1606127484.385,31.250,-12.207,-7.812,97.656,0.000,0
1606127484.389,13.184,-10.742,-8.301,54.688,0.000,0
1606127484.393,-24.414,-19.043,-21.484,-83.496,0.000,0
1606127484.397,-26.367,-32.715,-28.320,-126.953,0.000,0
1606127484.401,9.766,-29.785,-27.832,-18.066,0.000,0
1606127484.405,19.043,-11.719,-26.367,81.543,0.000,0
1606127484.409,-5.371,-5.371,-25.879,40.527,0.000,0
1606127484.413,-37.109,-20.020,-34.668,-97.656,0.000,0
1606127484.417,-54.199,-29.297,-41.992,-160.156,0.000,0
1606127484.421,-31.738,-21.484,-31.250,-65.430,0.000,0
1606127484.425,4.883,-12.695,-15.625,68.848,0.000,0
1606127484.428,6.348,-10.742,-19.531,67.871,0.000,0
1606127484.432,-26.367,-17.090,-36.133,-58.594,0.000,0
1606127484.436,-37.598,-23.926,-42.969,-130.859,0.000,0
1606127484.440,-11.719,-21.973,-37.109,-59.082,0.000,0
1606127484.444,21.973,-20.020,-24.902,77.148,0.000,0
1606127484.448,30.762,-20.996,-18.066,99.121,0.000,0
1606127484.452,-5.859,-21.484,-28.809,-22.461,0.000,0
1606127484.456,-32.227,-20.020,-28.320,-116.211,0.000,0
1606127484.460,-6.348,-15.625,-20.508,-63.477,0.000,0
1606127484.464,29.297,-5.371,-15.137,74.707,0.000,0
1606127484.467,32.227,-6.836,-9.277,109.375,0.000,0
1606127484.471,11.230,-18.066,-21.484,-1.953,0.000,0
1606127484.475,-21.484,-33.691,-39.551,-110.840,0.000,0
1606127484.479,-20.996,-32.715,-39.551,-84.473,0.000,0
1606127484.483,23.438,-18.555,-23.438,53.223,0.000,0
1606127484.487,33.203,-13.184,-17.578,104.492,0.000,0
1606127484.491,-6.348,-22.949,-28.809,-2.441,0.000,0
1606127484.495,-34.180,-34.180,-37.598,-121.094,0.000,0
1606127484.499,-21.973,-26.367,-40.039,-102.051,0.000,0
1606127484.503,16.602,-9.766,-18.555,38.574,0.000,0
1606127484.507,33.203,-2.930,-3.906,107.910,0.000,0
1606127484.510,-2.441,-19.531,-21.484,17.090,0.000,0
1606127484.514,-43.945,-36.133,-34.180,-114.746,0.000,0
1606127484.518,-37.109,-36.621,-35.645,-118.652,0.000,0
1606127484.522,8.301,-21.973,-24.902,2.930,0.000,0
1606127484.526,29.297,-13.672,-15.625,77.637,0.000,0
1606127484.530,0.000,-21.484,-22.949,11.719,0.000,0
1606127484.534,-28.809,-32.715,-31.250,-115.723,0.000,0
1606127484.538,-24.902,-28.320,-36.133,-132.812,0.000,0
1606127484.542,5.859,-15.625,-31.250,-11.719,0.000,0
1606127484.546,35.645,-23.438,-17.090,88.379,0.000,0
1606127484.550,17.090,-32.227,-19.043,34.180,0.000,0
1606127484.553,-21.973,-30.762,-38.086,-108.887,0.000,0
1606127484.557,-26.367,-27.344,-41.016,-140.137,0.000,0
1606127484.561,8.789,-9.766,-23.438,-20.020,0.000,0
1606127484.565,39.551,-9.277,-14.648,97.168,0.000,0
1606127484.569,24.414,-22.461,-24.414,67.871,0.000,0
1606127484.573,-17.090,-17.578,-28.320,-65.430,0.000,0
1606127484.577,-28.320,-13.672,-33.203,-118.652,0.000,0
1606127484.581,3.418,-8.301,-26.367,-23.438,0.000,0
1606127484.585,37.109,-12.695,-16.602,97.168,0.000,0
1606127484.589,25.391,-17.090,-19.531,83.008,0.000,0
1606127484.592,-20.020,-16.602,-32.227,-54.199,0.000,0
1606127484.596,-36.621,-17.578,-35.156,-127.441,0.000,0
1606127484.600,-6.348,-6.836,-18.555,-45.410,0.000,0
1606127484.604,20.996,-2.441,-8.789,88.379,0.000,0
1606127484.608,15.625,-6.348,-13.672,93.750,0.000,0
1606127484.612,-12.695,-17.578,-25.879,-34.668,0.000,0
1606127484.616,-34.180,-21.484,-33.691,-122.070,0.000,0
1606127484.620,-4.395,-4.883,-33.203,-60.547,0.000,0
1606127484.624,38.574,11.230,-19.043,81.543,0.000,0
1606127484.628,32.715,-4.395,-15.137,101.074,0.000,0
1606127484.632,-7.812,-25.391,-34.668,-29.297,0.000,0
1606127484.635,-23.438,-29.785,-43.945,-125.977,0.000,0
1606127484.639,0.000,-20.020,-33.691,-72.754,0.000,0
1606127484.643,32.715,-9.277,-21.484,62.988,0.000,0
1606127484.647,35.156,-9.277,-23.438,102.051,0.000,0
1606127484.651,2.930,-12.207,-29.297,-7.324,0.000,0
1606127484.655,-22.461,-20.020,-31.738,-119.141,0.000,0
1606127484.659,-11.230,-20.020,-32.227,-89.355,0.000,0
1606127484.663,20.508,-10.742,-22.461,48.828,0.000,0
1606127484.667,40.527,-13.184,-17.578,106.934,0.000,0
1606127484.671,5.859,-26.367,-26.855,11.230,0.000,0
1606127484.675,-41.992,-36.133,-36.621,-112.793,0.000,0
1606127484.678,-32.227,-35.645,-37.598,-109.863,0.000,0
1606127484.682,8.789,-25.391,-21.973,29.297,0.000,0
1606127484.686,24.414,-25.879,-16.113,106.445,0.000,0
1606127484.690,0.488,-33.691,-24.902,26.855,0.000,0
1606127484.694,-27.832,-32.227,-29.785,-98.633,0.000,0
1606127484.698,-29.785,-26.855,-25.879,-112.305,0.000,0
1606127484.702,-1.953,-16.602,-16.113,11.230,0.000,0
1606127484.706,19.043,-17.578,-11.230,103.516,0.000,0
1606127484.710,13.184,-23.926,-18.066,42.969,0.000,0
1606127484.714,-23.926,-29.297,-29.297,-94.727,0.000,0
1606127484.717,-38.574,-28.809,-37.109,-122.070,0.000,0
1606127484.721,-0.977,-16.113,-35.645,-10.254,0.000,0
1606127484.725,31.738,-20.020,-20.508,97.656,0.000,0
1606127484.729,14.160,-41.016,-24.902,54.688,0.000,0
1606127484.733,-17.578,-33.691,-44.922,-78.125,0.000,0
1606127484.737,-9.277,-12.207,-44.922,-118.164,0.000,0
1606127484.741,17.090,-9.766,-34.668,-26.855,0.000,0
1606127484.745,34.180,-6.836,-26.855,80.566,0.000,0
1606127484.749,17.090,-8.789,-30.762,53.223,0.000,0
1606127484.753,-10.742,-14.648,-34.180,-74.219,0.000,0
1606127484.757,-21.484,-16.602,-39.551,-131.836,0.000,0
1606127484.760,-0.977,-10.742,-34.668,-48.340,0.000,0
1606127484.764,29.297,-5.371,-13.184,77.148,0.000,0
1606127484.768,29.297,-9.277,-8.301,76.172,0.000,0
1606127484.772,-4.883,-14.160,-31.738,-61.035,0.000,0
1606127484.776,-26.855,-18.066,-37.598,-139.648,0.000,0
1606127484.780,7.324,-11.719,-29.297,-61.035,0.000,0
1606127484.784,40.039,-7.324,-22.461,70.801,0.000,0
1606127484.788,28.320,-6.836,-13.184,84.473,0.000,0
1606127484.792,0.000,-8.789,-22.461,-35.156,0.000,0
1606127484.796,-17.578,-14.648,-34.668,-120.117,0.000,0
1606127484.800,7.812,-9.766,-29.297,-59.570,0.000,0
1606127484.803,41.504,-1.465,-16.113,77.148,0.000,0
1606127484.807,35.156,-5.371,-8.301,109.375,0.000,0
1606127484.811,-5.371,-14.160,-14.648,-4.883,0.000,0
1606127484.815,-35.645,-33.691,-25.391,-119.629,0.000,0
1606127484.819,-26.855,-36.133,-27.344,-91.309,0.000,0
1606127484.823,4.395,-11.230,-16.113,49.805,0.000,0
1606127484.827,19.531,-5.371,-2.441,109.375,0.000,0
1606127484.831,-10.742,-15.625,-9.766,13.184,0.000,0
1606127484.835,-47.363,-24.414,-26.855,-110.840,0.000,0
1606127484.839,-41.016,-23.438,-29.785,-100.098,0.000,0
1606127484.842,-1.465,-4.883,-17.090,38.086,0.000,0
1606127484.846,9.766,-4.883,-12.207,105.957,0.000,0
1606127484.850,-17.578,-23.438,-23.926,20.020,0.000,0
1606127484.854,-45.898,-29.297,-34.180,-103.027,0.000,0
1606127484.858,-40.527,-25.391,-33.203,-105.957,0.000,0
1606127484.862,-7.812,-20.020,-27.344,13.184,0.000,0
1606127484.866,5.859,-39.062,-19.531,90.332,0.000,0
1606127484.870,-10.742,-41.016,-12.207,36.621,0.000,0
1606127484.874,-38.086,-27.832,-25.391,-89.844,0.000,0
1606127484.878,-34.180,-26.855,-28.320,-115.723,0.000,0
1606127484.882,5.371,-18.555,-12.695,-1.465,0.000,0
1606127484.885,32.227,-16.113,-8.789,89.355,0.000,0
1606127484.889,0.977,-20.996,-20.508,41.016,0.000,0
1606127484.893,-36.621,-26.367,-42.969,-91.797,0.000,0
1606127484.897,-36.133,-27.344,-48.828,-133.789,0.000,0
1606127484.901,-2.441,-10.742,-29.297,-28.320,0.000,0
1606127484.905,25.391,-3.418,-4.883,91.797,0.000,0
1606127484.909,8.301,-21.973,-12.695,65.430,0.000,0
1606127484.913,-27.832,-29.297,-30.273,-76.660,0.000,0
1606127484.917,-35.645,-22.461,-27.344,-130.859,0.000,0
1606127484.921,-8.789,-16.602,-20.508,-32.227,0.000,0
1606127484.925,21.973,-12.695,-15.137,86.426,0.000,0
1606127484.928,17.090,-12.695,-12.695,75.684,0.000,0
1606127484.932,-14.160,-24.902,-22.461,-49.316,0.000,0
1606127484.936,-31.738,-25.879,-39.062,-125.000,0.000,0
1606127484.940,-9.277,-16.113,-41.504,-49.316,0.000,0
1606127484.944,26.855,-14.160,-27.344,80.078,0.000,0
1606127484.948,24.902,-5.859,-19.531,90.820,0.000,0
1606127484.952,-11.230,-7.324,-37.109,-27.832,0.000,0
1606127484.956,-32.715,-20.020,-47.363,-125.488,0.000,0
1606127484.960,-9.766,-6.836,-29.785,-64.941,0.000,0
1606127484.964,37.598,-11.230,-11.719,75.684,0.000,0
1606127484.967,27.344,-32.715,-15.137,92.773,0.000,0
1606127484.971,-17.578,-26.855,-29.785,-26.855,0.000,0
1606127484.975,-37.598,-25.879,-38.574,-131.836,0.000,0
1606127484.979,-21.484,-22.949,-36.621,-92.773,0.000,0
1606127484.983,23.438,-12.695,-25.391,52.734,0.000,0
1606127484.987,30.762,-9.766,-23.438,98.145,0.000,0
1606127484.991,-1.953,-16.602,-28.809,-7.812,0.000,0
1606127484.995,-34.180,-20.508,-36.133,-124.512,0.000,0
1606127484.999,-29.297,-18.066,-38.574,-105.957,0.000,0
1606127485.003,10.742,-17.578,-23.438,30.762,0.000,0
1606127485.007,28.320,-16.602,-15.137,92.773,0.000,0
1606127485.010,3.418,-19.043,-25.391,12.695,0.000,0
1606127485.014,-32.715,-23.926,-29.297,-104.492,0.000,0
1606127485.018,-26.855,-21.973,-28.809,-102.051,0.000,0
1606127485.022,7.812,-17.578,-23.926,24.414,0.000,0
1606127485.026,24.902,-12.207,-8.789,106.934,0.000,0
1606127485.030,5.859,-4.395,-16.602,42.480,0.000,0
1606127485.034,-31.250,-15.137,-35.645,-93.262,0.000,0
1606127485.038,-30.762,-28.809,-28.809,-104.492,0.000,0
1606127485.042,2.441,-17.090,-12.695,18.066,0.000,0
1606127485.046,29.785,-7.812,-5.371,108.398,0.000,0
1606127485.050,11.230,-19.043,-11.719,53.711,0.000,0
1606127485.053,-28.320,-24.902,-17.578,-83.496,0.000,0
1606127485.057,-30.273,-17.578,-21.484,-119.629,0.000,0
1606127485.061,-6.836,-9.277,-19.531,-13.184,0.000,0
1606127485.065,19.043,-8.789,-7.812,94.238,0.000,0
1606127485.069,8.301,-12.695,-4.883,62.500,0.000,0
1606127485.073,-32.227,-23.438,-14.648,-76.660,0.000,0
1606127485.077,-43.945,-21.484,-24.902,-130.371,0.000,0
1606127485.081,-14.160,-4.395,-23.926,-27.832,0.000,0
1606127485.085,17.090,-0.488,-18.066,91.797,0.000,0
1606127485.089,11.230,-8.301,-20.508,76.660,0.000,0
1606127485.092,-23.438,-15.625,-26.367,-53.711,0.000,0
1606127485.096,-31.738,-19.043,-35.645,-125.977,0.000,0
1606127485.100,-13.672,-22.461,-34.180,-50.293,0.000,0
1606127485.104,6.348,-17.578,-17.578,76.660,0.000,0
1606127485.108,7.812,-17.090,-18.066,83.496,0.000,0
1606127485.112,-23.926,-25.879,-31.250,-44.434,0.000,0
1606127485.116,-43.457,-31.250,-36.621,-131.348,0.000,0
1606127485.120,-19.043,-19.043,-25.391,-59.570,0.000,0
1606127485.124,13.672,3.906,-20.996,69.336,0.000,0
1606127485.128,7.812,-7.812,-24.414,82.520,0.000,0
1606127485.132,-22.461,-33.203,-30.762,-31.250,0.000,0
1606127485.135,-43.945,-30.273,-37.109,-122.559,0.000,0
1606127485.139,-28.809,-12.207,-30.762,-74.707,0.000,0
1606127485.143,8.789,-9.766,-25.391,56.641,0.000,0
1606127485.147,15.137,-16.602,-20.020,93.750,0.000,0
1606127485.151,-12.695,-21.973,-24.902,-16.113,0.000,0
1606127485.155,-40.039,-21.973,-39.551,-121.094,0.000,0
1606127485.159,-26.367,-22.949,-41.504,-89.355,0.000,0
1606127485.163,20.996,-21.973,-27.344,48.340,0.000,0
1606127485.167,24.902,-12.207,-17.578,102.051,0.000,0
1606127485.171,-18.555,-18.066,-20.020,-6.836,0.000,0
1606127485.175,-45.410,-28.809,-32.227,-132.324,0.000,0
1606127485.178,-35.645,-32.715,-37.598,-119.141,0.000,0
1606127485.182,-3.906,-21.484,-23.926,15.137,0.000,0
1606127485.186,11.719,-18.555,-15.625,88.379,0.000,0
1606127485.190,-17.578,-34.180,-22.949,10.742,0.000,0
1606127485.194,-51.270,-36.133,-33.203,-112.305,0.000,0
1606127485.198,-41.504,-32.715,-33.691,-120.117,0.000,0
1606127485.202,0.977,-23.926,-26.367,8.789,0.000,0
1606127485.206,18.555,-22.461,-21.484,97.168,0.000,0
1606127485.210,-11.230,-26.855,-25.879,31.250,0.000,0
1606127485.214,-45.410,-29.297,-33.691,-108.398,0.000,0
1606127485.217,-41.992,-29.297,-32.715,-128.906,0.000,0
1606127485.221,-11.719,-25.391,-20.020,-11.719,0.000,0
1606127485.225,8.301,-18.066,-12.207,87.402,0.000,0
1606127485.229,-7.812,-19.043,-23.438,44.434,0.000,0
1606127485.233,-43.457,-33.691,-37.109,-98.633,0.000,0
1606127485.237,-46.875,-40.527,-37.598,-137.695,0.000,0
1606127485.241,-13.184,-30.762,-26.367,-31.250,0.000,0
1606127485.245,8.301,-19.531,-12.207,83.008,0.000,0
1606127485.249,-4.395,-20.508,-17.090,64.453,0.000,0
1606127485.253,-39.551,-33.691,-34.180,-69.824,0.000,0
1606127485.257,-46.875,-34.668,-37.598,-126.953,0.000,0
1606127485.260,-16.113,-21.484,-28.320,-28.809,0.000,0
1606127485.264,18.066,-11.719,-12.207,101.074,0.000,0
1606127485.268,10.742,-15.625,-10.742,92.773,0.000,0
1606127485.272,-16.602,-26.367,-26.855,-36.621,0.000,0
1606127485.276,-26.367,-29.785,-35.156,-109.863,0.000,0
1606127485.280,-2.441,-20.996,-25.391,-33.691,0.000,0
1606127485.284,36.133,-13.672,-13.184,91.797,0.000,0
1606127485.288,37.109,-10.742,-13.184,100.586,0.000,0
1606127485.292,8.301,-14.648,-28.320,-27.344,0.000,0
1606127485.296,-18.066,-18.555,-44.434,-121.582,0.000,0
1606127485.300,-14.648,-17.090,-36.133,-62.500,0.000,0
1606127485.303,20.996,-12.695,-19.043,72.266,0.000,0
1606127485.307,25.879,-10.742,-22.949,103.516,0.000,0
1606127485.311,-1.465,-15.137,-33.203,-4.395,0.000,0
1606127485.315,-26.855,-21.484,-36.133,-107.422,0.000,0
1606127485.319,-22.949,-27.344,-35.645,-81.543,0.000,0
1606127485.323,8.301,-15.137,-25.879,49.316,0.000,0
1606127485.327,21.484,-6.348,-14.648,103.516,0.000,0
1606127485.331,-18.066,-14.648,-27.832,-8.301,0.000,0
1606127485.335,-52.246,-27.344,-44.434,-130.859,0.000,0
1606127485.339,-36.621,-28.320,-31.738,-104.980,0.000,0
1606127485.342,3.906,-15.625,-15.625,27.344,0.000,0
1606127485.346,20.996,-7.812,-5.371,92.285,0.000,0
1606127485.350,-4.883,-8.301,-8.301,16.113,0.000,0
1606127485.354,-41.992,-19.531,-24.902,-111.816,0.000,0
1606127485.358,-36.621,-21.484,-27.832,-116.699,0.000,0
1606127485.362,-4.883,-11.719,-18.555,14.160,0.000,0
1606127485.366,12.207,-12.695,-15.625,91.309,0.000,0
1606127485.370,-2.441,-17.090,-23.926,27.344,0.000,0
1606127485.374,-38.574,-20.020,-34.180,-99.609,0.000,0
1606127485.378,-32.715,-25.879,-32.715,-118.164,0.000,0
1606127485.382,3.906,-30.762,-18.555,6.348,0.000,0
1606127485.385,17.090,-20.996,-17.090,104.004,0.000,0
1606127485.389,7.812,-11.230,-21.973,53.223,0.000,0
1606127485.393,-22.949,-20.996,-31.250,-82.520,0.000,0
1606127485.397,-33.691,-30.762,-41.016,-124.023,0.000,0
1606127485.401,2.441,-20.996,-26.855,-15.137,0.000,0
1606127485.405,28.809,-4.395,-12.207,95.215,0.000,0
1606127485.409,12.695,-12.695,-20.996,56.152,0.000,0
1606127485.413,-26.855,-36.133,-33.691,-82.520,0.000,0
1606127485.417,-37.109,-30.762,-37.598,-131.348,0.000,0
1606127485.421,-9.766,-17.090,-32.715,-38.086,0.000,0
1606127485.425,16.113,-14.648,-24.902,71.777,0.000,0
1606127485.428,13.184,-13.184,-22.949,62.012,0.000,0
1606127485.432,-16.113,-23.926,-24.902,-65.430,0.000,0
1606127485.436,-21.973,-25.879,-35.156,-133.789,0.000,0
1606127485.440,-3.906,-19.531,-32.227,-44.434,0.000,0
1606127485.444,11.719,-13.184,-14.648,84.961,0.000,0
1606127485.448,12.207,-18.555,-6.836,93.750,0.000,0
1606127485.452,-19.043,-35.156,-22.949,-27.832,0.000,0
1606127485.456,-34.668,-33.691,-33.203,-109.375,0.000,0
1606127485.460,-15.625,-27.344,-23.438,-46.387,0.000,0
1606127485.464,18.066,-12.207,-11.230,83.008,0.000,0
1606127485.467,20.508,-4.395,-10.254,110.840,0.000,0
1606127485.471,-12.695,-18.555,-20.996,-7.812,0.000,0
1606127485.475,-43.945,-22.949,-29.297,-117.676,0.000,0
1606127485.479,-25.879,-17.578,-32.715,-75.195,0.000,0
1606127485.483,24.902,3.418,-21.973,68.848,0.000,0
1606127485.487,37.109,16.113,-11.719,112.305,0.000,0
1606127485.491,3.418,-8.301,-22.949,0.000,0.000,0
1606127485.495,-27.344,-22.949,-34.668,-113.770,0.000,0
1606127485.499,-16.602,-16.113,-29.297,-89.355,0.000,0
1606127485.503,25.391,-7.812,-20.020,42.969,0.000,0
1606127485.507,41.992,-8.789,-10.254,105.469,0.000,0
1606127485.510,12.207,-9.277,-9.277,12.207,0.000,0
1606127485.514,-22.461,-11.230,-33.691,-115.234,0.000,0
1606127485.518,-25.391,-16.113,-43.945,-113.281,0.000,0
1606127485.522,3.418,-10.254,-22.949,10.254,0.000,0
1606127485.526,17.090,-4.395,-14.648,87.402,0.000,0
1606127485.530,-10.254,-14.160,-20.020,20.020,0.000,0
1606127485.534,-34.180,-29.297,-26.367,-100.098,0.000,0
1606127485.538,-37.109,-26.855,-16.113,-111.816,0.000,0
1606127485.542,-14.648,-17.090,-4.883,6.836,0.000,0
1606127485.546,5.859,-11.230,-0.488,101.074,0.000,0
1606127485.550,-12.207,-15.137,-6.836,39.551,0.000,0
1606127485.553,-45.410,-22.461,-16.602,-99.121,0.000,0
1606127485.557,-49.316,-20.508,-14.160,-120.605,0.000,0
1606127485.561,-17.578,-9.277,-5.859,-7.812,0.000,0
1606127485.565,11.719,-1.953,5.371,97.168,0.000,0
1606127485.569,2.441,-15.137,-0.977,64.453,0.000,0
1606127485.573,-34.180,-33.691,-20.996,-77.148,0.000,0
1606127485.577,-40.527,-30.273,-29.297,-125.488,0.000,0
1606127485.581,-3.418,-15.625,-20.020,-26.367,0.000,0
1606127485.585,24.414,-9.766,-8.301,88.379,0.000,0
1606127485.589,10.254,-16.602,-11.230,72.266,0.000,0
1606127485.592,-22.949,-24.902,-29.297,-62.500,0.000,0
1606127485.596,-34.668,-28.809,-36.621,-130.371,0.000,0
1606127485.600,-7.324,-26.367,-21.484,-40.527,0.000,0
1606127485.604,28.320,-13.672,-6.348,94.238,0.000,0
1606127485.608,21.973,-12.207,-15.625,87.891,0.000,0
1606127485.612,-14.648,-28.320,-28.809,-51.270,0.000,0
1606127485.616,-37.109,-34.668,-27.344,-133.301,0.000,0
1606127485.620,-13.672,-26.855,-24.902,-63.965,0.000,0
1606127485.624,33.691,-14.160,-20.020,77.637,0.000,0
1606127485.628,27.832,-20.020,-20.020,96.680,0.000,0
1606127485.632,-9.277,-31.738,-24.902,-30.762,0.000,0
1606127485.635,-32.227,-35.156,-33.691,-126.465,0.000,0
1606127485.639,-18.066,-25.879,-28.809,-70.801,0.000,0
1606127485.643,18.066,-11.230,-13.672,68.359,0.000,0
1606127485.647,25.879,-9.766,-7.324,101.074,0.000,0
1606127485.651,-2.441,-19.043,-15.625,-5.371,0.000,0
1606127485.655,-27.832,-27.344,-33.203,-104.492,0.000,0
1606127485.659,-14.160,-23.926,-31.250,-75.195,0.000,0
1606127485.663,27.832,-11.719,-17.090,63.477,0.000,0
1606127485.667,40.527,-11.719,-14.160,121.094,0.000,0
1606127485.671,11.230,-16.113,-20.996,20.020,0.000,0
1606127485.675,-20.508,-21.973,-25.391,-105.469,0.000,0
1606127485.678,-7.324,-22.949,-21.484,-86.914,0.000,0
1606127485.682,30.762,-7.324,-8.301,53.711,0.000,0
1606127485.686,25.391,-0.488,-11.230,110.840,0.000,0
1606127485.690,-0.488,-9.277,-23.438,25.391,0.000,0
1606127485.694,-32.227,-18.555,-38.574,-106.445,0.000,0
1606127485.698,-32.227,-19.043,-42.969,-117.188,0.000,0
1606127485.702,11.230,-10.254,-24.414,13.672,0.000,0
1606127485.706,33.691,-2.930,-12.207,101.074,0.000,0
1606127485.710,11.719,-8.789,-14.160,39.551,0.000,0
1606127485.714,-24.902,-32.227,-28.809,-98.633,0.000,0
1606127485.717,-23.926,-31.738,-32.227,-118.652,0.000,0
1606127485.721,7.812,-15.625,-20.996,1.465,0.000,0
1606127485.725,24.414,-15.137,-16.113,94.238,0.000,0
1606127485.729,-0.488,-15.137,-20.020,44.434,0.000,0
1606127485.733,-38.086,-22.949,-33.203,-93.262,0.000,0
1606127485.737,-34.180,-24.414,-35.645,-122.559,0.000,0
1606127485.741,-0.977,-12.695,-22.949,-15.625,0.000,0
1606127485.745,23.438,-1.953,-14.160,86.914,0.000,0
1606127485.749,12.207,-10.254,-19.043,56.641,0.000,0
1606127485.753,-26.855,-31.738,-31.738,-79.590,0.000,0
1606127485.757,-31.250,-33.691,-29.297,-128.906,0.000,0
1606127485.760,10.254,-17.578,-18.066,-31.738,0.000,0
1606127485.764,30.273,-6.836,-7.812,91.309,0.000,0
1606127485.768,16.602,-6.348,-9.277,86.426,0.000,0
1606127485.772,-20.020,-23.438,-25.879,-47.852,0.000,0
1606127485.776,-38.574,-44.434,-33.691,-120.605,0.000,0
1606127485.780,-14.160,-33.691,-16.602,-41.016,0.000,0
1606127485.784,14.160,-18.066,-2.441,79.590,0.000,0
1606127485.788,3.906,-24.414,-13.184,82.031,0.000,0
1606127485.792,-31.738,-23.438,-28.809,-39.551,0.000,0
1606127485.796,-47.363,-23.438,-31.250,-127.930,0.000,0
1606127485.800,-29.297,-28.320,-31.250,-77.148,0.000,0
1606127485.803,10.254,-21.484,-20.020,63.965,0.000,0
1606127485.807,20.508,-21.484,-15.625,94.238,0.000,0
1606127485.811,-17.090,-29.785,-34.180,-27.344,0.000,0
1606127485.815,-45.898,-30.762,-39.062,-118.164,0.000,0
1606127485.819,-18.066,-19.531,-33.691,-71.777,0.000,0
1606127485.823,23.438,-15.625,-26.855,61.523,0.000,0
1606127485.827,18.066,-15.625,-20.508,101.074,0.000,0
1606127485.831,-14.160,-17.578,-26.855,-4.883,0.000,0
1606127485.835,-37.598,-20.508,-36.133,-111.328,0.000,0
1606127485.839,-24.902,-10.254,-33.203,-86.914,0.000,0
1606127485.842,11.230,-3.418,-18.555,44.922,0.000,0
1606127485.846,23.926,-8.789,-19.043,102.051,0.000,0
1606127485.850,-4.395,-17.090,-30.273,10.254,0.000,0
1606127485.854,-36.133,-22.949,-38.086,-116.699,0.000,0
1606127485.858,-24.414,-20.508,-31.250,-114.258,0.000,0
1606127485.862,8.789,-20.508,-20.020,18.066,0.000,0
1606127485.866,24.414,-24.414,-14.160,98.145,0.000,0
1606127485.870,6.348,-26.855,-20.020,22.461,0.000,0
1606127485.874,-26.855,-28.809,-32.227,-107.422,0.000,0
1606127485.878,-14.160,-26.367,-34.668,-117.188,0.000,0
1606127485.882,22.461,-14.160,-25.879,8.301,0.000,0
1606127485.885,35.156,-6.348,-15.625,110.352,0.000,0
1606127485.889,11.230,-23.438,-24.414,53.711,0.000,0
1606127485.893,-34.180,-36.133,-33.691,-84.961,0.000,0
1606127485.897,-36.621,-32.715,-31.250,-117.188,0.000,0
1606127485.901,-4.395,-21.484,-25.879,-8.301,0.000,0
1606127485.905,15.137,-21.973,-15.625,100.098,0.000,0
1606127485.909,-4.395,-31.738,-17.578,64.453,0.000,0
1606127485.913,-43.457,-33.203,-34.180,-78.125,0.000,0
1606127485.917,-47.852,-37.109,-38.086,-129.883,0.000,0
1606127485.921,-14.160,-30.762,-32.715,-34.180,0.000,0
1606127485.925,12.207,-20.020,-20.508,88.867,0.000,0
1606127485.928,2.930,-20.996,-13.672,82.031,0.000,0
1606127485.932,-28.320,-23.438,-20.020,-51.270,0.000,0
1606127485.936,-43.945,-18.555,-25.879,-122.559,0.000,0
1606127485.940,-19.043,-12.207,-21.484,-44.922,0.000,0
1606127485.944,16.113,-8.301,-7.324,81.543,0.000,0
1606127485.948,7.324,-10.742,-4.883,81.055,0.000,0
1606127485.952,-28.320,-23.438,-22.461,-53.711,0.000,0
1606127485.956,-44.922,-26.367,-30.762,-133.301,0.000,0
1606127485.960,-20.020,-16.113,-20.508,-62.988,0.000,0
1606127485.964,24.414,-10.254,-6.348,75.684,0.000,0
1606127485.967,26.367,-7.812,-6.348,108.398,0.000,0
1606127485.971,-2.930,-5.371,-23.926,-22.461,0.000,0
1606127485.975,-25.879,-4.395,-39.551,-138.672,0.000,0
1606127485.979,-21.484,0.000,-34.668,-95.215,0.000,0
1606127485.983,11.230,-1.953,-20.020,45.898,0.000,0
1606127485.987,20.508,-17.090,-16.113,83.008,0.000,0
1606127485.991,-13.184,-23.438,-34.668,-28.320,0.000,0
1606127485.995,-45.898,-31.738,-48.340,-133.301,0.000,0
1606127485.999,-27.344,-25.391,-43.945,-101.562,0.000,0
1606127486.003,18.066,-15.137,-34.180,38.086,0.000,0
1606127486.007,27.832,-18.066,-22.461,96.191,0.000,0
1606127486.010,1.953,-17.578,-28.809,3.906,0.000,0
1606127486.014,-25.879,-18.066,-36.621,-109.863,0.000,0
1606127486.018,-14.160,-14.648,-35.645,-100.586,0.000,0
1606127486.022,19.531,-5.859,-22.461,29.785,0.000,0
1606127486.026,19.043,0.000,-11.719,110.352,0.000,0
1606127486.030,-8.301,-9.277,-22.461,32.715,0.000,0
1606127486.034,-38.086,-20.508,-33.691,-99.121,0.000,0
1606127486.038,-31.250,-29.297,-31.738,-104.980,0.000,0
1606127486.042,2.930,-28.809,-22.949,17.578,0.000,0
1606127486.046,24.902,-27.832,-8.301,108.887,0.000,0
1606127486.050,9.277,-32.715,-10.742,55.176,0.000,0
1606127486.053,-25.879,-25.879,-29.297,-84.473,0.000,0
1606127486.057,-31.738,-24.902,-36.133,-124.023,0.000,0
1606127486.061,3.906,-16.113,-25.391,-2.930,0.000,0
1606127486.065,36.133,-6.836,-18.066,102.051,0.000,0
1606127486.069,21.973,-15.625,-23.438,54.688,0.000,0
1606127486.073,-21.484,-24.414,-36.133,-82.031,0.000,0
1606127486.077,-20.020,-19.043,-42.480,-121.582,0.000,0
1606127486.081,17.090,-8.301,-29.297,-17.578,0.000,0
1606127486.085,33.691,-3.906,-18.066,96.680,0.000,0
1606127486.089,18.555,-10.742,-22.461,76.172,0.000,0
1606127486.092,-12.207,-12.207,-26.855,-59.082,0.000,0
1606127486.096,-21.484,-15.625,-30.762,-124.512,0.000,0
1606127486.100,0.977,-14.160,-31.250,-36.133,0.000,0
1606127486.104,41.992,-3.906,-13.184,91.797,0.000,0
1606127486.108,38.086,-4.883,-6.836,85.449,0.000,0
1606127486.112,-1.465,-16.113,-21.484,-45.410,0.000,0
1606127486.116,-18.555,-24.902,-32.227,-122.070,0.000,0
1606127486.120,-4.395,-16.113,-26.855,-51.270,0.000,0
1606127486.124,28.320,-2.930,-4.395,83.008,0.000,0
1606127486.128,36.133,-5.371,0.977,95.215,0.000,0
1606127486.132,0.000,-20.020,-18.555,-33.691,0.000,0
1606127486.135,-26.367,-31.250,-31.738,-125.000,0.000,0
1606127486.139,-9.277,-16.113,-22.949,-64.941,0.000,0
1606127486.143,24.902,-3.906,-13.672,71.777,0.000,0
1606127486.147,27.344,-14.160,-16.113,99.121,0.000,0
1606127486.151,-11.719,-19.043,-26.855,-18.555,0.000,0
1606127486.155,-37.109,-13.672,-35.156,-121.582,0.000,0
1606127486.159,-23.438,-16.113,-35.156,-88.379,0.000,0
1606127486.163,14.160,-10.742,-19.043,49.316,0.000,0
1606127486.167,28.809,-4.883,-9.277,104.492,0.000,0
1606127486.171,-9.277,-19.043,-21.484,1.953,0.000,0
1606127486.175,-46.387,-30.762,-30.273,-109.375,0.000,0
1606127486.178,-32.227,-23.926,-33.691,-90.332,0.000,0
1606127486.182,4.883,-16.113,-25.391,41.992,0.000,0
1606127486.186,20.996,-17.090,-16.113,112.305,0.000,0
1606127486.190,-4.395,-21.973,-25.879,24.414,0.000,0
1606127486.194,-28.320,-27.344,-29.297,-101.562,0.000,0
1606127486.198,-23.438,-27.832,-22.949,-104.492,0.000,0
1606127486.202,8.301,-7.812,-11.230,24.414,0.000,0
1606127486.206,28.809,2.441,-2.441,110.840,0.000,0
1606127486.210,14.648,-11.230,-14.160,35.156,0.000,0
1606127486.214,-19.531,-21.973,-30.762,-94.238,0.000,0
1606127486.217,-31.250,-14.648,-33.203,-105.957,0.000,0
1606127486.221,3.418,-8.789,-23.926,9.277,0.000,0
1606127486.225,25.879,-19.043,-10.742,105.469,0.000,0
1606127486.229,3.418,-24.414,-9.766,58.105,0.000,0
1606127486.233,-32.715,-22.461,-27.344,-86.914,0.000,0
1606127486.237,-33.203,-23.926,-34.180,-125.488,0.000,0
1606127486.241,0.000,-10.742,-22.949,-14.160,0.000,0
1606127486.245,28.320,-1.953,-16.113,96.191,0.000,0
1606127486.249,20.020,-7.812,-8.789,65.430,0.000,0
1606127486.253,-17.578,-13.184,-23.438,-73.242,0.000,0
1606127486.257,-34.180,-20.996,-41.504,-130.859,0.000,0
1606127486.260,-10.254,-13.672,-28.320,-34.668,0.000,0
1606127486.264,21.484,-8.301,-16.602,84.961,0.000,0
1606127486.268,14.648,-19.043,-21.973,69.336,0.000,0
1606127486.272,-20.996,-24.414,-31.250,-62.012,0.000,0
1606127486.276,-43.457,-24.414,-35.645,-132.812,0.000,0
1606127486.280,-23.926,-13.672,-29.297,-53.223,0.000,0
1606127486.284,14.160,-6.836,-12.695,75.684,0.000,0
1606127486.288,6.836,-15.137,-13.184,78.125,0.000,0
1606127486.292,-27.344,-20.508,-25.879,-41.992,0.000,0
1606127486.296,-36.133,-20.508,-23.438,-115.234,0.000,0
1606127486.300,-12.207,-23.926,-14.648,-53.223,0.000,0
1606127486.303,20.508,-14.160,-4.395,74.219,0.000,0
1606127486.307,19.043,-10.742,-6.836,97.168,0.000,0
1606127486.311,-9.277,-21.973,-20.508,-19.531,0.000,0
1606127486.315,-38.574,-32.227,-32.227,-125.000,0.000,0
1606127486.319,-35.156,-30.762,-31.250,-83.984,0.000,0
1606127486.323,5.371,-23.438,-18.066,49.316,0.000,0
1606127486.327,19.043,-25.879,-11.230,92.285,0.000,0
1606127486.331,-10.254,-22.949,-19.531,-10.254,0.000,0
1606127486.335,-41.992,-27.344,-34.180,-131.836,0.000,0
1606127486.339,-23.438,-28.809,-30.762,-108.887,0.000,0
1606127486.342,19.043,-14.160,-12.207,36.133,0.000,0
1606127486.346,27.344,-13.672,-6.348,94.727,0.000,0
1606127486.350,2.441,-23.438,-22.949,1.465,0.000,0
1606127486.354,-19.531,-25.879,-37.109,-114.258,0.000,0
1606127486.358,-9.277,-20.996,-31.250,-99.121,0.000,0
1606127486.362,25.391,-15.625,-17.090,31.738,0.000,0
1606127486.366,38.574,-18.066,-11.719,102.539,0.000,0
1606127486.370,9.277,-18.066,-19.043,28.320,0.000,0
1606127486.374,-24.902,-20.020,-31.250,-95.703,0.000,0
1606127486.378,-16.602,-19.531,-33.203,-104.492,0.000,0
1606127486.382,15.137,-17.578,-17.090,16.113,0.000,0
1606127486.385,25.391,-8.789,-10.742,105.957,0.000,0
1606127486.389,5.859,-9.277,-17.090,52.734,0.000,0
1606127486.393,-25.391,-20.508,-18.555,-79.102,0.000,0
1606127486.397,-33.203,-22.949,-22.949,-111.816,0.000,0
1606127486.401,-2.930,-13.672,-14.160,1.953,0.000,0
1606127486.405,20.996,-6.348,-7.324,109.375,0.000,0
1606127486.409,1.465,-17.578,-10.742,68.359,0.000,0
1606127486.413,-38.574,-21.973,-22.461,-70.312,0.000,0
1606127486.417,-41.992,-25.391,-33.203,-120.605,0.000,0
1606127486.421,-14.648,-26.367,-28.320,-23.438,0.000,0
1606127486.425,2.930,-20.508,-16.602,95.703,0.000,0
1606127486.428,-5.859,-18.066,-13.672,77.148,0.000,0
1606127486.432,-34.668,-24.902,-22.949,-63.477,0.000,0
1606127486.436,-36.621,-24.414,-31.250,-125.977,0.000,0
1606127486.440,-9.766,-20.508,-33.203,-46.387,0.000,0
1606127486.444,21.973,-14.648,-23.926,73.730,0.000,0
1606127486.448,24.902,-17.090,-20.508,78.125,0.000,0
1606127486.452,-16.113,-27.832,-30.762,-59.082,0.000,0
1606127486.456,-35.645,-38.086,-37.598,-142.578,0.000,0
1606127486.460,-6.348,-35.645,-33.203,-69.336,0.000,0
1606127486.464,22.461,-22.461,-19.531,67.871,0.000,0
1606127486.467,25.391,-12.695,-17.578,89.844,0.000,0
1606127486.471,-2.441,-6.348,-27.344,-34.668,0.000,0
1606127486.475,-24.902,-18.066,-38.574,-130.371,0.000,0
1606127486.479,-5.859,-20.020,-31.250,-73.730,0.000,0
1606127486.483,29.785,-2.930,-12.695,65.430,0.000,0
1606127486.487,29.297,-4.883,-14.160,96.680,0.000,0
1606127486.491,-3.418,-15.625,-20.508,-14.648,0.000,0
1606127486.495,-23.926,-19.043,-24.902,-117.676,0.000,0
1606127486.499,-9.766,-7.812,-21.484,-78.613,0.000,0
1606127486.503,19.531,-3.906,-8.301,56.641,0.000,0
1606127486.507,28.320,-1.465,-9.766,106.934,0.000,0
1606127486.510,2.930,-10.254,-20.996,4.395,0.000,0
1606127486.514,-32.715,-30.273,-18.066,-114.258,0.000,0
1606127486.518,-29.785,-24.902,-18.555,-95.215,0.000,0
1606127486.522,2.930,-19.531,-16.113,38.574,0.000,0
1606127486.526,23.926,-20.020,-9.277,113.281,0.000,0
1606127486.530,8.789,-11.230,-22.949,29.785,0.000,0
1606127486.534,-30.273,-12.695,-30.762,-103.516,0.000,0
1606127486.538,-37.598,-20.508,-30.273,-112.305,0.000,0
1606127486.542,-3.906,-5.859,-21.484,16.602,0.000,0
1606127486.546,15.625,-1.465,-7.324,106.934,0.000,0
1606127486.550,-4.395,-19.043,-13.672,33.691,0.000,0
1606127486.553,-33.203,-24.902,-28.320,-97.656,0.000,0
1606127486.557,-30.273,-15.137,-29.785,-114.258,0.000,0
1606127486.561,4.883,-5.371,-15.137,2.930,0.000,0
1606127486.565,31.250,-1.953,-7.812,102.539,0.000,0
1606127486.569,17.578,-14.160,-19.531,54.199,0.000,0
1606127486.573,-18.066,-25.391,-35.645,-83.008,0.000,0
1606127486.577,-20.020,-21.484,-32.715,-117.188,0.000,0
1606127486.581,18.066,-20.508,-22.949,-1.953,0.000,0
1606127486.585,45.898,-9.766,-16.113,109.375,0.000,0
1606127486.589,31.738,-6.348,-17.578,76.172,0.000,0
1606127486.592,-2.441,-15.137,-24.414,-55.176,0.000,0
1606127486.596,-11.719,-20.996,-32.227,-118.652,0.000,0
1606127486.600,9.766,-15.137,-23.438,-34.668,0.000,0
1606127486.604,34.180,-14.160,-12.695,86.426,0.000,0
1606127486.608,25.391,-28.320,-19.531,73.730,0.000,0
1606127486.612,-14.648,-26.855,-25.391,-62.988,0.000,0
1606127486.616,-29.297,-20.996,-26.367,-134.277,0.000,0
1606127486.620,-8.301,-19.531,-19.043,-55.176,0.000,0
1606127486.624,19.531,-8.301,-11.719,65.430,0.000,0
1606127486.628,24.902,-8.301,-16.113,76.660,0.000,0
1606127486.632,-23.926,-25.879,-25.391,-48.828,0.000,0
1606127486.635,-50.293,-24.902,-27.832,-136.719,0.000,0
1606127486.639,-20.020,-11.230,-21.973,-71.777,0.000,0
1606127486.643,14.648,-11.230,-12.207,57.617,0.000,0
1606127486.647,21.973,-7.324,-8.789,85.938,0.000,0
1606127486.651,-12.695,-7.324,-22.461,-35.645,0.000,0
1606127486.655,-42.969,-16.113,-31.250,-142.090,0.000,0
1606127486.659,-26.367,-15.137,-25.391,-95.703,0.000,0
1606127486.663,10.254,-1.465,-10.254,38.086,0.000,0
1606127486.667,18.555,-0.977,-5.859,83.496,0.000,0
1606127486.671,-14.648,-15.625,-21.973,-25.391,0.000,0
1606127486.675,-48.340,-28.809,-40.527,-145.508,0.000,0
1606127486.678,-47.363,-25.879,-41.016,-119.629,0.000,0
1606127486.682,-11.230,-14.648,-25.391,18.555,0.000,0
1606127486.686,10.254,-13.672,-14.648,88.379,0.000,0
1606127486.690,-9.766,-22.949,-22.949,8.789,0.000,0
1606127486.694,-37.598,-32.715,-33.691,-110.840,0.000,0
1606127486.698,-27.832,-28.320,-33.203,-109.375,0.000,0
1606127486.702,16.602,-17.578,-18.555,29.297,0.000,0
1606127486.706,25.391,-16.602,-12.695,111.328,0.000,0
1606127486.710,1.953,-10.742,-13.184,38.086,0.000,0
1606127486.714,-28.809,-11.719,-23.438,-91.797,0.000,0
1606127486.717,-35.156,-20.508,-31.250,-106.934,0.000,0
1606127486.721,2.441,-12.695,-12.695,21.973,0.000,0
1606127486.725,39.062,-5.859,-6.348,118.652,0.000,0
1606127486.729,18.066,-7.812,-20.996,58.594,0.000,0
1606127486.733,-40.527,-26.855,-33.203,-83.008,0.000,0
1606127486.737,-39.551,-35.156,-36.133,-116.699,0.000,0
1606127486.741,0.000,-20.020,-23.438,-6.836,0.000,0
1606127486.745,23.926,-8.789,-7.812,98.145,0.000,0
1606127486.749,15.137,-6.836,-14.648,60.059,0.000,0
1606127486.753,-21.973,-22.949,-28.320,-76.660,0.000,0
1606127486.757,-31.250,-25.879,-30.762,-124.023,0.000,0
1606127486.760,-2.930,-14.648,-21.484,-23.438,0.000,0
1606127486.764,21.484,-7.324,-8.301,90.820,0.000,0
1606127486.768,13.672,-7.324,-12.207,72.754,0.000,0
1606127486.772,-24.902,-18.555,-27.832,-62.988,0.000,0
1606127486.776,-41.504,-24.414,-34.668,-134.766,0.000,0
1606127486.780,-19.531,-13.184,-22.949,-44.922,0.000,0
1606127486.784,11.719,-10.254,-10.742,83.496,0.000,0
1606127486.788,11.719,-30.762,-14.648,74.707,0.000,0
1606127486.792,-24.414,-37.109,-22.461,-53.223,0.000,0
1606127486.796,-39.551,-31.738,-26.855,-127.930,0.000,0
1606127486.800,-23.438,-22.949,-23.438,-68.359,0.000,0
1606127486.803,9.766,-13.672,-17.090,59.082,0.000,0
1606127486.807,8.301,-14.160,-18.555,76.172,0.000,0
1606127486.811,-33.691,-24.414,-27.344,-47.852,0.000,0
1606127486.815,-51.270,-34.668,-33.203,-143.066,0.000,0
1606127486.819,-36.133,-24.414,-25.879,-94.727,0.000,0
1606127486.823,4.883,-8.301,-13.184,47.852,0.000,0
1606127486.827,20.508,-13.184,-16.113,96.680,0.000,0
1606127486.831,-11.719,-24.414,-34.668,-15.137,0.000,0
1606127486.835,-36.133,-19.531,-38.574,-121.094,0.000,0
1606127486.839,-23.438,-12.695,-28.809,-83.496,0.000,0
1606127486.842,7.812,-9.277,-20.508,50.293,0.000,0
1606127486.846,15.625,-6.348,-15.137,107.910,0.000,0
1606127486.850,-4.395,-11.230,-20.508,22.949,0.000,0
1606127486.854,-34.180,-20.508,-29.785,-98.145,0.000,0
1606127486.858,-30.273,-15.625,-28.320,-86.914,0.000,0
1606127486.862,12.207,-7.324,-17.090,47.852,0.000,0
1606127486.866,17.578,-13.184,-13.184,117.188,0.000,0
1606127486.870,-7.324,-17.578,-21.484,35.645,0.000,0
1606127486.874,-27.344,-19.531,-26.855,-88.867,0.000,0
1606127486.878,-27.832,-28.809,-32.715,-100.586,0.000,0
1606127486.882,7.324,-17.090,-28.320,17.090,0.000,0
1606127486.885,30.273,-27.832,-18.066,101.074,0.000,0
1606127486.889,15.137,-33.691,-17.090,45.898,0.000,0
1606127486.893,-18.066,-15.625,-23.926,-75.195,0.000,0
1606127486.897,-39.551,-20.508,-30.273,-109.863,0.000,0
1606127486.901,-9.277,-5.371,-16.602,0.488,0.000,0
1606127486.905,26.367,-27.832,-3.418,112.793,0.000,0
1606127486.909,7.324,-44.434,-3.418,70.312,0.000,0
1606127486.913,-28.320,-19.043,-10.742,-71.777,0.000,0
1606127486.917,-35.156,-20.508,-19.043,-109.375,0.000,0
1606127486.921,-14.160,-9.277,-17.578,-7.812,0.000,0
1606127486.925,11.719,-30.762,-9.766,93.262,0.000,0
1606127486.928,5.859,-56.641,-15.137,71.289,0.000,0
1606127486.932,-28.320,-33.203,-28.809,-59.570,0.000,0
1606127486.936,-31.250,-20.020,-29.785,-119.629,0.000,0
1606127486.940,2.441,-4.883,-21.484,-25.391,0.000,0
1606127486.944,28.320,1.953,-7.812,97.656,0.000,0
1606127486.948,18.555,-13.672,-4.395,81.055,0.000,0
1606127486.952,-20.996,-23.438,-17.090,-54.688,0.000,0
1606127486.956,-32.715,-20.020,-24.414,-125.488,0.000,0
1606127486.960,-8.789,-10.254,-14.648,-54.688,0.000,0
1606127486.964,26.855,-3.906,-5.371,84.961,0.000,0
1606127486.967,27.832,-10.254,-6.348,104.004,0.000,0
1606127486.971,-5.371,-21.973,-18.555,-27.832,0.000,0
1606127486.975,-20.020,-30.273,-29.785,-116.211,0.000,0
1606127486.979,-11.230,-24.414,-25.391,-58.105,0.000,0
1606127486.983,15.625,-3.418,-10.254,79.590,0.000,0
1606127486.987,27.832,-15.625,-4.395,116.699,0.000,0
1606127486.991,-2.930,-28.320,-13.672,7.812,0.000,0
1606127486.995,-36.621,-22.949,-23.438,-100.586,0.000,0
1606127486.999,-16.113,-20.020,-13.672,-67.871,0.000,0
1606127487.003,11.719,-10.742,-2.930,58.594,0.000,0
