timestamps,TP9,AF7,AF8,TP10,Right AUX
1606133175.272,0.000,0.000,0.000,0.000,0.000
1606133175.276,0.488,0.000,0.000,2.441,0.000
1606133175.280,-13.672,-1.953,-1.953,-35.156,0.000
1606133175.284,28.809,3.906,3.418,73.242,0.000
1606133175.288,-123.047,-20.020,-19.043,-305.664,0.000
1606133175.292,-358.887,-52.246,-53.711,-938.965,0.000
1606133175.296,-141.602,-32.227,-37.598,-393.555,0.000
1606133175.300,228.516,-6.348,-16.113,646.484,0.000
1606133175.304,248.047,-11.719,-18.066,780.273,0.000
1606133175.307,-116.699,-43.945,-37.109,-192.383,0.000
1606133175.311,-369.141,-60.547,-55.664,-934.082,0.000
1606133175.315,-191.406,-46.875,-41.016,-502.441,0.000
1606133175.319,177.734,-20.508,-15.625,538.086,0.000
1606133175.323,252.930,-12.695,-11.719,829.590,0.000
1606133175.327,-81.055,-35.156,-25.391,-61.523,0.000
1606133175.331,-365.234,-56.641,-41.504,-896.973,0.000
1606133175.335,-244.141,-51.758,-43.945,-619.141,0.000
1606133175.339,132.812,-21.973,-28.320,436.523,0.000
1606133175.343,269.531,-10.742,-16.602,868.164,0.000
1606133175.347,-26.855,-33.203,-33.691,71.777,0.000
1606133175.350,-343.262,-52.246,-51.270,-841.309,0.000
1606133175.354,-267.090,-46.875,-45.898,-714.355,0.000
1606133175.358,120.605,-25.879,-22.461,333.984,0.000
1606133175.362,299.316,-18.555,-8.301,892.578,0.000
1606133175.366,32.227,-40.039,-29.297,211.914,0.000
1606133175.370,-305.176,-55.176,-44.434,-767.090,0.000
1606133175.374,-279.297,-42.969,-33.691,-777.344,0.000
1606133175.378,93.750,-16.602,-4.883,243.652,0.000
1606133175.382,310.547,-5.859,4.883,893.555,0.000
1606133175.386,86.426,-22.461,-19.043,344.727,0.000
1606133175.390,-276.855,5.859,-35.156,-661.621,0.000
1606133175.393,-318.359,26.855,-37.109,-845.703,0.000
1606133175.397,27.832,-7.812,-25.879,94.727,0.000
1606133175.401,283.203,-16.602,-9.277,858.398,0.000
1606133175.405,115.234,-23.926,-14.648,456.055,0.000
1606133175.409,-257.324,-51.270,-40.039,-587.891,0.000
1606133175.413,-344.727,-57.129,-40.527,-907.227,0.000
1606133175.417,-11.230,-30.273,-13.672,-30.762,0.000
1606133175.421,276.855,-6.836,-0.488,825.195,0.000
1606133175.425,158.691,-15.625,-14.648,561.523,0.000
1606133175.429,-216.797,-34.668,-31.738,-491.699,0.000
1606133175.432,-358.398,-53.223,-40.039,-939.453,0.000
1606133175.436,-65.430,-18.555,-28.809,-174.805,0.000
1606133175.440,253.906,21.484,-13.672,741.699,0.000
1606133175.444,200.684,-6.348,-19.531,641.602,0.000
1606133175.448,-168.945,-42.969,-48.828,-390.137,0.000
1606133175.452,-354.980,-50.781,-53.223,-957.031,0.000
1606133175.456,-101.562,-30.273,-35.645,-306.152,0.000
1606133175.460,249.512,-12.207,-12.695,684.082,0.000
1606133175.464,250.488,-11.230,-10.742,749.023,0.000
1606133175.468,-120.605,-35.645,-41.992,-254.395,0.000
1606133175.472,-356.934,-51.758,-47.852,-948.730,0.000
1606133175.475,-156.250,-37.109,-30.273,-429.688,0.000
1606133175.479,207.031,-8.301,-13.672,601.562,0.000
1606133175.483,259.766,-12.695,-11.719,811.523,0.000
1606133175.487,-78.125,-19.043,-35.156,-113.770,0.000
1606133175.491,-352.539,-14.160,-47.363,-911.621,0.000
1606133175.495,-222.168,-34.668,-38.574,-568.848,0.000
1606133175.499,156.250,-27.344,-29.297,480.957,0.000
1606133175.503,281.738,-18.066,-24.414,846.680,0.000
1606133175.507,-32.227,-41.016,-36.133,2.930,0.000
1606133175.511,-329.590,-54.199,-49.805,-867.188,0.000
1606133175.515,-219.238,-41.016,-37.598,-639.648,0.000
1606133175.518,156.738,-19.043,-18.555,419.922,0.000
1606133175.522,304.199,-10.254,-19.043,885.742,0.000
1606133175.526,28.809,-28.809,-33.203,147.949,0.000
1606133175.530,-291.504,-52.246,-39.062,-778.809,0.000
1606133175.534,-245.605,-48.828,-37.598,-713.867,0.000
1606133175.538,135.742,-17.578,-26.367,312.500,0.000
1606133175.542,336.426,-9.766,-18.066,899.414,0.000
1606133175.546,94.238,-26.367,-34.180,289.551,0.000
1606133175.550,-255.859,-41.504,-52.246,-702.148,0.000
1606133175.554,-257.324,-42.969,-45.410,-793.457,0.000
1606133175.557,108.398,-21.484,-21.973,200.684,0.000
1606133175.561,333.496,-8.301,-19.043,901.855,0.000
1606133175.565,135.254,-25.391,-34.668,422.363,0.000
1606133175.569,-246.094,-50.293,-48.828,-633.789,0.000
1606133175.573,-278.320,-46.875,-44.922,-786.621,0.000
1606133175.577,81.055,-25.391,-17.578,183.105,0.000
1606133175.581,307.617,-13.184,-7.812,861.328,0.000
1606133175.585,157.227,-23.926,-22.461,511.719,0.000
1606133175.589,-220.703,-37.598,-40.039,-534.668,0.000
1606133175.593,-333.008,-39.551,-35.645,-909.668,0.000
1606133175.597,-17.578,-25.879,-9.277,-72.266,0.000
1606133175.600,279.297,-11.719,-2.930,808.594,0.000
1606133175.604,177.734,-23.438,-14.648,607.910,0.000
1606133175.608,-205.566,-41.016,-41.016,-440.918,0.000
1606133175.612,-363.281,-53.711,-51.270,-942.383,0.000
1606133175.616,-83.496,-38.574,-35.645,-223.145,0.000
1606133175.620,242.676,-12.207,-19.531,735.352,0.000
1606133175.624,210.449,-15.137,-20.508,701.172,0.000
1606133175.628,-159.668,-44.922,-41.504,-333.496,0.000
1606133175.632,-375.488,-56.152,-48.340,-954.102,0.000
1606133175.636,-141.113,-32.227,-31.250,-357.422,0.000
1606133175.640,221.680,-5.371,-11.719,652.832,0.000
1606133175.643,237.793,-13.184,-11.719,776.855,0.000
1606133175.647,-133.301,-36.133,-38.086,-208.008,0.000
1606133175.651,-377.930,-55.176,-44.922,-935.059,0.000
1606133175.655,-182.129,-50.293,-37.598,-473.145,0.000
1606133175.659,200.684,-19.043,-24.414,568.848,0.000
1606133175.663,279.297,-14.648,-9.766,832.520,0.000
1606133175.667,-61.523,-41.016,-23.438,-77.637,0.000
1606133175.671,-334.473,-53.223,-33.203,-885.742,0.000
1606133175.675,-193.848,-36.621,-27.344,-574.219,0.000
1606133175.679,175.293,-24.414,-20.508,458.984,0.000
1606133175.682,289.551,-25.391,-17.578,851.562,0.000
1606133175.686,-12.695,-31.250,-23.926,50.293,0.000
1606133175.690,-328.613,-47.363,-38.086,-847.656,0.000
1606133175.694,-253.418,-44.922,-35.645,-704.102,0.000
1606133175.698,126.465,6.836,-16.602,349.609,0.000
1606133175.702,290.527,29.785,-9.766,877.930,0.000
1606133175.706,19.531,-20.996,-21.973,180.176,0.000
1606133175.710,-320.312,-52.246,-43.457,-780.273,0.000
1606133175.714,-292.969,-49.805,-42.969,-779.785,0.000
1606133175.718,79.590,-15.137,-23.926,241.699,0.000
1606133175.722,289.551,-1.465,-16.602,871.094,0.000
1606133175.725,67.871,-30.273,-24.902,300.293,0.000
1606133175.729,-285.156,-55.176,-40.527,-699.219,0.000
1606133175.733,-310.547,-58.105,-42.969,-851.562,0.000
1606133175.737,43.457,-26.855,-23.438,118.164,0.000
1606133175.741,291.992,-11.719,-5.371,865.234,0.000
1606133175.745,111.816,-27.832,-16.602,432.617,0.000
1606133175.749,-264.160,-51.758,-40.527,-604.004,0.000
1606133175.753,-342.773,-57.617,-48.828,-899.902,0.000
1606133175.757,-1.465,-27.832,-33.691,-5.371,0.000
1606133175.761,287.598,-4.395,-12.207,842.773,0.000
1606133175.765,157.715,-20.996,-12.695,559.082,0.000
1606133175.768,-217.773,-58.105,-37.109,-497.559,0.000
1606133175.772,-353.027,-73.242,-48.828,-928.223,0.000
1606133175.776,-54.688,-41.992,-28.320,-134.277,0.000
1606133175.780,271.484,4.883,-11.719,787.109,0.000
1606133175.784,204.102,-6.348,-18.555,664.551,0.000
1606133175.788,-175.781,-47.363,-31.250,-378.906,0.000
1606133175.792,-350.586,-56.152,-43.457,-933.594,0.000
1606133175.796,-82.520,-32.715,-27.344,-256.836,0.000
1606133175.800,255.859,-8.789,-8.789,711.914,0.000
1606133175.804,229.492,-17.578,-20.996,727.051,0.000
1606133175.807,-140.137,-40.039,-38.574,-278.320,0.000
1606133175.811,-355.957,-50.781,-50.293,-938.965,0.000
1606133175.815,-138.672,-32.227,-36.621,-404.785,0.000
1606133175.819,217.773,-0.977,-14.160,605.957,0.000
1606133175.823,252.930,-5.859,-16.113,788.086,0.000
1606133175.827,-93.750,-28.809,-22.949,-155.762,0.000
1606133175.831,-352.539,-43.457,-33.203,-918.457,0.000
1606133175.835,-188.965,-35.645,-40.527,-525.879,0.000
1606133175.839,189.941,-4.395,-17.578,512.695,0.000
1606133175.843,282.715,1.953,-11.719,833.008,0.000
1606133175.847,-44.922,-24.902,-34.180,-33.203,0.000
1606133175.850,-342.285,-46.875,-44.922,-875.000,0.000
1606133175.854,-237.793,-45.898,-39.062,-626.465,0.000
1606133175.858,139.160,14.648,-18.555,419.922,0.000
1606133175.862,279.785,37.109,-7.324,873.047,0.000
1606133175.866,-9.277,-21.973,-20.996,110.352,0.000
1606133175.870,-334.961,-53.223,-38.086,-821.777,0.000
1606133175.874,-270.508,-46.875,-37.109,-729.492,0.000
1606133175.878,111.816,-22.949,-18.066,308.105,0.000
1606133175.882,293.457,-11.230,-8.789,871.094,0.000
1606133175.886,44.434,-25.879,-26.855,231.445,0.000
1606133175.890,-297.363,-46.875,-38.086,-733.887,0.000
1606133175.893,-294.922,-52.734,-39.551,-799.316,0.000
1606133175.897,66.895,-33.203,-30.273,181.641,0.000
1606133175.901,293.457,-14.160,-14.160,862.793,0.000
1606133175.905,87.402,-28.320,-22.461,355.957,0.000
1606133175.909,-281.738,-54.199,-43.945,-663.574,0.000
1606133175.913,-328.613,-64.453,-38.574,-871.094,0.000
1606133175.917,26.855,-10.742,-15.137,62.988,0.000
1606133175.921,291.504,30.762,-3.906,847.168,0.000
1606133175.925,130.859,-14.648,-15.625,476.562,0.000
1606133175.929,-242.676,-45.898,-39.062,-562.988,0.000
1606133175.932,-343.750,-53.223,-51.758,-918.457,0.000
1606133175.936,-21.484,-31.738,-37.109,-73.730,0.000
1606133175.940,278.320,-12.207,-20.020,795.410,0.000
1606133175.944,164.551,-24.414,-19.531,571.289,0.000
1606133175.948,-213.379,-43.945,-37.109,-466.309,0.000
1606133175.952,-355.957,-54.199,-50.781,-931.641,0.000
1606133175.956,-73.242,-30.762,-34.180,-193.848,0.000
1606133175.960,246.582,12.207,-15.625,729.492,0.000
1606133175.964,195.312,-5.859,-15.625,666.504,0.000
1606133175.968,-176.270,-47.363,-39.551,-342.773,0.000
1606133175.972,-372.070,-57.129,-57.617,-940.918,0.000
1606133175.975,-138.672,-48.340,-41.504,-338.379,0.000
1606133175.979,213.379,-21.484,-15.137,650.879,0.000
1606133175.983,230.469,-17.090,-1.465,749.512,0.000
1606133175.987,-131.836,-47.363,-24.902,-228.027,0.000
1606133175.991,-362.793,-63.965,-45.898,-927.246,0.000
1606133175.995,-157.715,-35.156,-31.250,-438.965,0.000
1606133175.999,203.125,0.977,-13.672,582.031,0.000
1606133176.003,255.859,-6.836,-16.113,803.223,0.000
1606133176.007,-81.543,-41.016,-38.086,-110.352,0.000
1606133176.011,-350.586,-55.176,-41.504,-904.297,0.000
1606133176.015,-204.590,-39.062,-20.996,-563.965,0.000
1606133176.018,175.293,-11.719,-6.348,483.887,0.000
1606133176.022,276.855,-17.578,-18.555,840.332,0.000
1606133176.026,-34.668,-41.016,-35.645,16.113,0.000
1606133176.030,-328.613,-51.758,-45.898,-851.074,0.000
1606133176.034,-235.840,-35.645,-40.527,-661.621,0.000
1606133176.038,139.160,-8.789,-21.973,371.094,0.000
1606133176.042,299.805,-1.953,-9.277,866.211,0.000
1606133176.046,26.367,-19.531,-27.832,164.551,0.000
1606133176.050,-311.523,-40.039,-55.176,-791.504,0.000
1606133176.054,-280.762,-44.922,-47.852,-776.367,0.000
1606133176.057,88.867,-6.348,-22.949,236.328,0.000
1606133176.061,290.039,31.250,-10.254,855.957,0.000
1606133176.065,60.547,-16.113,-21.484,274.902,0.000
1606133176.069,-286.133,-59.570,-53.223,-716.797,0.000
1606133176.073,-298.828,-47.363,-53.223,-836.914,0.000
1606133176.077,66.406,-19.531,-23.926,144.531,0.000
1606133176.081,312.988,-0.977,-10.254,868.164,0.000
1606133176.085,130.371,-13.184,-28.809,410.156,0.000
1606133176.089,-243.164,-41.016,-41.992,-607.910,0.000
1606133176.093,-328.613,-47.852,-29.785,-869.141,0.000
1606133176.097,-2.441,-21.484,-16.602,20.996,0.000
1606133176.100,272.949,-2.930,-10.742,829.102,0.000
1606133176.104,140.137,-24.902,-17.578,517.578,0.000
1606133176.108,-230.469,-47.363,-31.738,-516.602,0.000
1606133176.112,-349.609,-56.152,-31.738,-913.086,0.000
1606133176.116,-48.340,-41.016,-21.484,-113.770,0.000
1606133176.120,257.812,-21.973,-14.160,780.273,0.000
1606133176.124,182.129,-25.879,-14.160,633.789,0.000
1606133176.128,-186.523,-41.992,-20.020,-395.020,0.000
1606133176.132,-357.910,-51.758,-26.855,-925.781,0.000
1606133176.136,-91.797,-38.086,-25.391,-239.258,0.000
1606133176.140,247.559,-18.066,-16.113,719.238,0.000
1606133176.143,217.285,-23.438,-19.531,711.914,0.000
1606133176.147,-151.367,-46.387,-32.715,-299.805,0.000
1606133176.151,-353.027,-57.617,-39.551,-935.059,0.000
1606133176.155,-129.395,-44.922,-34.668,-378.418,0.000
1606133176.159,221.191,-19.531,-14.160,622.070,0.000
1606133176.163,251.953,-14.648,-5.371,772.461,0.000
1606133176.167,-99.609,-31.738,-30.762,-176.758,0.000
1606133176.171,-349.609,-50.293,-53.711,-922.363,0.000
1606133176.175,-173.340,-47.363,-39.062,-505.371,0.000
1606133176.179,201.172,-19.531,-11.719,540.039,0.000
1606133176.182,282.227,-12.695,-3.418,838.379,0.000
1606133176.186,-54.688,-40.527,-27.344,-42.480,0.000
1606133176.190,-344.238,-57.617,-47.852,-876.465,0.000
1606133176.194,-225.098,-46.387,-35.645,-607.422,0.000
1606133176.198,148.438,-6.348,-18.555,436.035,0.000
1606133176.202,285.645,3.906,0.000,869.629,0.000
1606133176.206,-10.254,-33.203,-15.625,90.332,0.000
1606133176.210,-331.055,-53.223,-54.688,-827.148,0.000
1606133176.214,-266.113,-53.223,-44.434,-712.402,0.000
1606133176.218,108.398,-26.367,-20.020,325.195,0.000
1606133176.222,287.109,-10.742,-17.090,878.906,0.000
1606133176.225,36.133,-26.367,-24.902,229.492,0.000
1606133176.229,-302.246,-48.340,-41.016,-737.793,0.000
1606133176.233,-291.504,-54.199,-34.180,-779.785,0.000
1606133176.237,77.148,-12.695,-11.230,223.145,0.000
1606133176.241,288.574,16.602,-4.395,866.699,0.000
1606133176.245,72.754,-17.090,-13.672,325.684,0.000
1606133176.249,-279.785,-49.316,-33.203,-669.922,0.000
1606133176.253,-316.406,-52.246,-36.621,-848.145,0.000
1606133176.257,31.738,-27.344,-19.043,92.285,0.000
1606133176.261,291.016,-9.766,-8.789,850.098,0.000
1606133176.265,136.719,-20.996,-18.066,461.914,0.000
1606133176.268,-230.957,-42.480,-36.621,-568.848,0.000
1606133176.272,-325.195,-53.711,-38.574,-897.461,0.000
1606133176.276,-5.859,-22.949,-20.996,-41.504,0.000
1606133176.280,288.086,11.230,-9.277,814.453,0.000
1606133176.284,181.152,-4.395,-13.672,575.684,0.000
1606133176.288,-196.289,-33.203,-36.133,-459.473,0.000
1606133176.292,-341.797,-42.969,-49.316,-915.039,0.000
1606133176.296,-51.270,-28.809,-36.133,-165.527,0.000
1606133176.300,271.484,-15.625,-10.742,760.742,0.000
1606133176.304,209.961,-16.113,-8.301,665.039,0.000
1606133176.307,-166.992,-34.668,-38.574,-361.816,0.000
1606133176.311,-353.516,-46.875,-45.898,-931.152,0.000
1606133176.315,-104.980,-25.391,-22.949,-294.434,0.000
1606133176.319,241.699,-3.906,-12.207,682.129,0.000
1606133176.323,241.211,-15.625,-23.438,745.117,0.000
1606133176.327,-123.047,-35.156,-41.504,-231.934,0.000
1606133176.331,-352.539,-48.828,-53.223,-922.852,0.000
1606133176.335,-154.297,-43.945,-33.691,-427.246,0.000
1606133176.339,196.777,-0.488,-17.090,584.473,0.000
1606133176.343,244.629,6.348,-25.879,791.504,0.000
1606133176.347,-94.238,-38.574,-40.527,-131.836,0.000
1606133176.350,-354.004,-52.734,-44.434,-914.551,0.000
1606133176.354,-200.684,-39.551,-33.203,-549.805,0.000
1606133176.358,176.270,-10.254,-20.508,494.629,0.000
1606133176.362,288.574,-4.883,-7.812,855.469,0.000
1606133176.366,-25.879,-32.227,-20.996,21.973,0.000
1606133176.370,-333.984,-54.688,-41.992,-852.051,0.000
1606133176.374,-239.746,-46.387,-35.156,-642.090,0.000
1606133176.378,138.672,-7.812,-17.090,391.602,0.000
1606133176.382,292.969,7.812,-5.859,859.863,0.000
1606133176.386,11.230,-23.926,-19.531,133.301,0.000
1606133176.390,-318.848,-53.223,-38.086,-800.293,0.000
1606133176.393,-273.438,-51.270,-37.109,-742.676,0.000
1606133176.397,100.098,-23.926,-14.160,284.180,0.000
1606133176.401,299.805,-10.742,-4.395,879.883,0.000
1606133176.405,64.941,-22.461,-21.484,271.484,0.000
1606133176.409,-283.691,-41.016,-34.668,-713.379,0.000
1606133176.413,-297.852,-49.316,-42.480,-817.383,0.000
1606133176.417,62.988,-20.996,-26.855,166.016,0.000
1606133176.421,304.688,-0.977,-4.883,881.348,0.000
1606133176.425,104.004,-24.414,-22.461,401.367,0.000
1606133176.429,-268.555,-50.781,-41.016,-631.348,0.000
1606133176.432,-333.984,-54.199,-32.715,-878.906,0.000
1606133176.436,8.789,-23.926,-14.160,39.062,0.000
1606133176.440,279.297,3.906,-13.184,848.145,0.000
1606133176.444,139.648,-13.672,-27.344,529.785,0.000
1606133176.448,-224.609,-43.945,-36.133,-513.184,0.000
1606133176.452,-339.355,-51.270,-33.691,-893.555,0.000
1606133176.456,-19.043,-34.668,-12.695,-59.082,0.000
1606133176.460,293.945,-11.719,-4.883,825.684,0.000
1606133176.464,194.824,-12.207,-20.508,629.883,0.000
1606133176.468,-203.613,-28.320,-45.410,-431.641,0.000
1606133176.472,-379.883,-35.645,-56.152,-960.449,0.000
1606133176.475,-103.516,-26.367,-38.574,-270.996,0.000
1606133176.479,219.727,4.395,-23.438,675.781,0.000
1606133176.483,177.734,6.836,-27.344,640.137,0.000
1606133176.487,-198.730,-24.414,-54.688,-381.836,0.000
1606133176.491,-410.156,-42.480,-61.523,-1000.000,0.000
1606133176.495,-162.598,-27.344,-41.992,-418.457,0.000
1606133176.499,200.195,4.883,-25.879,589.355,0.000
1606133176.503,217.285,-0.488,-24.414,720.215,0.000
1606133176.507,-135.254,-31.738,-40.527,-233.887,0.000
1606133176.511,-366.699,-45.410,-45.410,-947.754,0.000
1606133176.515,-176.270,-39.062,-36.133,-488.770,0.000
1606133176.518,191.895,16.602,-23.438,540.039,0.000
1606133176.522,266.602,31.250,-23.926,806.152,0.000
1606133176.526,-62.988,-33.691,-38.574,-83.984,0.000
1606133176.530,-343.262,-48.828,-44.434,-894.531,0.000
1606133176.534,-221.680,-41.504,-35.156,-595.703,0.000
1606133176.538,160.156,-26.367,-10.254,457.520,0.000
1606133176.542,283.203,-16.602,-0.488,867.676,0.000
1606133176.546,-23.926,-33.691,-21.973,60.547,0.000
1606133176.550,-340.820,-62.500,-44.922,-843.750,0.000
1606133176.554,-260.254,-59.082,-39.062,-695.312,0.000
1606133176.557,124.023,-19.043,-17.578,352.051,0.000
1606133176.561,288.086,-7.812,-14.160,878.418,0.000
1606133176.565,20.996,-29.297,-29.785,188.965,0.000
1606133176.569,-311.035,-50.781,-44.434,-771.484,0.000
1606133176.573,-288.574,-46.387,-42.969,-781.738,0.000
1606133176.577,83.984,-19.043,-23.438,233.887,0.000
1606133176.581,298.340,-9.277,-4.883,876.953,0.000
1606133176.585,79.102,-21.973,-7.812,323.242,0.000
1606133176.589,-279.785,-45.898,-41.504,-685.547,0.000
1606133176.593,-316.895,-50.293,-48.828,-858.398,0.000
1606133176.597,40.039,-18.555,-31.738,96.191,0.000
1606133176.600,302.246,0.000,-18.555,849.121,0.000
1606133176.604,136.719,-14.160,-20.020,444.336,0.000
1606133176.608,-234.375,-32.715,-34.180,-583.984,0.000
1606133176.612,-318.848,-35.645,-41.992,-891.113,0.000
1606133176.616,8.301,-26.855,-25.879,-22.461,0.000
1606133176.620,285.156,-13.672,-10.254,808.594,0.000
1606133176.624,160.645,-14.648,-26.367,541.016,0.000
1606133176.628,-216.797,-43.457,-45.898,-497.559,0.000
1606133176.632,-349.609,-56.152,-53.711,-936.523,0.000
1606133176.636,-49.316,-26.367,-36.133,-164.062,0.000
1606133176.640,269.043,-3.906,-14.160,757.324,0.000
1606133176.643,197.754,-14.648,-17.578,638.184,0.000
1606133176.647,-177.734,-37.109,-33.203,-396.973,0.000
1606133176.651,-351.562,-44.434,-42.969,-942.383,0.000
1606133176.655,-92.773,-29.785,-30.762,-276.367,0.000
1606133176.659,244.629,-11.719,-17.090,690.918,0.000
1606133176.663,233.398,-15.625,-13.672,728.027,0.000
1606133176.667,-134.766,-41.016,-22.949,-263.672,0.000
1606133176.671,-356.445,-50.781,-39.551,-929.199,0.000
1606133176.675,-145.020,-35.156,-30.273,-408.691,0.000
1606133176.679,215.332,-9.766,-7.324,610.840,0.000
1606133176.682,261.719,-8.789,-2.441,797.852,0.000
1606133176.686,-90.332,-34.180,-26.855,-155.273,0.000
1606133176.690,-341.797,-51.758,-38.574,-913.086,0.000
1606133176.694,-179.688,-37.598,-27.344,-520.996,0.000
1606133176.698,188.965,-13.184,-20.020,515.625,0.000
1606133176.702,284.180,-8.301,-17.578,849.609,0.000
1606133176.706,-39.551,-29.297,-23.438,3.906,0.000
1606133176.710,-334.961,-48.828,-34.180,-859.375,0.000
1606133176.714,-239.258,-48.340,-30.762,-652.344,0.000
1606133176.718,141.602,-11.230,-15.625,394.043,0.000
1606133176.722,288.086,12.695,-7.812,868.164,0.000
1606133176.725,-4.883,-28.320,-14.160,110.840,0.000
1606133176.729,-336.914,-64.453,-37.109,-823.730,0.000
1606133176.733,-289.062,-57.129,-39.062,-739.746,0.000
1606133176.737,92.773,-26.367,-8.789,300.293,0.000
1606133176.741,288.574,-16.602,5.371,880.859,0.000
1606133176.745,44.922,-27.344,-11.719,255.859,0.000
1606133176.749,-295.898,-40.527,-40.527,-721.191,0.000
1606133176.753,-296.387,-43.945,-43.457,-799.805,0.000
1606133176.757,63.965,-23.926,-24.902,185.059,0.000
1606133176.761,291.992,-5.859,-20.020,866.211,0.000
1606133176.765,97.656,-18.555,-25.879,375.488,0.000
1606133176.768,-269.531,-53.711,-43.945,-643.555,0.000
1606133176.772,-327.148,-57.129,-47.852,-875.000,0.000
1606133176.776,23.926,-23.438,-23.926,53.223,0.000
1606133176.780,291.992,-7.812,-11.719,843.262,0.000
1606133176.784,136.230,-18.066,-26.855,481.445,0.000
1606133176.788,-229.492,-39.062,-41.992,-552.734,0.000
1606133176.792,-333.496,-51.758,-50.781,-909.668,0.000
1606133176.796,-25.391,-34.180,-32.227,-74.707,0.000
1606133176.800,275.391,-12.207,-16.113,800.293,0.000
1606133176.804,173.340,-27.832,-31.250,592.773,0.000
1606133176.807,-210.449,-59.082,-50.293,-446.777,0.000
1606133176.811,-355.469,-59.082,-53.711,-925.293,0.000
1606133176.815,-70.312,-32.227,-28.320,-205.078,0.000
1606133176.819,258.301,-12.207,-7.324,729.492,0.000
1606133176.823,213.379,-13.184,-16.602,683.594,0.000
1606133176.827,-162.598,-39.551,-37.598,-339.355,0.000
1606133176.831,-361.328,-51.758,-43.945,-941.895,0.000
1606133176.835,-126.465,-35.156,-29.297,-339.844,0.000
1606133176.839,223.633,-20.996,-17.090,648.926,0.000
1606133176.843,237.305,-25.391,-15.625,761.719,0.000
1606133176.847,-123.047,-40.039,-28.320,-212.891,0.000
1606133176.850,-359.375,-43.457,-41.504,-922.852,0.000
1606133176.854,-172.363,-29.785,-30.273,-460.449,0.000
1606133176.858,188.965,-10.254,-18.555,566.895,0.000
1606133176.862,254.883,-8.789,-18.555,816.406,0.000
1606133176.866,-84.961,-35.156,-34.180,-97.656,0.000
1606133176.870,-358.887,-52.734,-50.781,-905.273,0.000
1606133176.874,-209.473,-35.645,-30.273,-578.125,0.000
1606133176.878,169.434,-9.277,-6.348,468.750,0.000
1606133176.882,283.203,-7.324,-3.418,859.863,0.000
1606133176.886,-32.227,-25.879,-18.066,23.438,0.000
1606133176.890,-346.680,-44.922,-44.922,-887.695,0.000
1606133176.893,-250.977,-47.852,-37.109,-691.895,0.000
1606133176.897,132.812,6.836,-17.578,353.516,0.000
1606133176.901,292.969,40.527,-21.484,867.188,0.000
1606133176.905,18.555,-11.230,-27.832,169.922,0.000
1606133176.909,-310.059,-41.016,-36.621,-783.203,0.000
1606133176.913,-284.668,-43.945,-43.457,-780.273,0.000
1606133176.917,90.332,-23.926,-20.508,245.605,0.000
1606133176.921,305.664,-6.348,-6.836,886.230,0.000
1606133176.925,71.289,-23.438,-27.832,292.480,0.000
1606133176.929,-284.668,-44.922,-41.992,-711.914,0.000
1606133176.932,-298.828,-41.992,-35.156,-840.332,0.000
1606133176.936,62.500,-8.301,-16.113,134.766,0.000
1606133176.940,293.945,6.836,-13.672,861.328,0.000
1606133176.944,107.422,-23.438,-28.809,410.156,0.000
1606133176.948,-264.648,-50.293,-49.805,-615.723,0.000
1606133176.952,-339.844,-56.152,-42.969,-891.602,0.000
1606133176.956,-5.371,-34.180,-18.066,-1.465,0.000
1606133176.960,266.113,-14.160,-14.648,824.707,0.000
1606133176.964,136.230,-21.973,-17.090,532.227,0.000
1606133176.968,-239.746,-49.316,-36.133,-511.719,0.000
1606133176.972,-367.676,-60.059,-41.016,-929.199,0.000
1606133176.975,-59.570,-30.762,-15.137,-126.953,0.000
1606133176.979,258.301,-7.812,-8.301,786.133,0.000
1606133176.983,187.012,-17.578,-15.137,646.973,0.000
1606133176.987,-184.570,-41.992,-39.062,-392.578,0.000
1606133176.991,-355.957,-51.758,-50.781,-939.941,0.000
1606133176.995,-90.332,-38.574,-33.691,-269.531,0.000
1606133176.999,257.324,-6.348,-11.719,703.613,0.000
1606133177.003,236.328,-5.371,-12.207,718.750,0.000
1606133177.007,-140.625,-41.504,-44.434,-293.945,0.000
1606133177.011,-362.305,-59.570,-57.617,-950.195,0.000
1606133177.015,-141.113,-38.574,-32.227,-400.879,0.000
1606133177.018,221.680,-5.859,-11.719,618.164,0.000
1606133177.022,252.930,-10.742,-15.625,784.180,0.000
1606133177.026,-104.492,-37.598,-34.668,-170.410,0.000
1606133177.030,-355.957,-51.758,-44.922,-923.340,0.000
1606133177.034,-189.941,-49.805,-40.039,-524.414,0.000
1606133177.038,176.758,-23.926,-31.738,506.348,0.000
1606133177.042,278.320,-6.836,-29.297,829.590,0.000
1606133177.046,-37.109,-32.227,-31.250,-26.367,0.000
1606133177.050,-351.074,-56.641,-41.504,-885.742,0.000
1606133177.054,-247.070,-47.363,-22.461,-636.230,0.000
1606133177.057,151.367,-17.090,5.371,429.688,0.000
1606133177.061,291.016,-7.812,-8.789,875.000,0.000
1606133177.065,-7.812,-29.297,-34.180,96.191,0.000
1606133177.069,-328.125,-53.223,-52.246,-823.242,0.000
1606133177.073,-260.742,-50.293,-41.992,-716.309,0.000
1606133177.077,123.535,-15.625,-18.066,330.566,0.000
1606133177.081,298.828,4.883,-14.648,889.648,0.000
1606133177.085,45.410,-23.438,-28.809,243.652,0.000
1606133177.089,-292.480,-54.688,-43.945,-726.562,0.000
1606133177.093,-285.645,-55.176,-36.621,-779.297,0.000
1606133177.097,77.637,-36.133,-20.508,219.727,0.000
1606133177.100,303.223,-21.484,-12.207,891.602,0.000
1606133177.104,104.004,-33.691,-20.020,379.395,0.000
1606133177.108,-264.160,-51.758,-42.480,-641.602,0.000
1606133177.112,-308.594,-53.711,-44.922,-846.680,0.000
1606133177.116,48.340,-30.762,-23.926,91.309,0.000
1606133177.120,306.641,-4.395,-3.418,866.699,0.000
1606133177.124,157.227,-16.602,-14.648,492.188,0.000
1606133177.128,-219.238,-48.340,-45.898,-556.152,0.000
1606133177.132,-324.707,-52.734,-52.734,-908.203,0.000
1606133177.136,5.371,-22.461,-32.227,-57.617,0.000
1606133177.140,305.176,4.395,-12.207,805.176,0.000
1606133177.143,187.500,-14.160,-18.555,570.801,0.000
1606133177.147,-194.336,-40.039,-42.480,-467.285,0.000
1606133177.151,-337.402,-48.340,-47.363,-931.641,0.000
1606133177.155,-56.641,-29.297,-13.184,-184.082,0.000
1606133177.159,269.043,1.953,10.742,748.535,0.000
1606133177.163,210.449,-10.254,-13.184,669.922,0.000
1606133177.167,-174.316,-42.480,-39.062,-357.422,0.000
1606133177.171,-351.074,-43.945,-35.645,-928.223,0.000
1606133177.175,-107.422,-29.785,-18.555,-296.387,0.000
1606133177.179,224.609,0.488,-11.719,673.340,0.000
1606133177.182,226.562,-1.465,-23.926,747.070,0.000
1606133177.186,-134.277,-40.527,-32.227,-228.027,0.000
1606133177.190,-360.352,-53.711,-30.273,-920.898,0.000
1606133177.194,-163.574,-43.945,-29.785,-440.918,0.000
1606133177.198,202.148,-19.531,-14.648,583.008,0.000
1606133177.202,256.348,-14.160,-6.836,812.988,0.000
1606133177.206,-95.703,-44.434,-33.691,-112.305,0.000
1606133177.210,-362.305,-62.988,-54.199,-905.273,0.000
1606133177.214,-208.496,-47.852,-37.598,-560.547,0.000
1606133177.218,169.922,-24.414,-14.648,486.328,0.000
1606133177.222,276.855,-18.555,-17.578,847.656,0.000
1606133177.225,-29.785,-38.574,-32.227,19.043,0.000
1606133177.229,-327.637,-54.199,-44.922,-851.074,0.000
1606133177.233,-237.305,-46.875,-37.598,-662.598,0.000
1606133177.237,142.090,-25.391,-22.461,380.371,0.000
1606133177.241,297.852,-20.508,-27.344,862.793,0.000
1606133177.245,13.184,-42.969,-42.480,129.395,0.000
1606133177.249,-315.918,-54.688,-50.781,-806.641,0.000
1606133177.253,-271.484,-46.387,-46.387,-764.648,0.000
1606133177.257,102.539,-25.879,-29.785,251.465,0.000
1606133177.261,302.246,-8.301,-19.531,872.070,0.000
1606133177.265,67.383,-20.020,-34.668,293.457,0.000
1606133177.268,-283.691,-47.363,-52.734,-704.590,0.000
1606133177.272,-299.805,-54.199,-44.922,-828.613,0.000
1606133177.276,57.617,-21.973,-26.855,139.160,0.000
1606133177.280,292.480,-0.488,-14.160,859.863,0.000
1606133177.284,105.957,-14.160,-22.461,413.574,0.000
1606133177.288,-260.742,-38.086,-41.992,-621.094,0.000
1606133177.292,-338.379,-42.969,-40.039,-890.137,0.000
1606133177.296,7.324,-23.438,-20.508,18.066,0.000
1606133177.300,287.598,-8.789,-14.648,834.961,0.000
1606133177.304,142.090,-15.137,-20.996,519.531,0.000
1606133177.307,-227.051,-39.551,-39.551,-524.414,0.000
1606133177.311,-347.168,-54.688,-51.758,-921.875,0.000
1606133177.315,-40.527,-39.551,-41.016,-122.070,0.000
1606133177.319,273.926,-9.277,-26.855,769.043,0.000
1606133177.323,192.383,-11.230,-24.414,614.258,0.000
1606133177.327,-182.617,-37.598,-36.133,-422.363,0.000
1606133177.331,-346.680,-42.969,-36.621,-946.289,0.000
1606133177.335,-79.102,-25.391,-20.996,-253.906,0.000
1606133177.339,247.559,-2.441,-9.766,696.777,0.000
1606133177.343,217.285,-8.301,-17.578,693.848,0.000
1606133177.347,-154.297,-38.086,-47.363,-308.594,0.000
1606133177.350,-368.652,-55.664,-54.199,-949.219,0.000
1606133177.354,-138.184,-37.598,-31.250,-380.859,0.000
1606133177.358,223.145,-0.488,-2.441,631.836,0.000
1606133177.362,245.117,2.930,-7.324,773.926,0.000
1606133177.366,-116.699,-31.738,-41.504,-193.848,0.000
1606133177.370,-364.258,-50.293,-57.129,-935.059,0.000
1606133177.374,-183.105,-33.691,-40.039,-504.395,0.000
1606133177.378,184.570,-12.695,-18.066,534.180,0.000
1606133177.382,266.113,-9.766,-16.602,830.566,0.000
1606133177.386,-65.918,-30.273,-39.062,-55.176,0.000
1606133177.390,-353.516,-45.898,-55.176,-887.695,0.000
1606133177.393,-228.516,-33.691,-39.062,-604.492,0.000
1606133177.397,148.926,-15.625,-20.020,439.941,0.000
1606133177.401,273.926,-10.254,-9.277,860.352,0.000
1606133177.405,-24.902,-23.438,-23.926,74.707,0.000
1606133177.409,-337.402,-46.875,-48.828,-837.402,0.000
1606133177.413,-271.973,-47.852,-42.480,-714.844,0.000
1606133177.417,105.469,-14.648,-19.531,324.707,0.000
1606133177.421,287.598,1.953,-17.578,864.746,0.000
1606133177.425,23.926,-28.320,-38.574,195.312,0.000
1606133177.429,-317.871,-51.758,-49.805,-768.555,0.000
1606133177.432,-293.457,-44.922,-44.434,-797.852,0.000
1606133177.436,85.938,-13.184,-18.066,214.844,0.000
1606133177.440,308.105,3.906,0.000,881.836,0.000
1606133177.444,93.262,-12.207,-13.672,342.773,0.000
1606133177.448,-271.484,-40.527,-41.992,-673.340,0.000
1606133177.452,-311.523,-41.992,-42.480,-852.051,0.000
1606133177.456,42.480,-11.719,-17.090,103.027,0.000
1606133177.460,288.574,-1.465,-11.719,847.656,0.000
1606133177.464,118.652,-15.625,-18.066,446.289,0.000
1606133177.468,-247.070,-34.180,-36.133,-581.055,0.000
1606133177.472,-344.238,-42.969,-49.805,-914.062,0.000
1606133177.475,-24.902,-24.414,-34.180,-58.105,0.000
1606133177.479,272.949,-9.277,-12.207,791.504,0.000
1606133177.483,161.133,-23.926,-13.672,543.457,0.000
1606133177.487,-216.797,-46.387,-35.645,-497.559,0.000
1606133177.491,-350.586,-55.176,-49.316,-941.406,0.000
1606133177.495,-54.688,-32.227,-27.344,-170.410,0.000
1606133177.499,269.531,7.324,4.395,765.625,0.000
1606133177.503,208.984,-3.418,-0.488,672.363,0.000
1606133177.507,-167.480,-38.086,-29.785,-354.980,0.000
1606133177.511,-350.098,-48.828,-41.504,-927.246,0.000
1606133177.515,-102.051,-37.598,-29.297,-284.668,0.000
1606133177.518,238.281,-14.648,-10.254,692.383,0.000
1606133177.522,230.957,-14.648,-10.742,743.652,0.000
1606133177.526,-137.207,-36.621,-30.762,-251.953,0.000
1606133177.530,-362.793,-48.828,-38.086,-929.688,0.000
1606133177.534,-154.297,-35.645,-23.438,-420.898,0.000
1606133177.538,207.520,-14.160,-0.488,598.633,0.000
1606133177.542,251.953,-12.695,-9.766,805.176,0.000
1606133177.546,-94.727,-38.086,-50.293,-125.488,0.000
1606133177.550,-359.375,-56.152,-55.176,-911.621,0.000
1606133177.554,-204.590,-49.805,-41.016,-556.641,0.000
1606133177.557,171.875,-10.742,-18.555,494.141,0.000
1606133177.561,267.578,1.953,-10.254,844.238,0.000
1606133177.565,-43.457,-36.133,-22.949,0.977,0.000
1606133177.569,-332.520,-53.223,-32.227,-848.145,0.000
1606133177.573,-230.469,-40.527,-29.297,-640.137,0.000
1606133177.577,147.949,-0.977,-12.207,395.508,0.000
1606133177.581,295.410,11.719,-6.348,874.512,0.000
1606133177.585,10.742,-25.879,-30.273,127.930,0.000
1606133177.589,-311.035,-51.758,-42.969,-797.852,0.000
1606133177.593,-264.160,-52.734,-35.156,-741.211,0.000
1606133177.597,112.305,-21.973,-16.113,279.785,0.000
1606133177.600,306.152,-0.977,-4.883,881.836,0.000
1606133177.604,59.570,-25.879,-14.648,263.672,0.000
1606133177.608,-288.086,-50.293,-29.297,-720.215,0.000
1606133177.612,-292.969,-51.758,-32.715,-814.453,0.000
1606133177.616,67.871,-30.273,-16.602,165.039,0.000
1606133177.620,301.758,-15.137,-5.371,874.023,0.000
1606133177.624,104.980,-27.344,-23.438,396.973,0.000
1606133177.628,-264.160,-42.969,-44.922,-636.230,0.000
1606133177.632,-322.266,-40.039,-39.062,-875.977,0.000
1606133177.636,21.484,-18.555,-10.254,56.641,0.000
1606133177.640,280.273,2.441,-3.418,862.305,0.000
1606133177.643,129.883,-13.184,-18.066,512.207,0.000
1606133177.647,-252.930,-52.246,-34.668,-548.828,0.000
1606133177.651,-370.117,-61.523,-40.039,-934.082,0.000
1606133177.655,-48.828,-37.109,-17.090,-107.910,0.000
1606133177.659,258.789,-14.648,-4.883,782.227,0.000
1606133177.663,170.410,-25.879,-20.996,600.586,0.000
1606133177.667,-202.637,-49.805,-37.109,-436.035,0.000
1606133177.671,-353.027,-47.852,-41.504,-939.941,0.000
1606133177.675,-76.172,-28.809,-26.855,-226.562,0.000
1606133177.679,261.230,-11.230,-4.395,726.074,0.000
1606133177.682,234.375,-14.160,0.000,705.566,0.000
1606133177.686,-145.508,-42.480,-34.180,-322.754,0.000
1606133177.690,-357.422,-61.523,-49.316,-953.613,0.000
1606133177.694,-124.512,-47.363,-33.691,-362.305,0.000
1606133177.698,237.305,5.371,-25.391,638.184,0.000
1606133177.702,261.719,12.695,-22.461,761.719,0.000
1606133177.706,-96.191,-34.668,-29.785,-216.309,0.000
1606133177.710,-337.402,-46.875,-31.738,-938.477,0.000
1606133177.714,-154.297,-39.551,-30.762,-485.352,0.000
1606133177.718,203.613,-17.578,-23.926,548.340,0.000
1606133177.722,276.367,-7.324,-7.812,825.195,0.000
1606133177.725,-58.594,-33.203,-20.996,-72.266,0.000
1606133177.729,-350.586,-53.223,-46.387,-900.879,0.000
1606133177.733,-213.379,-45.898,-37.598,-594.238,0.000
1606133177.737,161.133,-28.809,-20.020,464.355,0.000
1606133177.741,276.855,-19.043,-18.066,864.258,0.000
1606133177.745,-25.879,-39.062,-38.086,42.480,0.000
1606133177.749,-334.961,-57.617,-52.246,-859.375,0.000
1606133177.753,-252.930,-51.270,-35.645,-705.566,0.000
1606133177.757,116.699,-36.621,-14.648,338.379,0.000
1606133177.761,272.949,-21.973,-11.719,864.258,0.000
1606133177.765,13.672,-30.273,-22.949,171.387,0.000
1606133177.768,-325.195,-47.852,-41.016,-789.551,0.000
1606133177.772,-312.988,-51.758,-41.992,-801.270,0.000
1606133177.776,64.453,-26.855,-20.508,218.750,0.000
1606133177.780,285.156,-3.906,-9.766,882.324,0.000
1606133177.784,63.965,-29.297,-15.625,311.035,0.000
1606133177.788,-294.434,-56.641,-34.668,-702.637,0.000
1606133177.792,-328.125,-55.664,-45.410,-856.445,0.000
1606133177.796,30.273,-30.273,-23.926,104.980,0.000
1606133177.800,285.156,-14.160,-4.883,863.770,0.000
1606133177.804,109.863,-30.762,-14.648,444.824,0.000
1606133177.807,-263.184,-56.152,-40.527,-595.215,0.000
1606133177.811,-346.680,-51.758,-40.527,-904.785,0.000
1606133177.815,-7.324,-23.438,-14.160,-24.902,0.000
1606133177.819,292.969,-5.859,-0.977,822.266,0.000
1606133177.823,169.434,-14.160,-12.695,549.805,0.000
1606133177.827,-215.820,-42.480,-35.156,-494.141,0.000
1606133177.831,-346.680,-53.223,-32.715,-927.734,0.000
1606133177.835,-58.105,-37.598,-16.113,-160.156,0.000
1606133177.839,259.277,-3.906,-10.742,757.324,0.000
1606133177.843,196.289,-3.418,-10.254,655.273,0.000
1606133177.847,-179.199,-38.574,-27.344,-378.418,0.000
1606133177.850,-359.375,-44.922,-41.016,-947.266,0.000
1606133177.854,-106.445,-28.320,-28.809,-288.086,0.000
1606133177.858,240.723,-5.371,-8.301,688.477,0.000
1606133177.862,229.004,-3.906,-12.207,727.539,0.000
1606133177.866,-145.996,-32.227,-32.227,-275.391,0.000
1606133177.870,-356.934,-42.969,-40.039,-948.242,0.000
1606133177.874,-147.461,-25.391,-33.203,-419.434,0.000
1606133177.878,202.148,-8.301,-12.207,592.773,0.000
1606133177.882,249.023,-10.254,-4.395,770.996,0.000
1606133177.886,-106.445,-32.715,-35.645,-179.688,0.000
1606133177.890,-364.746,-43.457,-51.758,-947.754,0.000
1606133177.893,-192.871,-29.297,-31.250,-559.082,0.000
1606133177.897,183.105,-10.742,-12.695,488.281,0.000
1606133177.901,274.414,-7.812,-15.137,819.824,0.000
1606133177.905,-52.734,-29.785,-30.762,-36.621,0.000
1606133177.909,-345.215,-47.852,-46.387,-885.254,0.000
1606133177.913,-232.422,-39.062,-44.922,-650.391,0.000
1606133177.917,149.414,-12.207,-20.020,407.715,0.000
1606133177.921,297.363,3.906,-7.324,882.812,0.000
1606133177.925,6.348,-21.484,-21.973,124.512,0.000
1606133177.929,-321.289,-45.898,-48.828,-819.336,0.000
1606133177.932,-267.578,-44.434,-36.621,-740.723,0.000
1606133177.936,109.863,-14.648,-13.184,307.129,0.000
1606133177.940,299.316,2.930,-16.113,887.207,0.000
1606133177.944,52.734,-32.715,-32.715,250.488,0.000
1606133177.948,-297.363,-60.059,-55.664,-735.840,0.000
1606133177.952,-298.828,-53.711,-50.781,-805.176,0.000
1606133177.956,74.707,-20.508,-18.066,199.707,0.000
1606133177.960,306.641,-0.977,-9.277,885.254,0.000
1606133177.964,104.492,-16.602,-19.531,391.113,0.000
1606133177.968,-261.230,-41.504,-33.691,-632.812,0.000
1606133177.972,-321.289,-52.246,-46.875,-880.371,0.000
1606133177.975,23.926,-28.320,-30.273,46.875,0.000
1606133177.979,292.480,3.906,-12.207,845.215,0.000
1606133177.983,137.695,-17.090,-28.320,485.352,0.000
1606133177.987,-238.770,-49.316,-42.969,-559.082,0.000
1606133177.991,-340.820,-45.898,-37.598,-922.363,0.000
1606133177.995,-23.438,-26.855,-23.438,-86.914,0.000
1606133177.999,287.109,-5.371,-9.766,808.594,0.000
1606133178.003,194.336,-3.906,-17.090,612.305,0.000
1606133178.007,-198.242,-31.250,-39.551,-449.219,0.000
1606133178.011,-360.840,-39.062,-45.898,-950.684,0.000
1606133178.015,-71.289,-17.578,-33.691,-216.797,0.000
1606133178.018,262.695,0.488,-24.902,733.887,0.000
1606133178.022,207.031,-5.859,-30.762,671.387,0.000
1606133178.026,-175.293,-41.016,-50.781,-362.793,0.000
1606133178.030,-375.977,-56.641,-50.781,-966.797,0.000
1606133178.034,-137.207,-39.062,-31.250,-356.445,0.000
1606133178.038,217.773,-14.648,-23.438,645.020,0.000
1606133178.042,235.840,-10.254,-24.902,754.883,0.000
1606133178.046,-123.047,-38.086,-38.574,-219.238,0.000
1606133178.050,-359.375,-58.105,-44.922,-937.988,0.000
1606133178.054,-154.297,-41.016,-35.156,-472.168,0.000
1606133178.057,215.820,-8.789,-10.254,573.242,0.000
1606133178.061,276.367,-7.812,-5.371,832.520,0.000
1606133178.065,-73.242,-40.039,-36.133,-91.309,0.000
1606133178.069,-357.910,-60.547,-53.223,-915.039,0.000
1606133178.073,-212.891,-51.270,-39.062,-589.844,0.000
1606133178.077,170.898,-17.090,-15.137,470.215,0.000
1606133178.081,278.809,-17.578,-15.625,858.398,0.000
1606133178.085,-37.598,-48.340,-34.668,36.621,0.000
1606133178.089,-346.680,-62.988,-50.781,-863.281,0.000
1606133178.093,-258.789,-51.758,-42.969,-694.824,0.000
1606133178.097,135.254,-22.949,-17.578,360.840,0.000
1606133178.100,299.805,-14.160,-8.789,870.117,0.000
1606133178.104,24.414,-31.738,-25.391,166.016,0.000
1606133178.108,-314.941,-52.734,-56.152,-790.527,0.000
1606133178.112,-291.016,-53.711,-54.199,-787.598,0.000
1606133178.116,89.355,-19.531,-33.691,231.445,0.000
1606133178.120,296.387,19.043,-25.391,864.746,0.000
1606133178.124,75.684,-7.324,-34.180,287.598,0.000
1606133178.128,-281.738,-54.688,-57.129,-715.332,0.000
1606133178.132,-318.848,-58.105,-58.105,-857.422,0.000
1606133178.136,49.316,-27.344,-35.156,116.211,0.000
1606133178.140,303.711,-3.906,-22.461,858.887,0.000
1606133178.143,124.512,-14.160,-31.250,417.480,0.000
1606133178.147,-249.023,-36.621,-46.875,-613.770,0.000
1606133178.151,-330.566,-46.387,-42.969,-897.461,0.000
1606133178.155,6.836,-24.414,-28.320,0.000,0.000
1606133178.159,291.504,3.906,-21.973,833.496,0.000
1606133178.163,159.180,-9.277,-22.461,542.480,0.000
1606133178.167,-209.473,-40.527,-30.273,-502.441,0.000
1606133178.171,-333.496,-48.340,-41.016,-922.852,0.000
1606133178.175,-48.340,-30.762,-33.691,-137.207,0.000
1606133178.179,263.184,-7.812,-22.461,768.555,0.000
1606133178.182,192.871,-16.602,-23.438,630.371,0.000
1606133178.186,-187.012,-45.410,-36.621,-411.621,0.000
1606133178.190,-359.863,-55.664,-41.016,-941.895,0.000
1606133178.194,-94.238,-37.109,-26.367,-265.625,0.000
1606133178.198,253.418,-8.789,-7.324,703.613,0.000
1606133178.202,237.305,-7.812,-0.488,735.840,0.000
1606133178.206,-142.578,-35.645,-26.855,-286.133,0.000
1606133178.210,-363.770,-52.734,-46.875,-954.102,0.000
1606133178.214,-145.020,-45.410,-31.738,-407.227,0.000
1606133178.218,214.355,-11.230,-20.996,612.793,0.000
1606133178.222,251.953,3.418,-16.602,789.062,0.000
1606133178.225,-101.074,-40.527,-25.391,-167.969,0.000
1606133178.229,-357.422,-62.012,-42.969,-929.688,0.000
1606133178.233,-182.617,-47.852,-27.832,-521.484,0.000
1606133178.237,192.871,-25.391,-5.371,526.367,0.000
1606133178.241,279.785,-12.695,-7.812,843.262,0.000
1606133178.245,-53.223,-34.668,-32.227,-39.062,0.000
1606133178.249,-344.727,-49.316,-49.805,-892.090,0.000
1606133178.253,-233.887,-42.480,-41.504,-630.859,0.000
1606133178.257,138.672,-15.137,-26.855,416.504,0.000
1606133178.261,281.250,2.441,-14.648,858.887,0.000
1606133178.265,-8.789,-25.391,-38.086,93.262,0.000
1606133178.268,-329.590,-51.270,-61.523,-828.125,0.000
1606133178.272,-261.719,-51.758,-44.922,-726.562,0.000
1606133178.276,113.770,-29.297,-22.461,314.941,0.000
1606133178.280,288.574,-15.137,-17.090,882.812,0.000
1606133178.284,38.574,-28.809,-29.297,239.258,0.000
1606133178.288,-301.270,-49.805,-47.852,-737.305,0.000
1606133178.292,-295.410,-47.363,-44.922,-798.340,0.000
1606133178.296,81.055,-16.602,-24.414,213.379,0.000
1606133178.300,307.129,9.766,-24.902,888.672,0.000
1606133178.304,91.309,-16.602,-40.039,345.215,0.000
1606133178.307,-271.484,-53.711,-46.875,-666.992,0.000
1606133178.311,-313.477,-49.316,-41.992,-860.352,0.000
1606133178.315,35.156,-27.344,-25.391,74.707,0.000
1606133178.319,293.457,-14.160,-15.625,852.539,0.000
1606133178.323,138.184,-24.902,-27.344,484.375,0.000
1606133178.327,-235.352,-45.410,-39.551,-555.176,0.000
1606133178.331,-340.820,-48.828,-34.180,-907.227,0.000
1606133178.335,-20.508,-34.180,-23.926,-66.895,0.000
1606133178.339,276.855,-8.301,-17.090,803.711,0.000
1606133178.343,172.852,-3.418,-13.672,591.797,0.000
1606133178.347,-205.078,-34.668,-24.902,-459.473,0.000
1606133178.350,-351.074,-43.945,-40.039,-937.500,0.000
1606133178.354,-61.523,-22.461,-29.297,-194.824,0.000
1606133178.358,266.602,5.371,-12.207,742.676,0.000
1606133178.362,207.520,-1.465,-20.996,675.293,0.000
1606133178.366,-172.852,-36.621,-34.668,-359.863,0.000
1606133178.370,-358.398,-47.852,-23.926,-950.195,0.000
1606133178.374,-116.699,-34.180,-22.461,-318.359,0.000
1606133178.378,229.980,-13.672,-26.855,666.016,0.000
1606133178.382,239.746,-15.137,-21.973,745.605,0.000
1606133178.386,-117.188,-39.551,-28.320,-232.422,0.000
1606133178.390,-348.145,-50.781,-43.945,-926.270,0.000
1606133178.393,-151.855,-45.410,-36.133,-446.777,0.000
1606133178.397,220.215,-2.441,-9.277,580.566,0.000
1606133178.401,276.855,28.320,-11.230,815.430,0.000
1606133178.405,-69.824,-18.555,-33.203,-96.680,0.000
1606133178.409,-336.426,-54.688,-42.969,-895.508,0.000
1606133178.413,-186.523,-41.016,-32.715,-563.965,0.000
1606133178.417,189.453,-11.230,-16.602,484.863,0.000
1606133178.421,295.898,-8.789,-7.812,858.398,0.000
1606133178.425,-19.043,-33.203,-17.090,26.367,0.000
1606133178.429,-313.965,-52.734,-35.645,-848.145,0.000
1606133178.432,-225.586,-50.781,-36.133,-662.109,0.000
1606133178.436,134.277,-11.230,-14.648,367.188,0.000
1606133178.440,286.133,14.648,-13.672,862.305,0.000
1606133178.444,12.207,-18.555,-25.879,148.438,0.000
1606133178.448,-321.289,-52.246,-36.133,-805.176,0.000
1606133178.452,-280.273,-51.270,-29.297,-776.855,0.000
1606133178.456,98.145,-25.391,-5.371,252.930,0.000
1606133178.460,294.434,-13.672,-1.465,874.023,0.000
1606133178.464,67.871,-30.762,-18.066,287.598,0.000
1606133178.468,-282.227,-57.129,-43.457,-710.449,0.000
1606133178.472,-306.641,-65.918,-46.875,-832.520,0.000
1606133178.475,58.594,-39.551,-27.832,151.367,0.000
1606133178.479,307.129,-12.695,-14.160,874.023,0.000
1606133178.483,117.676,-29.785,-20.996,410.156,0.000
1606133178.487,-258.789,-56.641,-38.086,-619.141,0.000
1606133178.491,-335.938,-57.617,-43.945,-891.113,0.000
1606133178.495,6.836,-35.156,-29.297,2.930,0.000
1606133178.499,286.621,1.953,-11.719,819.336,0.000
1606133178.503,139.160,-2.441,-19.531,519.043,0.000
1606133178.507,-231.445,-54.199,-43.945,-521.484,0.000
1606133178.511,-354.492,-67.871,-46.875,-925.293,0.000
1606133178.515,-61.523,-42.969,-25.391,-114.746,0.000
1606133178.518,254.395,-18.555,-14.160,785.156,0.000
1606133178.522,177.734,-23.926,-15.625,621.094,0.000
1606133178.526,-198.730,-43.457,-29.297,-417.480,0.000
1606133178.530,-368.164,-52.734,-36.621,-949.707,0.000
1606133178.534,-104.004,-42.969,-23.926,-269.531,0.000
1606133178.538,238.770,-10.254,-5.859,701.660,0.000
1606133178.542,218.262,-10.742,-11.230,701.660,0.000
1606133178.546,-156.250,-46.387,-38.574,-313.965,0.000
1606133178.550,-368.652,-51.270,-47.852,-945.801,0.000
1606133178.554,-135.254,-28.809,-32.715,-375.000,0.000
1606133178.557,229.492,-6.836,-15.625,637.207,0.000
1606133178.561,258.301,-6.348,-21.484,786.133,0.000
1606133178.565,-95.215,-41.992,-41.016,-180.664,0.000
1606133178.569,-344.238,-56.641,-42.969,-923.340,0.000
1606133178.573,-161.133,-32.227,-29.297,-497.070,0.000
1606133178.577,200.684,-4.883,-23.438,532.715,0.000
1606133178.581,270.508,5.859,-20.996,823.242,0.000
1606133178.585,-51.758,-29.297,-31.250,-53.711,0.000
1606133178.589,-342.285,-58.594,-55.176,-895.020,0.000
1606133178.593,-219.727,-41.016,-51.758,-620.605,0.000
1606133178.597,162.598,-13.184,-23.438,436.035,0.000
1606133178.600,283.203,-14.160,-25.391,848.633,0.000
1606133178.604,-14.648,-34.180,-37.109,62.012,0.000
1606133178.608,-326.660,-51.758,-47.363,-841.309,0.000
1606133178.612,-265.625,-49.805,-50.293,-735.352,0.000
1606133178.616,112.305,-19.043,-30.273,298.828,0.000
1606133178.620,283.203,-5.859,-15.137,851.562,0.000
1606133178.624,22.949,-22.461,-28.809,193.848,0.000
1606133178.628,-323.730,-46.875,-47.852,-770.508,0.000
1606133178.632,-314.453,-49.805,-48.828,-811.035,0.000
1606133178.636,65.430,-24.414,-33.691,195.312,0.000
1606133178.640,291.992,1.953,-25.391,865.234,0.000
1606133178.643,85.449,-10.742,-37.598,337.891,0.000
1606133178.647,-275.391,-38.574,-44.434,-668.457,0.000
1606133178.651,-322.266,-45.410,-44.434,-861.816,0.000
1606133178.655,33.203,-28.809,-33.691,80.078,0.000
1606133178.659,291.016,-14.648,-20.508,846.191,0.000
1606133178.663,129.395,-22.949,-29.785,454.590,0.000
1606133178.667,-237.793,-49.316,-51.758,-572.754,0.000
1606133178.671,-330.078,-53.711,-47.852,-891.113,0.000
1606133178.675,-0.977,-24.414,-27.832,-33.203,0.000
1606133178.679,287.598,-1.465,-17.090,810.547,0.000
1606133178.682,172.363,-10.254,-23.438,562.500,0.000
1606133178.686,-199.219,-41.504,-43.457,-474.609,0.000
1606133178.690,-341.797,-55.176,-47.852,-928.711,0.000
1606133178.694,-50.293,-38.574,-28.320,-172.852,0.000
1606133178.698,273.438,-13.184,-18.555,759.766,0.000
1606133178.702,210.938,-11.719,-26.367,671.387,0.000
1606133178.706,-168.945,-40.039,-43.945,-363.770,0.000
1606133178.710,-356.445,-56.641,-41.504,-939.941,0.000
1606133178.714,-108.887,-35.645,-21.973,-307.129,0.000
1606133178.718,232.910,-3.418,-6.836,673.828,0.000
1606133178.722,230.469,-3.418,-4.395,743.164,0.000
1606133178.725,-135.742,-42.969,-30.762,-245.117,0.000
1606133178.729,-365.234,-58.594,-53.223,-936.035,0.000
1606133178.733,-168.457,-41.016,-41.992,-445.312,0.000
1606133178.737,193.359,-18.555,-21.484,566.406,0.000
1606133178.741,249.023,-13.672,-19.531,784.668,0.000
1606133178.745,-95.215,-37.598,-30.762,-143.066,0.000
1606133178.749,-346.680,-51.758,-43.945,-908.203,0.000
1606133178.753,-192.871,-42.480,-37.598,-548.340,0.000
1606133178.757,165.527,-24.902,-20.996,462.891,0.000
1606133178.761,267.578,-17.090,-23.438,827.148,0.000
1606133178.765,-41.992,-28.320,-34.180,2.441,0.000
1606133178.768,-338.867,-48.340,-49.316,-868.164,0.000
1606133178.772,-249.023,-54.199,-45.410,-677.246,0.000
1606133178.776,129.395,-26.367,-24.414,372.070,0.000
1606133178.780,284.668,10.254,-12.695,869.141,0.000
1606133178.784,-0.488,-16.602,-32.715,138.672,0.000
1606133178.788,-326.660,-57.617,-53.711,-803.711,0.000
1606133178.792,-278.320,-52.734,-43.945,-758.301,0.000
1606133178.796,96.191,-25.391,-34.180,263.184,0.000
1606133178.800,288.574,-15.137,-33.203,863.770,0.000
1606133178.804,55.176,-31.250,-37.598,262.207,0.000
1606133178.807,-286.133,-51.270,-44.922,-718.262,0.000
1606133178.811,-294.922,-52.246,-40.039,-816.406,0.000
1606133178.815,65.430,-24.902,-21.973,159.668,0.000
1606133178.819,299.316,9.277,-16.602,864.746,0.000
1606133178.823,103.027,-11.230,-23.438,397.461,0.000
1606133178.827,-266.602,-56.641,-41.016,-622.070,0.000
1606133178.831,-327.637,-55.664,-44.434,-868.652,0.000
1606133178.835,10.254,-33.203,-22.461,36.621,0.000
1606133178.839,278.809,-17.090,-12.695,833.008,0.000
1606133178.843,143.066,-23.926,-19.043,515.137,0.000
1606133178.847,-235.352,-53.711,-33.691,-522.949,0.000
1606133178.850,-351.562,-67.383,-38.574,-909.180,0.000
1606133178.854,-42.969,-50.293,-23.926,-91.309,0.000
1606133178.858,257.812,-10.254,-8.301,794.434,0.000
1606133178.862,170.410,-5.371,-17.090,616.211,0.000
1606133178.866,-206.543,-50.293,-41.016,-429.199,0.000
1606133178.870,-366.211,-58.105,-53.223,-939.941,0.000
1606133178.874,-92.285,-31.738,-39.062,-233.398,0.000
1606133178.878,242.676,-11.719,-19.043,717.773,0.000
1606133178.882,209.473,-17.090,-20.508,696.289,0.000
1606133178.886,-159.180,-38.574,-33.203,-311.035,0.000
1606133178.890,-360.352,-48.828,-39.062,-925.781,0.000
1606133178.893,-130.859,-33.203,-26.367,-344.727,0.000
1606133178.897,226.074,-9.277,-5.371,644.531,0.000
1606133178.901,254.395,-7.812,0.000,777.344,0.000
1606133178.905,-101.074,-33.691,-23.926,-179.688,0.000
1606133178.909,-352.051,-53.711,-42.969,-916.992,0.000
1606133178.913,-166.504,-44.434,-28.320,-479.492,0.000
1606133178.917,203.125,-11.719,-13.184,551.270,0.000
1606133178.921,275.391,0.488,-14.160,823.730,0.000
1606133178.925,-53.223,-32.715,-26.367,-62.988,0.000
1606133178.929,-331.543,-56.152,-47.363,-886.719,0.000
1606133178.932,-208.008,-44.922,-44.922,-603.027,0.000
1606133178.936,165.527,-19.043,-20.508,436.523,0.000
1606133178.940,293.945,-4.883,-18.066,841.309,0.000
1606133178.944,-13.184,-24.902,-42.480,46.875,0.000
1606133178.948,-324.219,-45.410,-48.828,-844.238,0.000
1606133178.952,-248.535,-38.574,-36.621,-704.102,0.000
1606133178.956,125.977,-14.160,-21.973,326.172,0.000
1606133178.960,294.922,14.160,-20.508,856.445,0.000
1606133178.964,24.414,-15.625,-36.133,172.852,0.000
1606133178.968,-312.012,-56.641,-48.828,-784.668,0.000
1606133178.972,-287.109,-54.688,-48.828,-800.781,0.000
1606133178.975,92.773,-34.668,-10.742,213.379,0.000
1606133178.979,304.688,-15.625,1.465,867.676,0.000
1606133178.983,73.242,-20.020,-34.180,313.477,0.000
1606133178.987,-284.180,-41.992,-53.711,-689.941,0.000
1606133178.991,-316.895,-45.410,-48.828,-852.051,0.000
1606133178.995,35.645,-21.973,-29.297,101.074,0.000
1606133178.999,287.109,11.230,-16.113,851.074,0.000
1606133179.003,117.188,-2.441,-22.949,447.754,0.000
1606133179.007,-250.000,-43.457,-38.574,-582.031,0.000
1606133179.011,-341.309,-50.781,-37.109,-901.855,0.000
1606133179.015,-11.230,-27.832,-14.160,-26.855,0.000
1606133179.018,280.762,-14.160,-6.348,816.406,0.000
1606133179.022,154.785,-28.809,-19.043,543.945,0.000
1606133179.026,-223.633,-49.316,-40.039,-499.023,0.000
1606133179.030,-357.422,-53.711,-43.457,-937.500,0.000
1606133179.034,-58.594,-31.250,-22.949,-166.992,0.000
1606133179.038,266.113,-9.277,-8.789,752.441,0.000
1606133179.042,200.195,-21.484,-16.113,654.297,0.000
1606133179.046,-179.199,-44.434,-36.133,-374.512,0.000
1606133179.050,-360.352,-50.293,-50.293,-951.172,0.000
1606133179.054,-104.004,-41.992,-38.574,-301.758,0.000
1606133179.057,239.258,-9.277,-24.902,677.246,0.000
1606133179.061,229.980,9.277,-24.902,723.145,0.000
1606133179.065,-137.695,-28.320,-36.133,-269.531,0.000
1606133179.069,-354.980,-49.805,-52.246,-943.359,0.000
1606133179.073,-142.578,-35.645,-43.945,-437.012,0.000
1606133179.077,219.238,-19.531,-22.949,580.566,0.000
1606133179.081,270.508,-20.020,-18.066,788.574,0.000
1606133179.085,-77.637,-38.086,-35.156,-144.043,0.000
1606133179.089,-342.773,-51.270,-43.945,-913.574,0.000
1606133179.093,-192.871,-47.363,-32.715,-539.551,0.000
1606133179.097,176.270,-29.297,-17.090,496.582,0.000
1606133179.100,270.020,-23.438,-20.508,830.566,0.000
1606133179.104,-45.898,-38.574,-35.645,-13.184,0.000
1606133179.108,-334.473,-52.246,-29.297,-862.305,0.000
1606133179.112,-240.234,-49.316,-29.297,-638.672,0.000
1606133179.116,134.277,-33.203,-32.715,401.367,0.000
1606133179.120,283.203,-24.414,-16.113,865.723,0.000
1606133179.124,-3.906,-36.621,-28.809,129.883,0.000
1606133179.128,-325.684,-54.688,-52.246,-792.969,0.000
1606133179.132,-278.320,-53.711,-44.434,-725.586,0.000
1606133179.136,103.027,-17.090,-27.344,305.664,0.000
1606133179.140,309.570,17.578,-22.461,902.832,0.000
1606133179.143,71.777,-10.254,-21.973,284.180,0.000
1606133179.147,-296.875,-57.129,-38.574,-718.750,0.000
1606133179.151,-315.918,-58.594,-51.270,-812.500,0.000
1606133179.155,65.918,-31.250,-30.762,181.641,0.000
1606133179.159,307.617,-9.277,-19.531,879.883,0.000
1606133179.163,109.863,-26.855,-34.180,394.043,0.000
1606133179.167,-251.953,-55.176,-43.457,-614.746,0.000
1606133179.171,-306.152,-55.176,-36.621,-838.867,0.000
1606133179.175,31.250,-41.504,-24.902,65.918,0.000
1606133179.179,298.340,-17.090,-18.555,846.680,0.000
1606133179.182,160.645,-17.578,-28.320,509.277,0.000
1606133179.186,-213.379,-46.875,-44.922,-528.809,0.000
1606133179.190,-323.242,-51.758,-47.363,-901.367,0.000
1606133179.194,-4.395,-29.785,-24.902,-62.988,0.000
1606133179.198,294.922,-12.695,-11.719,810.059,0.000
1606133179.202,205.566,-18.066,-20.020,619.141,0.000
1606133179.206,-166.504,-45.410,-42.480,-416.504,0.000
1606133179.210,-324.219,-62.012,-47.363,-915.527,0.000
1606133179.214,-44.922,-43.457,-33.203,-194.824,0.000
1606133179.218,283.203,-14.648,-23.438,749.512,0.000
1606133179.222,239.746,-16.113,-21.973,708.984,0.000
1606133179.225,-131.836,-46.387,-38.086,-303.223,0.000
1606133179.229,-333.008,-58.594,-53.223,-919.922,0.000
1606133179.233,-94.238,-40.527,-42.480,-329.102,0.000
1606133179.237,257.324,-8.789,-21.484,663.574,0.000
1606133179.241,265.137,9.277,-19.043,775.391,0.000
1606133179.245,-93.262,-35.156,-27.832,-187.500,0.000
1606133179.249,-329.590,-62.988,-46.875,-899.902,0.000
1606133179.253,-138.184,-44.434,-35.645,-440.918,0.000
1606133179.257,228.516,-23.926,-20.020,587.402,0.000
1606133179.261,296.387,-18.555,-26.855,842.773,0.000
1606133179.265,-40.527,-40.039,-41.992,-60.547,0.000
1606133179.268,-317.871,-58.105,-61.035,-870.117,0.000
1606133179.272,-189.453,-55.664,-50.293,-570.801,0.000
1606133179.276,173.340,-18.555,-23.926,463.379,0.000
1606133179.280,288.574,6.836,-17.578,859.863,0.000
1606133179.284,-20.996,-31.738,-31.250,52.734,0.000
1606133179.288,-333.984,-63.965,-47.852,-845.215,0.000
1606133179.292,-253.906,-59.082,-44.434,-699.219,0.000
1606133179.296,124.512,-24.414,-15.137,342.285,0.000
1606133179.300,291.504,-16.602,-13.184,862.793,0.000
1606133179.304,23.438,-48.340,-38.086,169.434,0.000
1606133179.307,-315.918,-64.453,-53.711,-783.691,0.000
1606133179.311,-290.527,-60.547,-54.688,-783.691,0.000
1606133179.315,84.473,-40.527,-26.855,225.098,0.000
1606133179.319,291.016,-22.949,-10.742,858.887,0.000
1606133179.323,69.824,-34.668,-31.250,305.176,0.000
1606133179.327,-277.832,-53.711,-49.316,-687.012,0.000
1606133179.331,-306.641,-50.781,-46.875,-838.379,0.000
1606133179.335,48.340,-36.133,-24.902,118.164,0.000
1606133179.339,297.363,24.902,-12.207,860.840,0.000
1606133179.343,123.047,38.086,-26.367,442.383,0.000
1606133179.347,-241.699,-42.480,-41.992,-583.008,0.000
1606133179.350,-331.055,-66.406,-41.504,-887.207,0.000
1606133179.354,-6.836,-37.598,-24.414,-17.578,0.000
1606133179.358,288.574,-16.113,-9.277,831.055,0.000
1606133179.362,174.805,-26.367,-17.578,570.801,0.000
1606133179.366,-216.309,-51.758,-41.504,-490.234,0.000
1606133179.370,-355.469,-55.176,-39.551,-926.758,0.000
1606133179.374,-59.082,-39.062,-24.902,-145.020,0.000
1606133179.378,250.000,-14.160,-13.672,752.930,0.000
1606133179.382,185.059,-13.184,-17.090,627.930,0.000
1606133179.386,-188.477,-47.363,-37.109,-397.949,0.000
1606133179.390,-357.422,-53.711,-36.133,-936.523,0.000
1606133179.393,-94.238,-37.598,-19.043,-275.391,0.000
1606133179.397,236.816,-12.695,-10.254,671.387,0.000
1606133179.401,215.332,-14.648,-20.996,700.684,0.000
1606133179.405,-146.484,-51.270,-36.133,-282.715,0.000
1606133179.409,-363.770,-65.430,-41.992,-946.777,0.000
1606133179.413,-148.438,-46.875,-26.855,-413.086,0.000
1606133179.417,216.309,-5.371,-8.301,610.840,0.000
1606133179.421,261.719,2.441,-10.254,792.969,0.000
1606133179.425,-83.496,-34.180,-32.227,-150.879,0.000
1606133179.429,-342.285,-51.758,-44.434,-915.527,0.000
1606133179.432,-179.688,-46.875,-33.203,-528.809,0.000
1606133179.436,189.941,-11.230,-15.137,504.883,0.000
1606133179.440,277.832,-3.906,-14.648,820.801,0.000
1606133179.444,-49.805,-39.062,-36.621,-36.621,0.000
1606133179.448,-344.727,-56.641,-52.246,-884.766,0.000
1606133179.452,-235.352,-53.711,-41.016,-643.555,0.000
1606133179.456,147.461,-20.508,-22.949,396.973,0.000
1606133179.460,281.738,8.789,-18.555,850.098,0.000
1606133179.464,-11.230,-17.090,-29.297,107.910,0.000
1606133179.468,-322.266,-48.340,-41.992,-809.570,0.000
1606133179.472,-268.555,-45.898,-39.551,-729.980,0.000
1606133179.475,99.121,-21.484,-22.949,291.992,0.000
1606133179.479,280.762,7.812,-12.207,866.699,0.000
1606133179.483,36.133,-9.766,-22.949,241.699,0.000
1606133179.487,-313.477,-49.316,-40.527,-738.770,0.000
1606133179.491,-322.266,-54.688,-41.016,-815.430,0.000
1606133179.495,40.527,-28.809,-23.926,160.645,0.000
1606133179.499,265.137,-6.348,-12.695,844.727,0.000
1606133179.503,66.406,-20.996,-16.602,354.004,0.000
1606133179.507,-293.457,-52.734,-33.691,-653.809,0.000
1606133179.511,-342.773,-55.176,-44.434,-864.746,0.000
1606133179.515,11.230,-30.273,-28.320,57.129,0.000
1606133179.518,276.855,-2.930,-17.090,832.520,0.000
1606133179.522,125.000,-5.371,-28.320,471.680,0.000
1606133179.526,-241.211,-45.410,-39.551,-560.059,0.000
1606133179.530,-339.844,-57.129,-39.551,-913.086,0.000
1606133179.534,-13.672,-27.344,-18.555,-65.430,0.000
1606133179.538,289.551,-5.371,-8.789,801.758,0.000
1606133179.542,188.477,-16.113,-14.648,586.914,0.000
1606133179.546,-170.410,-40.039,-23.438,-441.406,0.000
1606133179.550,-325.684,-41.504,-36.133,-923.340,0.000
1606133179.554,-61.523,-28.320,-21.973,-201.660,0.000
1606133179.557,266.113,-1.465,-3.418,730.957,0.000
1606133179.561,223.633,0.488,-14.160,677.734,0.000
1606133179.565,-155.273,-40.039,-35.156,-341.309,0.000
1606133179.569,-350.098,-54.199,-42.480,-941.895,0.000
1606133179.573,-106.934,-35.645,-26.855,-337.891,0.000
1606133179.577,239.746,-3.418,-11.719,653.809,0.000
1606133179.581,246.094,-1.465,-18.066,749.023,0.000
1606133179.585,-113.281,-35.645,-36.621,-222.168,0.000
1606133179.589,-343.750,-48.340,-45.410,-917.969,0.000
1606133179.593,-158.691,-31.738,-35.156,-453.613,0.000
1606133179.597,208.008,-5.371,-14.648,570.312,0.000
1606133179.600,268.066,-2.441,-12.695,813.965,0.000
1606133179.604,-72.266,-17.578,-28.809,-93.750,0.000
1606133179.608,-346.191,-29.297,-37.598,-892.090,0.000
1606133179.612,-225.586,-36.621,-32.227,-578.125,0.000
1606133179.616,139.648,-19.531,-17.578,445.801,0.000
1606133179.620,249.512,3.418,-17.578,822.754,0.000
1606133179.624,-58.594,-16.602,-25.879,22.949,0.000
1606133179.628,-354.980,-48.340,-39.551,-855.469,0.000
1606133179.632,-267.578,-41.504,-42.480,-691.895,0.000
1606133179.636,109.375,-13.184,-27.832,339.844,0.000
1606133179.640,277.832,0.000,-20.996,854.492,0.000
1606133179.643,11.719,-21.484,-34.180,165.039,0.000
1606133179.647,-322.754,-52.246,-41.504,-782.227,0.000
1606133179.651,-296.387,-49.805,-28.320,-766.113,0.000
1606133179.655,75.195,-23.926,-15.625,245.605,0.000
1606133179.659,278.320,-2.930,-12.207,861.816,0.000
1606133179.663,49.805,-17.578,-23.438,290.527,0.000
1606133179.667,-295.898,-49.316,-45.410,-698.730,0.000
1606133179.671,-306.641,-46.875,-49.316,-834.961,0.000
1606133179.675,58.594,-23.438,-25.391,127.441,0.000
1606133179.679,306.641,-14.160,-15.625,860.840,0.000
1606133179.682,133.789,-26.855,-24.414,433.594,0.000
1606133179.686,-241.211,-50.293,-41.504,-601.562,0.000
1606133179.690,-311.523,-56.152,-43.945,-846.191,0.000
1606133179.694,24.902,-25.879,-18.555,53.711,0.000
1606133179.698,287.109,-5.859,-4.395,830.078,0.000
1606133179.702,161.133,-20.996,-13.672,554.199,0.000
1606133179.706,-213.379,-43.457,-31.250,-483.887,0.000
1606133179.710,-339.355,-51.270,-39.551,-908.691,0.000
1606133179.714,-41.992,-42.480,-28.809,-131.348,0.000
1606133179.718,266.602,-12.207,-21.973,761.230,0.000
1606133179.722,191.895,-9.277,-22.461,624.023,0.000
1606133179.725,-187.500,-50.293,-37.598,-400.391,0.000
1606133179.729,-356.934,-63.477,-51.270,-940.430,0.000
1606133179.733,-97.168,-38.086,-32.227,-270.996,0.000
1606133179.737,239.258,-10.254,-11.230,692.871,0.000
1606133179.741,226.562,-14.160,-16.113,704.590,0.000
1606133179.745,-143.066,-41.016,-33.691,-291.016,0.000
1606133179.749,-356.934,-51.758,-42.480,-934.082,0.000
1606133179.753,-139.648,-38.574,-35.645,-404.297,0.000
1606133179.757,204.102,-12.207,-19.531,589.844,0.000
1606133179.761,235.840,-6.348,-18.066,762.207,0.000
1606133179.765,-104.980,-40.039,-34.180,-169.434,0.000
1606133179.768,-351.562,-55.664,-42.969,-921.387,0.000
1606133179.772,-191.406,-45.898,-27.832,-531.738,0.000
1606133179.776,172.363,-26.367,-7.324,498.535,0.000
1606133179.780,267.578,-8.789,-8.789,815.918,0.000
1606133179.784,-52.246,-24.902,-29.297,-44.434,0.000
1606133179.788,-340.332,-47.852,-45.410,-884.766,0.000
1606133179.792,-229.980,-36.621,-41.992,-636.230,0.000
1606133179.796,140.625,-11.230,-27.344,398.438,0.000
1606133179.800,275.879,20.020,-21.484,845.215,0.000
1606133179.804,-19.043,-7.812,-31.738,76.172,0.000
1606133179.807,-326.172,-58.594,-43.945,-811.523,0.000
1606133179.811,-257.324,-51.270,-35.645,-699.707,0.000
1606133179.815,110.840,-23.438,-17.090,295.410,0.000
1606133179.819,291.504,-11.719,-13.672,857.910,0.000
1606133179.823,42.969,-30.273,-25.391,218.262,0.000
1606133179.827,-292.480,-45.410,-41.016,-747.070,0.000
1606133179.831,-288.574,-44.434,-36.621,-814.453,0.000
1606133179.835,84.961,-17.578,-18.555,176.758,0.000
1606133179.839,312.012,10.254,-8.789,865.723,0.000
1606133179.843,91.309,-13.184,-19.531,356.445,0.000
1606133179.847,-281.250,-49.805,-42.480,-657.227,0.000
1606133179.850,-329.102,-48.340,-43.945,-862.793,0.000
1606133179.854,19.043,-25.879,-28.809,63.477,0.000
1606133179.858,278.809,6.348,-21.484,832.520,0.000
1606133179.862,121.582,0.000,-27.344,468.262,0.000
1606133179.866,-243.164,-39.551,-42.480,-555.176,0.000
1606133179.870,-333.496,-44.922,-38.574,-891.113,0.000
1606133179.874,-21.484,-22.461,-13.672,-43.945,0.000
1606133179.878,270.020,-3.418,-2.930,808.594,0.000
1606133179.882,164.551,-16.602,-15.137,577.148,0.000
1606133179.886,-201.660,-42.480,-38.574,-443.848,0.000
1606133179.890,-340.332,-42.480,-46.387,-903.320,0.000
1606133179.893,-61.035,-28.809,-29.785,-187.500,0.000
1606133179.897,267.090,-2.441,-15.625,736.328,0.000
1606133179.901,214.355,7.812,-15.625,670.410,0.000
1606133179.905,-146.484,-30.762,-30.762,-337.891,0.000
1606133179.909,-326.172,-51.270,-41.992,-922.852,0.000
1606133179.913,-99.121,-29.785,-28.809,-315.430,0.000
1606133179.917,239.746,-9.277,-11.719,656.738,0.000
1606133179.921,247.070,-12.207,-7.324,745.117,0.000
1606133179.925,-113.770,-36.133,-29.785,-229.492,0.000
1606133179.929,-348.145,-50.781,-46.387,-930.664,0.000
1606133179.932,-161.133,-41.992,-36.133,-449.219,0.000
1606133179.936,192.871,-16.602,-20.996,571.777,0.000
1606133179.940,251.465,-0.977,-20.996,808.105,0.000
1606133179.944,-94.727,-35.645,-37.598,-104.980,0.000
1606133179.948,-365.723,-59.082,-48.340,-897.461,0.000
1606133179.952,-216.309,-43.945,-39.551,-567.383,0.000
1606133179.956,156.250,-14.160,-16.113,461.426,0.000
1606133179.960,262.695,-5.371,-5.859,830.566,0.000
1606133179.964,-53.223,-34.180,-23.438,18.066,0.000
1606133179.968,-361.816,-52.734,-46.875,-857.910,0.000
1606133179.972,-279.297,-45.898,-45.898,-689.453,0.000
1606133179.975,98.145,-17.578,-27.832,346.680,0.000
1606133179.979,260.254,5.371,-12.207,857.910,0.000
1606133179.983,-4.883,-19.531,-16.113,156.250,0.000
1606133179.987,-329.590,-47.852,-37.109,-790.039,0.000
1606133179.991,-300.293,-42.969,-43.945,-770.020,0.000
1606133179.995,72.754,-27.344,-24.414,237.305,0.000
1606133179.999,271.484,24.414,-10.254,849.609,0.000
1606133180.003,41.016,21.484,-26.367,273.438,0.000
1606133180.007,-304.199,-54.199,-46.875,-711.426,0.000
1606133180.011,-325.195,-64.941,-43.457,-838.379,0.000
1606133180.015,36.621,-35.645,-21.484,128.418,0.000
1606133180.018,278.320,-12.207,-9.766,852.051,0.000
1606133180.022,93.262,-25.391,-14.160,405.273,0.000
1606133180.026,-270.508,-51.270,-32.715,-621.094,0.000
1606133180.030,-343.750,-51.758,-45.898,-893.555,0.000
1606133180.034,-6.348,-39.062,-22.461,-2.441,0.000
1606133180.038,279.297,8.301,-8.789,811.523,0.000
1606133180.042,148.438,8.789,-28.320,516.113,0.000
1606133180.046,-226.074,-55.664,-43.457,-512.207,0.000
1606133180.050,-342.285,-63.477,-44.922,-919.434,0.000
1606133180.054,-41.992,-41.016,-34.180,-138.184,0.000
1606133180.057,256.836,-20.020,-23.926,753.418,0.000
1606133180.061,184.570,-20.020,-19.531,618.652,0.000
1606133180.065,-186.035,-50.781,-41.016,-411.621,0.000
1606133180.069,-358.398,-60.547,-59.082,-941.895,0.000
1606133180.073,-98.145,-44.434,-34.668,-256.836,0.000
1606133180.077,231.445,1.953,-5.859,700.684,0.000
1606133180.081,208.008,34.180,-9.277,709.961,0.000
1606133180.085,-159.180,-29.785,-31.250,-285.645,0.000
1606133180.089,-373.535,-72.266,-43.457,-937.500,0.000
1606133180.093,-151.855,-51.758,-25.879,-387.695,0.000
1606133180.097,206.055,-21.484,-5.371,616.699,0.000
1606133180.100,241.699,-20.508,-10.742,771.484,0.000
1606133180.104,-107.910,-50.293,-31.738,-168.945,0.000
1606133180.108,-360.352,-63.477,-46.387,-912.598,0.000
1606133180.112,-190.918,-48.340,-37.109,-511.230,0.000
1606133180.116,174.805,-21.484,-12.207,507.812,0.000
1606133180.120,261.230,-13.184,-7.324,809.570,0.000
1606133180.124,-64.453,-39.062,-32.715,-48.828,0.000
1606133180.128,-351.074,-58.594,-49.316,-880.371,0.000
1606133180.132,-225.098,-45.898,-38.574,-621.094,0.000
1606133180.136,156.738,-16.113,-13.672,419.434,0.000
1606133180.140,297.852,11.230,-7.324,859.863,0.000
1606133180.143,10.742,-11.719,-26.855,102.051,0.000
1606133180.147,-303.223,-47.363,-46.387,-809.082,0.000
1606133180.151,-244.629,-41.504,-44.434,-711.914,0.000
1606133180.155,117.676,-17.578,-21.484,316.895,0.000
1606133180.159,295.898,-6.836,-13.184,872.070,0.000
1606133180.163,45.410,-32.715,-34.180,219.238,0.000
1606133180.167,-292.480,-54.199,-45.898,-737.305,0.000
1606133180.171,-276.855,-40.527,-35.156,-772.949,0.000
1606133180.175,86.914,-23.926,-18.066,214.844,0.000
1606133180.179,296.875,3.418,-10.254,866.699,0.000
1606133180.182,84.473,7.324,-18.066,346.191,0.000
1606133180.186,-264.648,-32.715,-33.203,-649.414,0.000
1606133180.190,-311.523,-48.340,-37.109,-853.516,0.000
1606133180.194,24.414,-28.809,-21.973,68.848,0.000
1606133180.198,278.320,-13.672,-11.230,835.938,0.000
1606133180.202,116.211,-27.832,-24.902,462.402,0.000
1606133180.206,-252.930,-53.711,-40.039,-567.383,0.000
1606133180.210,-340.332,-55.664,-44.434,-908.203,0.000
1606133180.214,-19.043,-35.645,-30.762,-61.523,0.000
1606133180.218,270.020,-4.395,-19.043,796.875,0.000
1606133180.222,164.062,0.488,-22.461,562.500,0.000
1606133180.225,-208.984,-42.480,-42.480,-477.051,0.000
1606133180.229,-357.422,-57.129,-56.641,-940.430,0.000
1606133180.233,-74.219,-38.086,-35.645,-206.055,0.000
1606133180.237,254.395,-12.695,-13.184,713.867,0.000
1606133180.241,205.566,-11.719,-15.625,642.578,0.000
1606133180.245,-169.922,-33.691,-34.668,-368.164,0.000
1606133180.249,-362.305,-46.875,-46.387,-948.730,0.000
1606133180.253,-121.094,-38.574,-34.668,-333.984,0.000
1606133180.257,230.469,-13.672,-17.578,645.508,0.000
1606133180.261,239.258,-11.719,-13.672,730.957,0.000
1606133180.265,-122.559,-43.945,-33.691,-239.746,0.000
1606133180.268,-352.051,-59.082,-50.293,-937.988,0.000
1606133180.272,-155.273,-41.016,-38.086,-465.820,0.000
1606133180.276,199.707,-18.555,-19.043,542.969,0.000
1606133180.280,247.070,-4.883,-27.832,766.602,0.000
1606133180.284,-89.355,-25.391,-46.875,-134.766,0.000
1606133180.288,-357.422,-56.152,-53.223,-913.574,0.000
1606133180.292,-213.867,-52.734,-39.551,-574.707,0.000
1606133180.296,166.016,-20.020,-19.043,462.891,0.000
1606133180.300,274.902,-8.789,-16.113,834.961,0.000
1606133180.304,-38.086,-31.738,-35.645,11.719,0.000
1606133180.307,-336.914,-45.898,-47.852,-857.422,0.000
1606133180.311,-249.512,-42.480,-40.039,-675.781,0.000
1606133180.315,123.047,-19.043,-18.066,345.215,0.000
1606133180.319,276.367,-3.418,-5.371,841.309,0.000
1606133180.323,-4.395,-27.832,-24.414,136.230,0.000
1606133180.327,-333.984,-56.152,-43.945,-795.410,0.000
1606133180.331,-287.598,-54.688,-41.504,-762.207,0.000
1606133180.335,82.031,-34.180,-19.531,251.953,0.000
1606133180.339,289.551,-21.484,-4.395,877.441,0.000
1606133180.343,71.289,-21.973,-22.949,287.598,0.000
1606133180.347,-292.969,-38.574,-46.387,-719.238,0.000
1606133180.350,-317.383,-45.898,-47.363,-852.051,0.000
1606133180.354,50.293,-20.020,-34.668,115.723,0.000
1606133180.358,287.109,7.324,-29.297,835.938,0.000
1606133180.362,93.750,-4.395,-38.574,380.859,0.000
1606133180.366,-268.066,-39.551,-47.363,-632.324,0.000
1606133180.370,-342.773,-48.828,-46.387,-901.367,0.000
1606133180.374,-7.324,-33.691,-29.297,-7.324,0.000
1606133180.378,271.973,-20.996,-21.973,806.641,0.000
1606133180.382,139.648,-30.273,-30.762,496.582,0.000
1606133180.386,-225.586,-49.316,-45.410,-531.738,0.000
1606133180.390,-343.262,-51.270,-51.758,-921.387,0.000
1606133180.393,-35.156,-29.785,-32.227,-120.605,0.000
1606133180.397,276.367,-10.254,-10.742,767.090,0.000
1606133180.401,190.918,-19.043,-20.996,622.070,0.000
1606133180.405,-178.223,-44.434,-41.992,-397.461,0.000
1606133180.409,-338.867,-50.293,-43.457,-928.711,0.000
1606133180.413,-82.031,-35.645,-27.344,-258.789,0.000
1606133180.417,252.930,-11.719,-10.742,693.359,0.000
1606133180.421,228.027,-6.836,-21.484,696.289,0.000
1606133180.425,-138.184,-37.598,-45.898,-307.129,0.000
1606133180.429,-346.680,-54.199,-49.316,-941.406,0.000
1606133180.432,-133.301,-36.133,-26.855,-384.277,0.000
1606133180.436,219.238,-11.230,-1.953,621.094,0.000
1606133180.440,252.441,-13.184,-4.883,777.832,0.000
1606133180.444,-102.051,-37.598,-30.273,-179.199,0.000
1606133180.448,-354.492,-49.805,-42.480,-919.922,0.000
1606133180.452,-179.688,-35.156,-33.203,-493.652,0.000
1606133180.456,186.523,-14.648,-13.672,530.762,0.000
1606133180.460,265.625,9.277,-13.184,817.383,0.000
1606133180.464,-56.152,-10.254,-30.273,-51.758,0.000
1606133180.468,-334.473,-49.805,-42.969,-877.930,0.000
1606133180.472,-214.844,-42.969,-41.504,-614.258,0.000
1606133180.475,153.809,-20.508,-22.461,418.457,0.000
1606133180.479,286.133,-14.648,-13.184,850.586,0.000
1606133180.483,-5.371,-33.691,-33.691,86.426,0.000
1606133180.487,-315.430,-49.316,-47.852,-815.918,0.000
1606133180.491,-248.535,-45.898,-38.574,-711.914,0.000
1606133180.495,122.070,-23.926,-19.043,315.430,0.000
1606133180.499,291.992,-3.418,-9.766,874.023,0.000
1606133180.503,26.855,-24.902,-28.320,213.867,0.000
1606133180.507,-307.617,-50.293,-48.828,-750.977,0.000
1606133180.511,-285.156,-41.016,-49.805,-791.992,0.000
1606133180.515,78.125,-15.137,-26.855,198.242,0.000
1606133180.518,282.715,-4.883,-12.207,861.328,0.000
1606133180.522,70.312,-26.855,-31.738,343.750,0.000
1606133180.526,-285.156,-50.293,-54.688,-663.574,0.000
1606133180.530,-329.102,-44.922,-48.340,-856.445,0.000
1606133180.534,20.020,-21.484,-22.949,80.566,0.000
1606133180.538,283.203,-6.836,-8.301,838.379,0.000
1606133180.542,123.047,-15.137,-24.414,457.031,0.000
1606133180.546,-249.023,-37.109,-47.363,-568.848,0.000
1606133180.550,-343.262,-43.457,-46.875,-899.902,0.000
1606133180.554,-27.344,-29.785,-29.785,-51.758,0.000
1606133180.557,264.648,-10.254,-13.184,796.387,0.000
1606133180.561,164.551,-8.789,-16.602,570.312,0.000
1606133180.565,-209.961,-35.645,-40.527,-458.496,0.000
1606133180.569,-353.516,-46.875,-49.316,-917.969,0.000
1606133180.573,-59.570,-26.367,-29.785,-174.805,0.000
1606133180.577,267.578,0.488,-7.812,753.906,0.000
1606133180.581,212.891,-9.766,-11.719,679.688,0.000
1606133180.585,-158.691,-35.156,-31.738,-336.426,0.000
1606133180.589,-349.609,-40.039,-33.203,-910.645,0.000
1606133180.593,-111.816,-25.879,-18.066,-292.480,0.000
1606133180.597,230.469,-7.812,-5.371,678.223,0.000
1606133180.600,230.957,-17.090,-5.859,746.094,0.000
1606133180.604,-124.023,-39.062,-26.367,-239.258,0.000
1606133180.608,-348.633,-50.293,-41.016,-924.805,0.000
1606133180.612,-151.367,-38.574,-31.250,-437.988,0.000
1606133180.616,210.938,-16.602,-11.719,575.684,0.000
1606133180.620,275.391,-11.230,-7.324,801.270,0.000
1606133180.624,-61.035,-27.344,-26.855,-110.352,0.000
1606133180.628,-335.449,-43.945,-47.363,-896.484,0.000
1606133180.632,-195.801,-42.480,-43.457,-561.035,0.000
1606133180.636,174.805,-15.137,-23.926,469.238,0.000
1606133180.640,285.156,1.465,-13.672,836.914,0.000
1606133180.643,-23.926,-21.973,-30.762,20.020,0.000
1606133180.647,-320.312,-42.969,-49.316,-854.004,0.000
1606133180.651,-224.121,-30.273,-40.039,-671.387,0.000
1606133180.655,151.367,-4.883,-23.438,364.746,0.000
1606133180.659,297.363,-2.441,-14.648,857.422,0.000
1606133180.663,20.508,-24.414,-23.926,150.879,0.000
1606133180.667,-309.570,-50.293,-42.480,-776.367,0.000
1606133180.671,-277.832,-42.480,-36.133,-733.887,0.000
1606133180.675,95.703,-15.625,-11.719,280.273,0.000
1606133180.679,298.340,-5.859,0.977,875.488,0.000
1606133180.682,67.871,-21.973,-18.555,287.598,0.000
1606133180.686,-283.203,-43.457,-35.645,-687.988,0.000
1606133180.690,-303.223,-41.504,-28.809,-807.129,0.000
1606133180.694,56.152,-20.996,-8.301,155.762,0.000
1606133180.698,296.875,-2.930,0.000,868.164,0.000
1606133180.702,111.816,-12.207,-14.160,410.156,0.000
1606133180.706,-252.441,-44.434,-31.250,-606.445,0.000
1606133180.710,-323.730,-52.246,-38.574,-864.746,0.000
1606133180.714,10.254,-28.809,-22.949,21.484,0.000
1606133180.718,285.156,-7.324,-4.395,822.266,0.000
1606133180.722,150.879,-16.602,-16.113,514.160,0.000
1606133180.725,-223.633,-44.434,-39.062,-519.531,0.000
1606133180.729,-347.656,-51.270,-41.016,-916.016,0.000
1606133180.733,-45.410,-27.832,-20.020,-117.188,0.000
1606133180.737,258.301,-8.789,-6.836,754.883,0.000
1606133180.741,170.898,-0.488,-21.484,587.402,0.000
1606133180.745,-202.637,-32.715,-35.156,-442.871,0.000
1606133180.749,-344.727,-57.129,-41.992,-919.434,0.000
1606133180.753,-71.777,-28.809,-28.809,-221.191,0.000
1606133180.757,240.234,-1.953,-15.137,679.688,0.000
1606133180.761,208.984,-9.277,-18.555,673.340,0.000
1606133180.765,-157.227,-34.180,-37.598,-323.730,0.000
1606133180.768,-364.746,-45.410,-50.293,-949.219,0.000
1606133180.772,-151.367,-36.621,-34.668,-396.973,0.000
1606133180.776,201.172,-7.812,-10.742,601.562,0.000
1606133180.780,236.328,6.836,-5.859,751.465,0.000
1606133180.784,-124.512,-28.809,-22.461,-206.543,0.000
1606133180.788,-379.395,-57.129,-43.945,-944.824,0.000
1606133180.792,-206.543,-43.457,-39.062,-524.414,0.000
1606133180.796,164.062,-17.090,-9.277,509.277,0.000
1606133180.800,251.465,-15.137,-2.441,806.641,0.000
1606133180.804,-64.941,-35.156,-30.273,-51.270,0.000
1606133180.807,-353.516,-47.363,-42.969,-887.207,0.000
1606133180.811,-245.117,-40.527,-35.645,-636.230,0.000
1606133180.815,144.043,-16.113,-26.855,417.480,0.000
1606133180.819,289.062,-8.789,-22.461,853.516,0.000
1606133180.823,-7.324,-29.785,-36.621,83.984,0.000
1606133180.827,-311.035,-47.363,-51.758,-800.781,0.000
1606133180.831,-232.910,-40.039,-46.875,-681.152,0.000
1606133180.835,152.344,-15.625,-20.020,345.215,0.000
1606133180.839,332.520,-1.465,-9.766,895.508,0.000
1606133180.843,67.383,-20.020,-31.738,244.629,0.000
1606133180.847,-259.766,-44.434,-41.504,-707.520,0.000
1606133180.850,-239.258,-42.969,-35.645,-747.559,0.000
1606133180.854,124.512,-20.996,-20.508,244.629,0.000
1606133180.858,341.309,-9.766,-13.672,904.297,0.000
1606133180.862,128.906,-23.438,-25.879,378.418,0.000
1606133180.866,-232.422,-47.852,-36.621,-627.441,0.000
1606133180.870,-275.879,-47.852,-34.668,-814.453,0.000
1606133180.874,77.148,-19.531,-14.648,132.812,0.000
1606133180.878,326.172,-2.441,-7.324,880.371,0.000
1606133180.882,153.809,-20.020,-25.391,479.980,0.000
1606133180.886,-210.938,-50.781,-41.504,-540.527,0.000
1606133180.890,-301.270,-54.688,-41.504,-864.258,0.000
1606133180.893,16.113,-28.809,-27.832,-4.395,0.000
1606133180.897,307.617,-10.742,-13.184,838.379,0.000
1606133180.901,203.125,-20.996,-17.090,598.633,0.000
1606133180.905,-171.875,-45.410,-40.039,-424.316,0.000
1606133180.909,-319.336,-59.570,-46.875,-881.836,0.000
1606133180.913,-37.598,-47.852,-27.344,-146.973,0.000
1606133180.917,277.832,-18.555,-10.742,768.555,0.000
1606133180.921,232.910,-10.254,-12.695,693.359,0.000
1606133180.925,-139.648,-42.480,-35.645,-329.590,0.000
1606133180.929,-337.402,-55.176,-44.434,-913.574,0.000
1606133180.932,-90.332,-40.039,-28.809,-286.133,0.000
1606133180.936,251.465,-20.508,-12.695,692.871,0.000
1606133180.940,247.070,-15.625,-15.137,755.371,0.000
1606133180.944,-109.863,-43.457,-41.016,-223.633,0.000
1606133180.948,-327.148,-59.570,-56.152,-900.391,0.000
1606133180.952,-125.000,-44.434,-40.527,-404.297,0.000
1606133180.956,236.816,-20.020,-17.578,606.934,0.000
1606133180.960,287.598,-11.719,-18.066,812.500,0.000
1606133180.964,-58.105,-35.156,-36.133,-102.051,0.000
1606133180.968,-322.754,-56.641,-46.875,-874.023,0.000
1606133180.972,-182.129,-51.270,-40.039,-529.785,0.000
1606133180.975,183.594,-26.855,-20.996,500.000,0.000
1606133180.979,290.039,-14.648,-13.672,852.051,0.000
1606133180.983,-21.973,-41.504,-37.598,24.902,0.000
1606133180.987,-314.941,-62.500,-57.129,-834.961,0.000
1606133180.991,-217.285,-51.270,-45.898,-636.230,0.000
1606133180.995,164.551,-22.949,-16.113,400.391,0.000
1606133180.999,324.219,-10.742,-2.930,885.254,0.000
1606133181.003,34.668,-34.180,-18.555,166.992,0.000
1606133181.007,-300.781,-56.152,-34.180,-764.160,0.000
1606133181.011,-257.324,-52.246,-29.785,-718.750,0.000
1606133181.015,117.676,-23.438,-12.207,294.922,0.000
1606133181.018,300.293,-18.066,-7.324,886.719,0.000
1606133181.022,60.547,-41.016,-24.902,286.133,0.000
1606133181.026,-282.715,-55.176,-41.504,-693.848,0.000
1606133181.030,-294.434,-48.828,-36.621,-798.828,0.000
1606133181.034,62.012,-21.973,-13.672,164.062,0.000
1606133181.038,305.664,-4.883,-5.371,895.508,0.000
1606133181.042,102.539,-17.578,-20.020,370.117,0.000
1606133181.046,-272.461,-38.574,-36.133,-676.758,0.000
1606133181.050,-315.918,-43.457,-41.992,-849.121,0.000
1606133181.054,16.113,-21.484,-22.461,32.227,0.000
1606133181.057,288.574,-2.441,-6.836,837.402,0.000
1606133181.061,149.414,-16.113,-15.137,530.273,0.000
1606133181.065,-225.586,-42.480,-35.645,-510.254,0.000
1606133181.069,-339.844,-53.223,-39.062,-899.902,0.000
1606133181.073,-39.551,-37.109,-24.414,-104.004,0.000
1606133181.077,264.160,-10.254,-14.648,770.996,0.000
1606133181.081,187.012,-11.230,-20.020,611.328,0.000
1606133181.085,-189.453,-40.527,-46.875,-416.504,0.000
1606133181.089,-354.004,-53.711,-55.176,-930.664,0.000
1606133181.093,-83.496,-32.227,-30.762,-237.793,0.000
1606133181.097,251.465,-8.789,-13.184,713.867,0.000
1606133181.100,223.633,-15.137,-27.344,704.102,0.000
1606133181.104,-147.461,-40.527,-51.270,-298.340,0.000
1606133181.108,-355.469,-46.875,-58.594,-925.293,0.000
1606133181.112,-135.742,-34.668,-41.504,-370.605,0.000
1606133181.116,218.262,-17.090,-20.996,615.723,0.000
1606133181.120,246.582,-9.766,-26.855,753.418,0.000
1606133181.124,-103.516,-31.738,-44.922,-187.988,0.000
1606133181.128,-347.168,-47.852,-49.805,-909.668,0.000
1606133181.132,-168.945,-38.574,-40.039,-494.141,0.000
1606133181.136,205.566,-16.602,-17.578,531.250,0.000
1606133181.140,282.227,-10.254,-14.648,821.289,0.000
1606133181.143,-42.969,-31.738,-35.156,-51.758,0.000
1606133181.147,-321.777,-48.340,-43.457,-871.582,0.000
1606133181.151,-202.637,-36.133,-34.180,-593.750,0.000
1606133181.155,165.039,-15.625,-21.484,440.918,0.000
1606133181.159,283.203,-13.184,-20.996,844.727,0.000
1606133181.163,-9.766,-28.809,-35.156,70.312,0.000
1606133181.167,-316.406,-49.805,-49.805,-823.730,0.000
1606133181.171,-250.000,-44.434,-43.945,-700.684,0.000
1606133181.175,125.488,-15.137,-19.043,324.707,0.000
1606133181.179,305.664,-3.906,-14.160,863.770,0.000
1606133181.182,48.340,-22.461,-25.879,218.750,0.000
1606133181.186,-297.852,-39.551,-39.551,-739.258,0.000
1606133181.190,-291.992,-38.086,-43.945,-784.668,0.000
1606133181.194,73.730,-14.648,-25.879,215.820,0.000
1606133181.198,292.969,-3.906,-6.836,881.348,0.000
1606133181.202,78.125,-21.973,-21.484,346.191,0.000
1606133181.206,-277.344,-42.480,-45.410,-659.668,0.000
1606133181.210,-312.988,-44.434,-38.574,-843.262,0.000
1606133181.214,38.086,-25.879,-12.695,89.844,0.000
1606133181.218,291.504,-19.043,-0.488,841.309,0.000
1606133181.222,128.906,-37.109,-13.184,461.914,0.000
1606133181.225,-234.863,-51.270,-37.598,-556.152,0.000
1606133181.229,-341.797,-53.223,-46.875,-907.227,0.000
1606133181.233,-32.715,-34.180,-26.855,-66.895,0.000
1606133181.237,270.020,-13.672,-12.207,781.250,0.000
1606133181.241,158.691,-19.043,-22.461,539.551,0.000
1606133181.245,-226.562,-39.062,-36.133,-485.840,0.000
1606133181.249,-360.840,-44.434,-43.457,-937.988,0.000
1606133181.253,-76.172,-35.645,-33.203,-192.871,0.000
1606133181.257,247.559,-19.043,-10.742,730.957,0.000
1606133181.261,195.312,-15.137,-12.695,650.391,0.000
1606133181.265,-178.711,-41.504,-35.156,-365.723,0.000
1606133181.268,-352.539,-52.734,-42.969,-930.664,0.000
1606133181.272,-100.098,-34.668,-26.855,-294.434,0.000
1606133181.276,249.023,-5.859,-11.719,676.758,0.000
1606133181.280,250.977,-8.789,-13.672,734.863,0.000
1606133181.284,-117.676,-37.109,-35.645,-244.629,0.000
1606133181.288,-343.262,-43.945,-48.828,-923.828,0.000
1606133181.292,-138.184,-27.344,-29.297,-431.641,0.000
1606133181.296,225.098,-5.371,-5.859,592.773,0.000
1606133181.300,272.949,-5.371,-10.254,808.105,0.000
1606133181.304,-77.148,-30.273,-33.691,-122.559,0.000
1606133181.307,-345.215,-48.340,-53.711,-906.250,0.000
1606133181.311,-190.430,-35.645,-46.387,-549.316,0.000
1606133181.315,184.570,-9.766,-20.020,490.234,0.000
1606133181.319,286.133,-7.812,-16.602,839.844,0.000
1606133181.323,-30.762,-31.738,-33.203,10.742,0.000
1606133181.327,-325.684,-51.758,-44.922,-842.285,0.000
1606133181.331,-222.168,-44.434,-40.527,-640.137,0.000
1606133181.335,151.855,-16.602,-20.508,394.531,0.000
1606133181.339,298.828,-3.906,-14.648,878.418,0.000
1606133181.343,15.625,-25.391,-30.762,149.414,0.000
1606133181.347,-320.801,-51.270,-44.434,-795.410,0.000
1606133181.350,-291.992,-50.781,-40.039,-756.836,0.000
1606133181.354,84.473,-24.414,-26.367,257.324,0.000
1606133181.358,283.203,-9.277,-23.438,864.258,0.000
1606133181.362,51.270,-27.344,-35.645,273.438,0.000
1606133181.366,-286.133,-53.223,-46.875,-706.055,0.000
1606133181.370,-306.152,-52.246,-45.898,-812.988,0.000
1606133181.374,55.664,-22.949,-22.949,163.574,0.000
1606133181.378,300.293,-4.395,-9.766,873.047,0.000
1606133181.382,111.328,-19.043,-23.438,407.227,0.000
1606133181.386,-249.512,-45.410,-39.062,-608.398,0.000
1606133181.390,-320.801,-46.387,-36.621,-861.816,0.000
1606133181.393,8.301,-26.855,-19.043,37.109,0.000
1606133181.397,280.273,-5.371,-8.301,834.961,0.000
1606133181.401,141.602,-4.395,-16.113,508.789,0.000
1606133181.405,-234.375,-39.062,-38.086,-527.832,0.000
1606133181.409,-353.516,-54.688,-47.363,-919.922,0.000
1606133181.413,-43.945,-32.227,-22.461,-111.816,0.000
1606133181.417,269.043,-9.277,-0.488,779.297,0.000
1606133181.421,187.500,-18.555,-12.207,610.352,0.000
1606133181.425,-191.406,-42.480,-31.738,-423.828,0.000
1606133181.429,-354.980,-50.781,-34.668,-935.547,0.000
1606133181.432,-92.285,-37.598,-19.043,-241.211,0.000
1606133181.436,238.770,-7.812,-4.883,713.379,0.000
1606133181.440,205.566,0.488,-16.602,695.801,0.000
1606133181.444,-176.270,-36.621,-41.504,-320.801,0.000
1606133181.448,-380.859,-58.594,-50.781,-949.219,0.000
1606133181.452,-149.414,-44.434,-32.227,-375.977,0.000
1606133181.456,206.055,-20.996,-10.742,622.559,0.000
1606133181.460,245.605,-11.719,-11.719,771.484,0.000
1606133181.464,-109.375,-37.109,-29.785,-180.664,0.000
1606133181.468,-360.840,-55.176,-42.969,-918.457,0.000
1606133181.472,-184.570,-40.039,-37.109,-490.234,0.000
1606133181.475,183.594,-11.719,-14.648,537.598,0.000
1606133181.479,267.090,1.465,-4.395,818.359,0.000
1606133181.483,-61.035,-16.602,-30.762,-60.059,0.000
1606133181.487,-341.797,-41.504,-56.641,-892.578,0.000
1606133181.491,-220.215,-41.992,-42.480,-620.117,0.000
1606133181.495,157.227,-14.160,-15.625,426.758,0.000
1606133181.499,286.133,9.277,-17.090,842.773,0.000
1606133181.503,-19.043,-14.648,-34.668,60.547,0.000
1606133181.507,-340.332,-48.340,-39.062,-841.309,0.000
1606133181.511,-276.367,-41.992,-37.109,-726.562,0.000
1606133181.515,103.027,-18.066,-17.578,309.570,0.000
1606133181.518,285.645,-7.812,-6.836,861.328,0.000
1606133181.522,25.391,-32.227,-26.367,187.500,0.000
1606133181.526,-316.895,-54.199,-42.969,-775.391,0.000
1606133181.530,-299.316,-46.387,-39.551,-791.016,0.000
1606133181.534,74.707,-22.949,-22.461,209.473,0.000
1606133181.538,294.434,-1.465,-13.184,865.234,0.000
1606133181.542,77.637,-13.672,-19.531,331.055,0.000
1606133181.546,-278.320,-45.898,-38.574,-671.387,0.000
1606133181.550,-312.500,-49.805,-40.039,-841.309,0.000
1606133181.554,39.062,-29.297,-13.672,105.469,0.000
1606133181.557,292.480,-15.625,-2.930,854.492,0.000
1606133181.561,128.906,-23.438,-19.531,460.938,0.000
1606133181.565,-250.488,-43.457,-38.574,-559.570,0.000
1606133181.569,-347.168,-47.852,-40.039,-882.324,0.000
1606133181.573,-20.508,-24.902,-16.113,-27.832,0.000
1606133181.577,270.996,-1.953,-3.418,821.289,0.000
1606133181.581,153.809,-3.906,-18.066,569.336,0.000
1606133181.585,-221.191,-36.133,-34.180,-471.191,0.000
1606133181.589,-362.305,-55.664,-41.992,-928.223,0.000
1606133181.593,-68.848,-33.203,-23.438,-171.875,0.000
1606133181.597,254.883,-7.324,-4.395,746.582,0.000
1606133181.600,189.453,-15.137,-14.648,646.484,0.000
1606133181.604,-178.711,-41.504,-35.156,-372.559,0.000
1606133181.608,-360.840,-50.293,-43.457,-942.383,0.000
1606133181.612,-114.258,-33.691,-32.715,-312.988,0.000
1606133181.616,231.445,-12.207,-17.090,668.457,0.000
1606133181.620,230.957,-9.277,-20.020,735.352,0.000
1606133181.624,-126.953,-29.297,-37.598,-248.047,0.000
1606133181.628,-353.516,-49.316,-48.828,-932.617,0.000
1606133181.632,-149.414,-35.156,-34.668,-439.941,0.000
1606133181.636,211.914,-7.812,-16.113,573.242,0.000
1606133181.640,261.230,-2.930,-19.043,786.133,0.000
1606133181.643,-86.914,-31.738,-38.574,-142.090,0.000
1606133181.647,-356.445,-55.664,-52.734,-924.805,0.000
1606133181.651,-204.590,-42.480,-40.527,-565.918,0.000
1606133181.655,166.992,-15.137,-20.508,477.539,0.000
1606133181.659,268.066,-10.254,-14.648,832.031,0.000
1606133181.663,-44.922,-39.551,-34.668,-7.812,0.000
1606133181.667,-343.750,-59.082,-53.711,-868.164,0.000
1606133181.671,-246.582,-40.039,-35.645,-660.156,0.000
1606133181.675,135.254,-14.160,-12.207,382.324,0.000
1606133181.679,289.062,5.859,-11.230,855.469,0.000
1606133181.682,3.418,-4.395,-25.879,123.047,0.000
1606133181.686,-328.613,-38.574,-44.922,-802.734,0.000
1606133181.690,-284.668,-39.551,-40.527,-748.535,0.000
1606133181.694,92.285,-18.066,-21.484,269.043,0.000
1606133181.698,288.086,-10.742,-14.648,859.863,0.000
1606133181.702,46.875,-33.203,-31.738,253.418,0.000
1606133181.706,-292.480,-50.781,-46.387,-729.980,0.000
1606133181.710,-301.270,-50.781,-38.574,-831.055,0.000
1606133181.714,63.965,-28.320,-12.207,146.973,0.000
1606133181.718,310.547,4.883,0.000,858.887,0.000
1606133181.722,115.723,-1.465,-19.531,394.531,0.000
1606133181.725,-250.488,-38.574,-38.086,-623.047,0.000
1606133181.729,-318.848,-47.363,-43.945,-877.930,0.000
1606133181.733,20.508,-24.902,-28.320,26.367,0.000
1606133181.737,291.992,-7.324,-13.672,821.777,0.000
1606133181.741,142.578,-23.438,-23.926,493.164,0.000
1606133181.745,-220.703,-49.316,-43.945,-534.668,0.000
1606133181.749,-327.637,-49.805,-47.852,-916.992,0.000
1606133181.753,-29.785,-25.391,-22.949,-104.980,0.000
1606133181.757,275.391,-8.789,-3.418,780.762,0.000
1606133181.761,187.500,-13.672,-12.695,614.258,0.000
1606133181.765,-195.312,-36.621,-41.504,-414.551,0.000
1606133181.768,-362.305,-53.223,-53.711,-931.641,0.000
1606133181.772,-91.797,-34.180,-35.645,-242.188,0.000
1606133181.776,245.605,-6.348,-15.137,710.449,0.000
1606133181.780,218.750,5.859,-18.555,703.125,0.000
1606133181.784,-154.297,-15.625,-34.668,-297.363,0.000
1606133181.788,-362.305,-42.969,-36.621,-920.898,0.000
1606133181.792,-139.648,-36.621,-25.879,-358.887,0.000
1606133181.796,207.520,-18.555,-9.766,634.766,0.000
1606133181.800,226.074,-19.531,-12.695,778.809,0.000
1606133181.804,-121.094,-43.945,-38.574,-173.340,0.000
1606133181.807,-361.328,-53.223,-46.387,-904.297,0.000
1606133181.811,-190.918,-40.527,-30.273,-483.887,0.000
1606133181.815,170.898,-20.508,-21.484,532.715,0.000
1606133181.819,244.141,-7.812,-25.879,810.059,0.000
1606133181.823,-89.844,-32.227,-37.109,-75.195,0.000
1606133181.827,-369.629,-53.223,-46.387,-887.695,0.000
1606133181.831,-237.793,-43.457,-40.527,-601.074,0.000
1606133181.835,142.578,-20.996,-11.719,442.871,0.000
1606133181.839,269.531,-11.230,1.465,856.445,0.000
1606133181.843,-16.602,-29.297,-23.438,65.430,0.000
1606133181.847,-328.613,-46.387,-47.852,-829.590,0.000
1606133181.850,-260.254,-44.922,-43.457,-706.055,0.000
1606133181.854,131.836,-13.672,-21.973,326.660,0.000
1606133181.858,314.941,4.395,-16.113,878.906,0.000
1606133181.862,57.129,-21.484,-26.855,208.496,0.000
1606133181.866,-284.180,-53.223,-49.316,-761.719,0.000
1606133181.870,-268.555,-47.852,-55.664,-787.109,0.000
1606133181.874,104.980,-14.160,-29.785,215.820,0.000
1606133181.878,315.918,-4.395,-17.578,860.352,0.000
1606133181.882,100.098,-23.438,-30.762,318.848,0.000
1606133181.886,-253.418,-39.551,-38.086,-668.457,0.000
1606133181.890,-300.293,-37.109,-42.969,-828.125,0.000
1606133181.893,49.316,-20.996,-33.691,108.887,0.000
1606133181.897,306.152,-3.418,-14.160,859.375,0.000
1606133181.901,133.789,-12.207,-23.926,477.051,0.000
1606133181.905,-240.723,-39.551,-42.969,-553.711,0.000
1606133181.909,-331.055,-48.828,-43.945,-885.254,0.000
1606133181.913,-3.906,-28.320,-24.414,-26.855,0.000
1606133181.917,288.086,-1.953,-8.301,814.941,0.000
1606133181.921,184.570,-5.371,-14.648,569.336,0.000
1606133181.925,-203.125,-38.086,-37.109,-452.148,0.000
1606133181.929,-355.469,-44.922,-45.410,-896.973,0.000
1606133181.932,-41.504,-23.438,-25.879,-162.109,0.000
1606133181.936,280.762,-10.742,-16.113,752.930,0.000
1606133181.940,184.570,-15.625,-24.414,653.320,0.000
1606133181.944,-185.059,-36.621,-38.574,-352.539,0.000
1606133181.948,-362.793,-50.293,-46.387,-919.922,0.000
1606133181.952,-120.117,-35.156,-32.227,-302.734,0.000
1606133181.956,225.098,-10.742,-11.719,674.805,0.000
1606133181.960,212.402,-15.137,-18.066,712.402,0.000
1606133181.964,-156.738,-39.551,-38.574,-270.508,0.000
1606133181.968,-375.977,-50.781,-52.246,-940.430,0.000
1606133181.972,-166.992,-37.598,-39.551,-445.801,0.000
1606133181.975,192.871,-13.672,-19.043,571.289,0.000
1606133181.979,248.047,-9.766,-18.066,789.062,0.000
1606133181.983,-90.820,-34.180,-33.203,-125.488,0.000
1606133181.987,-358.398,-53.223,-47.852,-918.457,0.000
1606133181.991,-203.613,-42.969,-40.527,-561.035,0.000
1606133181.995,174.316,-16.602,-18.555,483.887,0.000
1606133181.999,278.809,-17.578,-5.859,831.543,0.000
1606133182.003,-30.273,-45.410,-20.020,6.348,0.000
1606133182.007,-322.754,-56.641,-37.598,-856.445,0.000
1606133182.011,-232.422,-35.156,-28.809,-657.715,0.000
1606133182.015,132.812,-5.371,-10.742,384.277,0.000
1606133182.018,294.922,0.488,-17.090,875.488,0.000
1606133182.022,19.043,-23.438,-35.156,152.344,0.000
1606133182.026,-325.684,-52.246,-48.828,-789.551,0.000
1606133182.030,-280.762,-45.898,-45.410,-741.211,0.000
1606133182.034,99.121,-19.531,-22.461,276.367,0.000
1606133182.038,283.691,-15.625,-18.066,863.770,0.000
1606133182.042,45.898,-28.809,-38.086,262.695,0.000
1606133182.046,-289.062,-45.410,-57.617,-715.332,0.000
1606133182.050,-295.898,-48.828,-50.781,-806.152,0.000
1606133182.054,65.430,-32.715,-29.785,175.293,0.000
1606133182.057,302.734,-15.137,-17.578,864.746,0.000
1606133182.061,115.234,-22.949,-28.320,401.855,0.000
1606133182.065,-245.605,-53.223,-45.898,-613.281,0.000
1606133182.069,-308.594,-59.082,-45.410,-867.676,0.000
1606133182.073,33.203,-35.156,-21.973,47.363,0.000
1606133182.077,307.129,-10.742,-2.930,859.375,0.000
1606133182.081,167.969,-20.020,-24.414,529.785,0.000
1606133182.085,-204.102,-52.734,-51.758,-515.137,0.000
1606133182.089,-312.012,-51.270,-42.480,-887.207,0.000
1606133182.093,0.000,-26.367,-25.879,-72.266,0.000
1606133182.097,296.387,-5.371,-19.043,790.527,0.000
1606133182.100,203.125,-1.465,-22.461,609.863,0.000
1606133182.104,-175.293,-41.992,-38.574,-420.410,0.000
1606133182.108,-329.590,-54.688,-39.551,-920.410,0.000
1606133182.112,-47.852,-28.809,-24.902,-211.426,0.000
1606133182.116,281.738,-6.836,-7.812,735.352,0.000
1606133182.120,250.977,-10.254,-0.977,714.844,0.000
1606133182.124,-120.605,-39.551,-20.996,-290.039,0.000
1606133182.128,-333.496,-53.223,-37.598,-916.504,0.000
1606133182.132,-100.098,-40.527,-19.043,-352.051,0.000
1606133182.136,245.605,-19.531,-2.441,648.438,0.000
1606133182.140,254.883,5.371,-8.789,797.852,0.000
1606133182.143,-102.539,-17.090,-30.273,-171.875,0.000
1606133182.147,-357.422,-57.617,-43.945,-914.551,0.000
1606133182.151,-178.223,-49.805,-26.855,-476.074,0.000
1606133182.155,190.430,-20.996,-7.324,550.293,0.000
1606133182.159,266.113,-15.625,-7.324,828.125,0.000
1606133182.163,-61.523,-40.527,-26.367,-57.129,0.000
1606133182.167,-345.215,-52.734,-41.504,-882.812,0.000
1606133182.171,-225.586,-41.016,-34.668,-601.074,0.000
1606133182.175,151.367,-16.602,-11.230,439.453,0.000
1606133182.179,278.809,-12.207,-4.395,856.934,0.000
1606133182.182,-23.926,-38.086,-17.578,69.336,0.000
1606133182.186,-341.797,-58.105,-38.086,-831.055,0.000
1606133182.190,-269.531,-52.734,-41.016,-708.496,0.000
1606133182.194,112.305,-29.785,-22.949,319.824,0.000
1606133182.198,289.551,-3.418,-13.184,863.281,0.000
1606133182.202,33.203,-11.719,-28.809,193.848,0.000
1606133182.206,-301.270,-44.922,-48.828,-769.531,0.000
1606133182.210,-285.645,-43.945,-42.969,-790.527,0.000
1606133182.214,82.520,-21.484,-19.531,211.914,0.000
1606133182.218,303.223,-3.906,0.000,859.375,0.000
1606133182.222,83.984,-18.555,-20.508,320.312,0.000
1606133182.225,-278.320,-47.363,-49.805,-684.082,0.000
1606133182.229,-312.988,-44.434,-42.969,-856.445,0.000
1606133182.233,42.480,-16.113,-15.625,91.309,0.000
1606133182.237,292.969,2.441,-6.348,841.797,0.000
1606133182.241,115.234,-2.930,-26.855,437.500,0.000
1606133182.245,-251.465,-40.039,-45.898,-588.379,0.000
1606133182.249,-339.355,-47.363,-51.270,-905.273,0.000
1606133182.253,-18.066,-26.367,-33.691,-43.945,0.000
1606133182.257,270.508,-11.719,-17.090,801.758,0.000
1606133182.261,156.250,-13.184,-23.438,551.758,0.000
1606133182.265,-223.633,-41.992,-39.062,-484.375,0.000
1606133182.268,-374.023,-49.316,-45.410,-933.594,0.000
1606133182.272,-80.566,-27.832,-28.320,-179.688,0.000
1606133182.276,250.977,-12.695,-10.254,737.793,0.000
1606133182.280,185.547,-12.695,-17.578,646.973,0.000
1606133182.284,-199.707,-39.551,-33.203,-375.488,0.000
1606133182.288,-377.441,-52.246,-41.016,-951.660,0.000
1606133182.292,-125.000,-33.203,-22.949,-312.988,0.000
1606133182.296,221.191,-12.207,-8.301,667.969,0.000
1606133182.300,221.680,-14.160,-16.113,724.121,0.000
1606133182.304,-136.719,-36.133,-32.227,-262.207,0.000
1606133182.307,-361.816,-47.363,-37.598,-939.453,0.000
1606133182.311,-153.809,-33.691,-23.926,-440.430,0.000
1606133182.315,209.473,-11.230,-10.742,567.871,0.000
1606133182.319,257.324,-7.324,-11.230,776.367,0.000
1606133182.323,-86.426,-24.414,-30.762,-142.090,0.000
1606133182.327,-350.098,-42.969,-51.758,-915.039,0.000
1606133182.331,-192.871,-34.180,-38.086,-561.523,0.000
1606133182.335,175.781,-14.648,-8.301,473.145,0.000
1606133182.339,264.648,-2.441,-15.137,820.801,0.000
1606133182.343,-57.617,-15.137,-39.551,-13.672,0.000
1606133182.347,-348.145,-46.387,-45.898,-874.023,0.000
1606133182.350,-240.723,-41.504,-37.109,-664.062,0.000
1606133182.354,141.602,-9.277,-18.066,388.184,0.000
1606133182.358,290.039,0.000,-7.812,863.281,0.000
1606133182.362,0.977,-26.367,-20.996,131.348,0.000
1606133182.366,-333.008,-51.758,-40.527,-802.734,0.000
1606133182.370,-297.363,-47.852,-37.109,-755.371,0.000
1606133182.374,85.938,-18.066,-14.648,269.043,0.000
1606133182.378,280.762,-0.488,-9.277,854.492,0.000
1606133182.382,39.062,-18.066,-28.809,249.512,0.000
1606133182.386,-304.199,-49.805,-48.828,-727.539,0.000
1606133182.390,-321.289,-53.711,-50.781,-827.148,0.000
1606133182.393,41.992,-30.273,-31.250,149.902,0.000
1606133182.397,279.297,-10.742,-13.184,848.145,0.000
1606133182.401,81.543,-15.625,-20.508,382.812,0.000
1606133182.405,-279.785,-41.504,-36.133,-628.906,0.000
1606133182.409,-343.750,-45.898,-39.062,-875.000,0.000
1606133182.413,0.488,-22.461,-20.996,34.668,0.000
1606133182.417,278.809,4.883,-2.930,834.473,0.000
1606133182.421,144.531,1.953,-16.113,517.090,0.000
1606133182.425,-219.238,-41.992,-28.320,-508.301,0.000
1606133182.429,-328.613,-51.270,-25.391,-891.113,0.000
1606133182.432,-16.602,-28.320,-17.578,-82.031,0.000
1606133182.436,291.016,-9.277,-6.836,799.316,0.000
1606133182.440,202.148,-10.742,-13.672,625.977,0.000
1606133182.444,-172.363,-36.621,-32.715,-407.715,0.000
1606133182.448,-331.055,-43.945,-35.156,-913.574,0.000
1606133182.452,-63.965,-30.273,-18.555,-211.914,0.000
1606133182.456,264.648,-14.160,-2.930,733.887,0.000
1606133182.460,233.887,-10.742,-12.207,710.449,0.000
1606133182.464,-139.160,-29.785,-27.344,-296.875,0.000
1606133182.468,-349.609,-47.852,-34.668,-924.316,0.000
1606133182.472,-123.535,-35.156,-29.297,-361.328,0.000
1606133182.475,229.492,-10.742,-14.648,632.812,0.000
1606133182.479,247.559,-2.441,-20.020,764.648,0.000
1606133182.483,-101.562,-33.691,-39.062,-188.965,0.000
1606133182.487,-348.633,-60.059,-52.734,-915.039,0.000
1606133182.491,-173.828,-48.828,-33.203,-481.445,0.000
1606133182.495,192.383,-24.902,-4.883,550.293,0.000
1606133182.499,268.066,-18.066,-9.766,827.148,0.000
1606133182.503,-62.988,-38.086,-32.227,-54.199,0.000
1606133182.507,-341.309,-52.246,-48.340,-881.836,0.000
1606133182.511,-213.867,-41.504,-37.109,-600.098,0.000
1606133182.515,162.598,-14.160,-8.301,448.242,0.000
1606133182.518,293.457,9.766,-3.418,858.887,0.000
1606133182.522,-14.160,-6.836,-28.809,56.152,0.000
1606133182.526,-326.172,-43.457,-39.551,-845.703,0.000
1606133182.530,-241.211,-36.133,-30.762,-709.473,0.000
1606133182.534,137.695,-7.324,-12.207,325.684,0.000
1606133182.538,306.152,-0.977,-11.719,872.070,0.000
1606133182.542,41.992,-25.391,-31.250,197.266,0.000
1606133182.546,-289.062,-49.805,-44.434,-759.766,0.000
1606133182.550,-270.020,-43.945,-40.039,-777.344,0.000
1606133182.554,88.867,-20.508,-20.020,216.797,0.000
1606133182.557,305.664,-1.465,-6.348,881.348,0.000
1606133182.561,99.609,-6.836,-7.324,353.027,0.000
1606133182.565,-268.555,-40.039,-33.691,-668.945,0.000
1606133182.569,-318.359,-54.688,-46.875,-855.469,0.000
1606133182.573,32.227,-36.621,-24.902,89.355,0.000
1606133182.577,283.203,-15.137,-8.301,840.332,0.000
1606133182.581,116.699,-17.578,-25.879,443.359,0.000
1606133182.585,-250.488,-49.805,-48.340,-584.473,0.000
1606133182.589,-341.797,-62.500,-48.828,-898.438,0.000
1606133182.593,-8.789,-32.715,-25.879,-30.762,0.000
1606133182.597,285.156,-2.930,-8.789,813.965,0.000
1606133182.600,162.598,-13.672,-13.672,560.059,0.000
1606133182.604,-218.262,-44.922,-35.645,-472.656,0.000
1606133182.608,-351.562,-50.293,-47.363,-918.945,0.000
1606133182.612,-59.570,-28.809,-27.832,-166.992,0.000
1606133182.616,257.812,-8.789,-16.602,742.188,0.000
1606133182.620,197.754,-2.441,-18.555,641.602,0.000
1606133182.624,-182.617,-28.320,-35.156,-382.812,0.000
1606133182.628,-367.676,-49.805,-41.504,-948.242,0.000
1606133182.632,-117.188,-37.598,-27.344,-308.594,0.000
1606133182.636,222.168,-17.090,-13.184,663.574,0.000
1606133182.640,218.750,-12.207,-14.648,728.027,0.000
1606133182.643,-145.508,-38.574,-29.785,-259.277,0.000
1606133182.647,-374.023,-52.246,-41.504,-937.500,0.000
1606133182.651,-163.086,-36.621,-31.738,-428.223,0.000
1606133182.655,207.031,-17.578,-9.766,586.426,0.000
1606133182.659,251.953,-5.859,-5.371,791.504,0.000
1606133182.663,-95.703,-33.691,-27.832,-133.301,0.000
1606133182.667,-355.469,-62.012,-41.992,-908.691,0.000
1606133182.671,-195.801,-39.551,-30.273,-550.781,0.000
1606133182.675,180.664,-12.207,-9.277,489.258,0.000
1606133182.679,267.090,-12.695,-4.395,833.984,0.000
1606133182.682,-60.059,-35.156,-36.621,-20.996,0.000
1606133182.686,-344.727,-46.387,-55.664,-879.395,0.000
1606133182.690,-236.816,-36.133,-41.504,-656.250,0.000
1606133182.694,140.625,-11.719,-15.625,387.695,0.000
1606133182.698,287.109,-7.324,-11.230,857.910,0.000
1606133182.702,14.160,-33.203,-35.156,140.625,0.000
1606133182.706,-304.199,-53.711,-55.664,-792.480,0.000
1606133182.710,-269.043,-46.875,-47.852,-762.695,0.000
1606133182.714,103.516,-20.020,-25.391,254.883,0.000
1606133182.718,299.805,-5.371,-20.508,871.094,0.000
1606133182.722,59.570,-20.020,-35.645,273.438,0.000
1606133182.725,-287.598,-43.945,-44.922,-723.633,0.000
1606133182.729,-294.922,-40.527,-40.527,-827.637,0.000
1606133182.733,73.242,-12.207,-24.902,154.297,0.000
1606133182.737,309.570,1.953,-19.043,862.305,0.000
1606133182.741,126.953,-13.672,-35.645,391.113,0.000
1606133182.745,-235.352,-40.039,-60.059,-624.512,0.000
1606133182.749,-314.453,-52.734,-61.035,-866.699,0.000
1606133182.753,29.785,-33.691,-32.715,36.133,0.000
1606133182.757,296.875,-9.277,-20.508,835.938,0.000
1606133182.761,153.809,-10.254,-29.297,515.137,0.000
1606133182.765,-211.914,-35.645,-40.527,-511.719,0.000
1606133182.768,-326.172,-47.363,-39.551,-887.695,0.000
1606133182.772,-22.461,-29.297,-26.367,-77.637,0.000
1606133182.776,275.879,-11.719,-16.602,796.387,0.000
1606133182.780,189.453,-22.461,-17.578,633.301,0.000
1606133182.784,-192.383,-52.734,-42.480,-412.598,0.000
1606133182.788,-336.914,-58.105,-46.387,-891.602,0.000
1606133182.792,-61.035,-39.551,-26.367,-166.992,0.000
1606133182.796,248.047,-20.020,-11.230,746.582,0.000
1606133182.800,219.238,-23.438,-19.531,711.914,0.000
1606133182.804,-145.996,-48.828,-40.039,-309.570,0.000
1606133182.807,-349.609,-54.688,-40.039,-924.316,0.000
1606133182.811,-126.465,-39.551,-30.273,-354.004,0.000
1606133182.815,230.469,-14.160,-13.672,648.926,0.000
1606133182.819,255.859,-8.301,-13.672,779.785,0.000
1606133182.823,-109.863,-34.180,-41.992,-192.871,0.000
1606133182.827,-357.422,-54.199,-53.711,-917.480,0.000
1606133182.831,-168.457,-46.387,-32.227,-475.586,0.000
1606133182.835,206.543,-20.020,-16.113,545.410,0.000
1606133182.839,274.902,-12.695,-20.020,815.430,0.000
1606133182.843,-63.965,-33.203,-32.715,-67.383,0.000
1606133182.847,-342.285,-46.387,-44.922,-882.324,0.000
1606133182.850,-211.914,-31.738,-44.434,-604.980,0.000
1606133182.854,162.598,-13.672,-26.855,429.199,0.000
1606133182.858,283.203,-2.930,-17.090,852.051,0.000
1606133182.862,-20.508,-20.996,-34.180,46.875,0.000
1606133182.866,-316.406,-45.898,-49.316,-824.219,0.000
1606133182.870,-235.352,-34.180,-37.109,-671.387,0.000
1606133182.874,130.371,-7.812,-17.090,335.449,0.000
1606133182.878,302.246,-3.418,-20.508,877.441,0.000
1606133182.882,36.133,-23.926,-36.133,195.312,0.000
1606133182.886,-291.504,-45.410,-50.293,-740.234,0.000
1606133182.890,-256.348,-39.551,-52.246,-751.953,0.000
1606133182.893,98.145,-17.090,-30.762,216.309,0.000
1606133182.897,294.434,-6.348,-18.555,868.652,0.000
1606133182.901,81.055,-13.184,-32.715,334.473,0.000
1606133182.905,-265.137,-35.156,-42.480,-659.180,0.000
1606133182.909,-311.035,-43.945,-42.969,-830.078,0.000
1606133182.913,38.574,-18.066,-21.973,110.352,0.000
1606133182.917,299.805,3.906,-5.371,868.652,0.000
1606133182.921,131.836,-10.254,-14.648,475.098,0.000
1606133182.925,-235.840,-37.109,-30.762,-553.223,0.000
1606133182.929,-329.590,-46.387,-42.480,-876.953,0.000
1606133182.932,-8.301,-23.438,-23.438,-20.996,0.000
1606133182.936,290.527,3.906,2.930,826.172,0.000
1606133182.940,176.758,-4.395,-3.418,572.754,0.000
1606133182.944,-209.473,-40.039,-28.320,-470.703,0.000
1606133182.948,-344.727,-48.340,-35.645,-921.387,0.000
1606133182.952,-46.875,-27.344,-24.414,-160.156,0.000
1606133182.956,265.137,-6.348,-10.254,760.254,0.000
1606133182.960,196.289,-13.672,-10.742,662.598,0.000
1606133182.964,-184.570,-45.410,-30.273,-359.375,0.000
1606133182.968,-367.188,-53.223,-46.387,-928.223,0.000
1606133182.972,-105.957,-33.691,-26.367,-291.992,0.000
1606133182.975,239.746,-10.742,-2.930,686.523,0.000
1606133182.979,232.910,-10.254,-12.207,743.652,0.000
1606133182.983,-134.766,-41.992,-29.785,-240.723,0.000
1606133182.987,-361.328,-55.664,-40.039,-917.480,0.000
1606133182.991,-157.715,-41.016,-33.203,-421.387,0.000
1606133182.995,203.613,-23.438,-14.160,591.309,0.000
1606133182.999,245.117,-12.695,-11.230,794.922,0.000
1606133183.003,-105.469,-33.691,-30.273,-135.742,0.000
1606133183.007,-361.328,-57.129,-43.457,-910.156,0.000
1606133183.011,-201.172,-42.480,-32.715,-542.969,0.000
1606133183.015,174.316,-15.625,-10.742,498.535,0.000
1606133183.018,277.344,-8.789,-14.160,845.703,0.000
1606133183.022,-43.457,-33.691,-31.738,5.371,0.000
1606133183.026,-349.121,-55.176,-39.551,-857.422,0.000
1606133183.030,-255.371,-46.387,-37.109,-647.461,0.000
1606133183.034,119.141,-26.367,-25.391,385.254,0.000
1606133183.038,263.184,-3.906,-25.391,851.074,0.000
1606133183.042,-14.160,-18.066,-39.062,119.141,0.000
1606133183.046,-327.637,-50.293,-48.828,-799.805,0.000
1606133183.050,-278.320,-41.992,-45.898,-737.793,0.000
1606133183.054,94.238,-21.973,-28.320,273.926,0.000
1606133183.057,293.457,-6.836,-14.160,867.676,0.000
1606133183.061,57.617,-17.578,-22.949,268.555,0.000
1606133183.065,-296.875,-45.410,-42.480,-719.238,0.000
1606133183.069,-304.688,-47.852,-43.457,-820.801,0.000
1606133183.073,59.570,-24.414,-23.926,162.109,0.000
1606133183.077,294.434,-2.441,-8.789,869.141,0.000
1606133183.081,100.098,-16.113,-22.461,394.531,0.000
1606133183.085,-262.695,-49.316,-46.387,-635.742,0.000
1606133183.089,-320.801,-47.363,-45.410,-882.324,0.000
1606133183.093,24.414,-19.043,-21.973,41.992,0.000
1606133183.097,296.387,-4.883,-6.836,844.238,0.000
1606133183.100,143.066,-22.949,-22.461,501.953,0.000
1606133183.104,-220.703,-46.875,-47.363,-536.133,0.000
1606133183.108,-320.312,-45.410,-42.969,-900.391,0.000
1606133183.112,-27.344,-27.344,-19.531,-78.613,0.000
1606133183.116,271.973,-10.742,-9.277,795.898,0.000
1606133183.120,187.500,-12.695,-16.113,619.141,0.000
1606133183.124,-190.430,-38.574,-34.180,-410.645,0.000
1606133183.128,-349.121,-47.852,-44.922,-921.387,0.000
1606133183.132,-75.195,-32.715,-26.855,-220.215,0.000
1606133183.136,254.883,-13.184,-4.883,731.934,0.000
1606133183.140,214.355,-3.418,-8.789,709.961,0.000
1606133183.143,-159.180,-24.902,-25.879,-302.246,0.000
1606133183.147,-362.793,-46.875,-37.598,-929.199,0.000
1606133183.151,-130.859,-33.203,-25.879,-355.469,0.000
1606133183.155,223.145,-14.648,-1.465,645.020,0.000
1606133183.159,238.770,-22.461,-4.395,774.414,0.000
1606133183.163,-114.746,-44.922,-35.156,-193.359,0.000
1606133183.167,-354.980,-57.129,-46.387,-924.805,0.000
1606133183.171,-175.293,-40.527,-34.668,-487.305,0.000
1606133183.175,191.895,-17.090,-14.648,540.039,0.000
1606133183.179,263.672,3.906,-8.301,813.965,0.000
1606133183.182,-66.406,-6.348,-25.879,-81.543,0.000
1606133183.186,-334.961,-48.340,-39.551,-901.367,0.000
1606133183.190,-216.309,-45.898,-29.297,-604.004,0.000
1606133183.194,153.809,-18.555,-7.324,437.500,0.000
1606133183.198,277.344,-11.719,-0.977,841.797,0.000
1606133183.202,-22.949,-28.320,-20.020,49.805,0.000
1606133183.206,-332.031,-47.852,-31.738,-842.285,0.000
1606133183.210,-262.695,-44.922,-31.250,-707.520,0.000
1606133183.214,113.281,-19.531,-20.996,325.195,0.000
1606133183.218,287.109,5.371,-14.160,865.723,0.000
1606133183.222,18.555,-12.207,-29.785,187.500,0.000
1606133183.225,-319.824,-49.316,-42.969,-769.531,0.000
1606133183.229,-292.480,-48.340,-40.527,-793.457,0.000
1606133183.233,73.730,-24.414,-23.438,209.961,0.000
1606133183.237,294.922,-3.906,-10.254,868.652,0.000
1606133183.241,81.543,-19.531,-20.020,313.477,0.000
1606133183.245,-285.156,-45.898,-38.574,-692.383,0.000
1606133183.249,-325.684,-45.410,-43.945,-850.586,0.000
1606133183.253,29.785,-25.391,-27.832,100.586,0.000
1606133183.257,291.016,-9.277,-20.996,851.074,0.000
1606133183.261,118.652,-18.555,-30.762,446.289,0.000
1606133183.265,-246.094,-41.504,-42.969,-570.801,0.000
1606133183.268,-332.031,-48.828,-46.875,-883.301,0.000
1606133183.272,-8.301,-31.738,-27.832,-30.762,0.000
1606133183.276,281.250,-13.672,-13.672,811.523,0.000
1606133183.280,161.621,-11.719,-23.438,562.500,0.000
1606133183.284,-215.820,-35.156,-32.227,-478.027,0.000
1606133183.288,-351.562,-52.246,-31.738,-926.270,0.000
1606133183.292,-53.223,-35.645,-25.879,-164.551,0.000
1606133183.296,266.113,-12.695,-10.742,765.625,0.000
1606133183.300,200.195,-12.207,-11.230,669.434,0.000
1606133183.304,-174.805,-38.086,-34.180,-367.188,0.000
1606133183.307,-361.816,-52.246,-41.016,-932.617,0.000
1606133183.311,-104.492,-27.832,-21.973,-282.715,0.000
1606133183.315,247.070,-2.930,-6.348,686.523,0.000
1606133183.319,237.305,-15.137,-11.230,724.609,0.000
1606133183.323,-131.348,-42.480,-27.832,-267.090,0.000
1606133183.327,-360.352,-53.223,-40.527,-940.918,0.000
1606133183.331,-153.320,-37.598,-26.367,-434.570,0.000
1606133183.335,213.867,-9.766,-6.348,584.961,0.000
1606133183.339,262.207,-9.766,-11.230,789.062,0.000
1606133183.343,-90.332,-33.203,-29.785,-134.766,0.000
1606133183.347,-352.539,-49.805,-42.480,-900.391,0.000
1606133183.350,-193.359,-43.457,-33.691,-532.715,0.000
1606133183.354,169.922,-20.020,-16.602,494.141,0.000
1606133183.358,263.672,-7.812,-12.207,835.449,0.000
1606133183.362,-51.758,-24.414,-27.344,-8.301,0.000
1606133183.366,-347.656,-45.410,-50.293,-875.488,0.000
1606133183.370,-242.188,-37.109,-38.574,-658.691,0.000
1606133183.374,140.137,-14.160,-16.602,387.207,0.000
1606133183.378,283.691,-8.789,-22.949,859.863,0.000
1606133183.382,-0.488,-34.180,-40.039,118.652,0.000
1606133183.386,-321.777,-55.664,-49.805,-809.082,0.000
1606133183.390,-275.391,-41.504,-44.922,-751.953,0.000
1606133183.393,101.562,-14.648,-22.461,267.090,0.000
1606133183.397,292.480,-3.906,-7.812,860.840,0.000
1606133183.401,49.316,-19.531,-21.973,250.488,0.000
1606133183.405,-297.852,-41.992,-45.410,-727.051,0.000
1606133183.409,-303.711,-39.062,-50.293,-814.453,0.000
1606133183.413,61.035,-21.484,-25.391,158.691,0.000
1606133183.417,286.621,-4.883,-6.836,852.539,0.000
1606133183.421,91.797,-6.348,-18.066,382.324,0.000
1606133183.425,-268.066,-38.574,-38.574,-633.789,0.000
1606133183.429,-328.613,-47.852,-46.387,-877.441,0.000
1606133183.432,9.766,-26.367,-25.391,25.391,0.000
1606133183.436,268.555,-11.230,-9.277,819.824,0.000
1606133183.440,119.629,-21.484,-22.949,490.723,0.000
1606133183.444,-243.652,-48.340,-43.457,-545.410,0.000
1606133183.448,-350.586,-57.129,-44.434,-913.574,0.000
1606133183.452,-40.039,-31.738,-26.855,-83.008,0.000
1606133183.456,270.996,-11.230,-2.930,803.223,0.000
1606133183.460,177.246,1.953,-11.719,618.652,0.000
1606133183.464,-207.031,-17.578,-41.504,-422.852,0.000
1606133183.468,-360.352,-54.199,-51.270,-932.129,0.000
1606133183.472,-81.543,-37.598,-35.156,-229.004,0.000
1606133183.475,250.000,-10.742,-15.137,716.797,0.000
1606133183.479,216.309,-13.672,-19.043,695.801,0.000
1606133183.483,-149.902,-35.156,-33.691,-305.664,0.000
1606133183.487,-350.586,-46.387,-37.598,-921.387,0.000
1606133183.491,-113.770,-31.250,-22.949,-345.703,0.000
1606133183.495,239.746,-7.324,-3.418,646.973,0.000
1606133183.499,249.512,4.395,-4.883,769.531,0.000
1606133183.503,-110.352,-18.555,-19.531,-195.801,0.000
1606133183.507,-359.863,-46.387,-30.273,-923.828,0.000
1606133183.511,-179.199,-36.133,-25.879,-487.793,0.000
1606133183.515,185.547,-15.625,-12.695,535.645,0.000
1606133183.518,251.953,-13.672,-12.695,795.410,0.000
1606133183.522,-88.379,-39.551,-32.715,-102.051,0.000
1606133183.526,-370.117,-55.176,-49.805,-917.969,0.000
1606133183.530,-237.793,-42.480,-40.527,-617.676,0.000
1606133183.534,142.090,-20.020,-22.461,426.758,0.000
1606133183.538,263.184,-13.672,-22.461,827.637,0.000
1606133183.542,-38.086,-28.320,-27.832,41.504,0.000
1606133183.546,-346.680,-50.293,-35.156,-840.820,0.000
1606133183.550,-276.367,-52.246,-43.945,-709.961,0.000
1606133183.554,102.051,-26.855,-21.973,321.289,0.000
1606133183.557,276.367,-9.277,-7.812,854.980,0.000
1606133183.561,11.230,-22.949,-34.180,175.293,0.000
1606133183.565,-326.172,-48.340,-57.129,-779.297,0.000
1606133183.569,-303.223,-51.758,-49.316,-798.340,0.000
1606133183.573,66.406,-31.738,-25.879,207.031,0.000
1606133183.577,282.227,-9.766,-16.113,859.375,0.000
1606133183.581,66.406,-20.508,-27.344,311.035,0.000
1606133183.585,-291.504,-48.340,-46.875,-691.895,0.000
1606133183.589,-321.777,-46.875,-50.781,-852.539,0.000
1606133183.593,32.715,-22.461,-27.344,101.562,0.000
1606133183.597,283.691,-5.859,-10.742,848.145,0.000
1606133183.600,113.281,-20.508,-20.020,434.570,0.000
1606133183.604,-258.789,-48.828,-41.504,-595.703,0.000
1606133183.608,-344.727,-46.875,-47.363,-899.902,0.000
1606133183.612,-14.648,-21.973,-24.902,-27.344,0.000
1606133183.616,273.926,-4.395,-7.324,817.871,0.000
1606133183.620,156.250,-16.113,-16.113,562.500,0.000
1606133183.624,-218.750,-41.016,-37.109,-475.586,0.000
1606133183.628,-355.469,-44.434,-44.922,-916.504,0.000
1606133183.632,-61.523,-27.344,-27.344,-152.832,0.000
1606133183.636,255.371,-5.371,-0.977,761.230,0.000
1606133183.640,193.359,-5.859,2.441,658.691,0.000
1606133183.643,-184.082,-34.668,-32.227,-371.582,0.000
1606133183.647,-354.980,-48.340,-45.410,-934.082,0.000
1606133183.651,-89.844,-28.320,-22.461,-288.086,0.000
1606133183.655,242.188,-3.906,-2.930,687.500,0.000
1606133183.659,228.027,-3.906,-1.465,738.281,0.000
1606133183.663,-137.695,-32.715,-16.602,-242.676,0.000
1606133183.667,-357.422,-49.316,-30.273,-904.297,0.000
1606133183.671,-152.344,-29.785,-23.926,-404.785,0.000
1606133183.675,206.055,-6.836,0.000,596.191,0.000
1606133183.679,247.070,-11.230,1.953,785.645,0.000
1606133183.682,-97.168,-39.062,-22.949,-126.465,0.000
1606133183.686,-344.727,-54.199,-44.922,-879.883,0.000
1606133183.690,-206.543,-40.527,-41.016,-548.828,0.000
1606133183.694,150.879,-8.301,-20.996,465.332,0.000
1606133183.698,250.488,-3.418,-21.973,804.199,0.000
1606133183.702,-64.453,-25.879,-44.434,-36.621,0.000
1606133183.706,-361.328,-47.363,-55.664,-886.230,0.000
1606133183.710,-262.695,-43.457,-48.340,-677.246,0.000
1606133183.714,116.211,-14.648,-24.902,355.957,0.000
1606133183.718,260.742,-2.441,-14.160,837.402,0.000
1606133183.722,-19.043,-22.949,-30.273,113.770,0.000
1606133183.725,-337.402,-46.875,-54.199,-812.500,0.000
1606133183.729,-285.645,-44.434,-57.617,-745.605,0.000
1606133183.733,96.191,-20.020,-33.203,286.621,0.000
1606133183.737,284.668,-7.324,-29.297,866.699,0.000
1606133183.741,43.945,-13.672,-45.410,245.117,0.000
1606133183.745,-299.316,-41.992,-52.246,-727.051,0.000
1606133183.749,-300.293,-50.781,-44.434,-809.570,0.000
1606133183.753,67.871,-23.438,-30.273,174.316,0.000
1606133183.757,289.551,-6.836,-15.137,868.164,0.000
1606133183.761,91.309,-22.461,-22.949,387.695,0.000
1606133183.765,-268.555,-43.457,-44.922,-625.488,0.000
1606133183.768,-317.383,-43.945,-45.410,-853.027,0.000
1606133183.772,33.691,-20.996,-26.855,58.105,0.000
1606133183.776,297.852,-1.465,-13.672,842.773,0.000
1606133183.780,147.949,-6.348,-22.949,507.324,0.000
1606133183.784,-235.352,-39.062,-48.340,-532.715,0.000
1606133183.788,-350.586,-55.176,-44.922,-907.227,0.000
1606133183.792,-30.762,-29.785,-22.949,-87.402,0.000
1606133183.796,281.738,-4.395,-11.719,785.645,0.000
1606133183.800,183.594,-15.625,-17.578,598.145,0.000
1606133183.804,-188.477,-46.387,-38.574,-433.105,0.000
1606133183.807,-333.008,-49.316,-38.574,-924.805,0.000
1606133183.811,-67.383,-27.344,-20.996,-218.750,0.000
1606133183.815,260.742,-8.789,-10.742,714.844,0.000
1606133183.819,225.098,-11.230,-16.113,679.688,0.000
1606133183.823,-151.855,-38.574,-38.086,-322.754,0.000
1606133183.827,-350.586,-52.246,-54.199,-932.617,0.000
1606133183.831,-123.535,-37.109,-36.621,-352.539,0.000
1606133183.835,227.051,-20.020,-17.578,635.254,0.000
1606133183.839,251.953,-12.695,-16.602,759.277,0.000
1606133183.843,-105.957,-24.902,-26.855,-193.359,0.000
1606133183.847,-349.121,-49.805,-36.621,-910.645,0.000
1606133183.850,-168.457,-41.504,-26.367,-472.656,0.000
1606133183.854,195.312,-13.672,-12.207,548.828,0.000
1606133183.858,265.137,-9.277,-11.230,814.941,0.000
1606133183.862,-68.359,-34.180,-32.227,-68.848,0.000
1606133183.866,-339.355,-54.688,-48.828,-888.184,0.000
1606133183.870,-207.031,-41.504,-33.203,-594.727,0.000
1606133183.874,155.762,-21.973,-13.672,451.660,0.000
1606133183.878,272.949,-12.695,-14.648,848.633,0.000
1606133183.882,-26.367,-20.508,-29.297,53.223,0.000
1606133183.886,-333.984,-50.781,-38.574,-835.449,0.000
1606133183.890,-256.836,-47.363,-40.527,-688.965,0.000
1606133183.893,117.676,-17.578,-28.320,340.332,0.000
1606133183.897,283.203,-8.789,-16.602,861.328,0.000
1606133183.901,18.066,-29.785,-33.691,177.734,0.000
1606133183.905,-321.289,-55.664,-57.129,-780.762,0.000
1606133183.909,-303.223,-53.223,-53.711,-799.316,0.000
1606133183.913,78.125,-21.973,-26.367,214.844,0.000
1606133183.917,301.758,1.465,-6.836,874.023,0.000
1606133183.921,78.613,-8.301,-26.855,319.336,0.000
1606133183.925,-274.902,-44.922,-47.363,-659.668,0.000
1606133183.929,-299.805,-48.828,-38.574,-818.359,0.000
1606133183.932,45.410,-22.949,-20.020,104.980,0.000
1606133183.936,294.922,-7.812,-10.254,858.887,0.000
1606133183.940,122.559,-15.625,-21.973,439.941,0.000
1606133183.944,-249.023,-41.016,-44.922,-591.309,0.000
1606133183.948,-329.102,-48.340,-47.363,-888.184,0.000
1606133183.952,-3.906,-23.438,-25.879,-22.461,0.000
1606133183.956,280.762,-1.465,-14.160,812.012,0.000
1606133183.960,162.598,-11.230,-22.949,549.805,0.000
1606133183.964,-213.379,-34.668,-39.062,-478.516,0.000
1606133183.968,-350.098,-48.828,-53.223,-910.156,0.000
1606133183.972,-50.293,-32.227,-35.156,-140.625,0.000
1606133183.975,267.578,-6.836,-11.719,773.438,0.000
1606133183.979,200.684,-3.418,-16.602,660.645,0.000
1606133183.983,-168.945,-30.762,-41.016,-365.234,0.000
1606133183.987,-347.656,-47.363,-52.734,-917.969,0.000
1606133183.991,-97.656,-34.180,-29.785,-268.555,0.000
1606133183.995,246.094,-13.184,-1.465,694.824,0.000
1606133183.999,235.840,-13.184,-7.812,732.422,0.000
1606133184.003,-140.625,-44.434,-38.574,-265.625,0.000
1606133184.007,-360.352,-61.035,-51.270,-933.105,0.000
1606133184.011,-143.555,-38.574,-33.203,-410.156,0.000
1606133184.015,222.168,-10.742,-14.648,600.586,0.000
1606133184.018,266.602,-6.348,-21.484,791.504,0.000
1606133184.022,-95.215,-30.762,-41.504,-148.926,0.000
1606133184.026,-354.980,-51.758,-50.293,-917.969,0.000
1606133184.030,-187.012,-41.504,-37.598,-536.133,0.000
1606133184.034,179.199,-19.043,-16.113,488.770,0.000
1606133184.038,280.762,-4.883,-7.812,827.148,0.000
