timestamps,TP9,AF7,AF8,TP10,Right AUX,Marker0
1606143724.934,0.000,0.000,0.000,0.000,0.000,0
1606143724.938,-1.465,-0.488,-0.488,-3.906,0.000,0
1606143724.942,-3.906,-1.465,-1.465,-9.277,0.000,0
1606143724.946,27.344,3.906,2.930,74.707,0.000,0
1606143724.950,-114.258,-20.020,-16.113,-338.867,0.000,0
1606143724.954,44.434,-38.086,-27.832,62.988,0.000,0
1606143724.958,406.738,-16.113,-11.230,-888.184,0.000,0
1606143724.962,148.438,-21.973,-31.250,543.457,0.000,0
1606143724.965,-346.680,-39.551,-61.523,-709.473,0.000,0
1606143724.969,-429.688,-46.875,-55.664,-1000.000,0.000,0
1606143724.973,28.809,-32.715,-28.809,8.301,0.000,0
1606143724.977,405.273,-4.395,-7.324,-934.082,0.000,0
1606143724.981,223.145,-10.254,-9.766,654.785,0.000,0
1606143724.985,-284.668,-45.898,-37.109,-541.504,0.000,0
1606143724.989,-443.359,-47.363,-49.316,-1000.000,0.000,0
1606143724.993,-25.879,-21.973,-30.273,-144.043,0.000,0
1606143724.997,390.625,-7.812,-2.930,-990.234,0.000,0
1606143725.001,277.344,-13.184,-4.883,761.719,0.000,0
1606143725.004,-231.445,-30.762,-33.691,-397.461,0.000,0
1606143725.008,-461.426,-39.062,-51.758,-1000.000,0.000,0
1606143725.012,-102.539,-33.203,-42.480,-325.684,0.000,0
1606143725.016,348.145,-8.301,-17.090,907.227,0.000,0
1606143725.020,308.594,-12.207,-22.949,853.516,0.000,0
1606143725.024,-190.918,-42.480,-44.434,-293.457,0.000,0
1606143725.028,-469.238,-48.828,-44.922,-1000.000,0.000,0
1606143725.032,-167.969,-38.574,-30.762,-472.656,0.000,0
1606143725.036,307.129,-23.438,-10.254,776.367,0.000,0
1606143725.040,348.633,-13.672,1.465,948.242,0.000,0
1606143725.044,-135.742,-28.809,-30.273,-167.480,0.000,0
1606143725.047,-474.121,-52.734,-61.523,-1000.000,0.000,0
1606143725.051,-224.121,-20.020,-41.992,-600.586,0.000,0
1606143725.055,269.043,26.367,-14.160,629.395,0.000,0
1606143725.059,367.676,9.277,-12.207,-981.934,0.000,0
1606143725.063,-70.801,-33.203,-25.879,-41.992,0.000,0
1606143725.067,-444.336,-55.664,-42.969,-1000.000,0.000,0
1606143725.071,-278.320,-48.828,-36.621,-729.980,0.000,0
1606143725.075,227.539,-19.531,-10.742,456.543,0.000,0
1606143725.079,399.414,-6.836,-2.441,-928.223,0.000,0
1606143725.083,-5.371,-29.297,-14.648,114.258,0.000,0
1606143725.087,-420.410,-42.480,-43.945,-1000.000,0.000,0
1606143725.090,-318.359,-34.180,-50.293,-825.195,0.000,0
1606143725.094,185.547,-34.180,-24.902,323.730,0.000,0
1606143725.098,422.852,-9.277,-7.812,-898.926,0.000,0
1606143725.102,67.383,3.418,-19.043,294.922,0.000,0
1606143725.106,-381.836,-31.250,-43.945,-926.758,0.000,0
1606143725.110,-358.398,-43.457,-35.156,-912.598,0.000,0
1606143725.114,124.512,-27.344,-4.883,218.262,0.000,0
1606143725.118,411.133,-6.836,2.441,-896.973,0.000,0
1606143725.122,126.465,-7.812,-12.695,461.426,0.000,0
1606143725.126,-344.727,-38.574,-41.016,-779.785,0.000,0
1606143725.129,-403.320,-62.012,-48.828,-1000.000,0.000,0
1606143725.133,60.547,-46.875,-10.742,95.215,0.000,0
1606143725.137,403.320,-21.973,8.301,-915.039,0.000,0
1606143725.141,177.734,-21.973,-7.812,591.797,0.000,0
1606143725.145,-313.477,-39.062,-32.715,-627.441,0.000,0
1606143725.149,-428.223,-36.133,-45.410,-1000.000,0.000,0
1606143725.153,6.348,-15.625,-30.762,-48.340,0.000,0
1606143725.157,385.742,-4.883,-22.949,-950.684,0.000,0
1606143725.161,230.469,-16.602,-25.879,695.312,0.000,0
1606143725.165,-273.926,-42.480,-41.504,-486.328,0.000,0
1606143725.169,-463.379,-56.152,-47.852,-1000.000,0.000,0
1606143725.172,-69.824,-37.109,-34.180,-218.750,0.000,0
1606143725.176,361.816,-12.207,-15.625,970.215,0.000,0
1606143725.180,288.574,-14.648,-0.488,802.246,0.000,0
1606143725.184,-218.750,-36.133,-32.715,-351.074,0.000,0
1606143725.188,-473.145,-49.316,-61.523,-1000.000,0.000,0
1606143725.192,-134.277,-28.809,-37.598,-391.602,0.000,0
1606143725.196,320.801,0.000,-18.066,848.633,0.000,0
1606143725.200,319.336,6.836,-18.555,893.066,0.000,0
1606143725.204,-161.621,-24.414,-30.762,-244.141,0.000,0
1606143725.208,-468.262,-48.340,-38.574,-1000.000,0.000,0
1606143725.212,-209.473,-43.457,-32.227,-549.316,0.000,0
1606143725.215,274.902,-25.391,-14.160,696.777,0.000,0
1606143725.219,357.910,-25.391,-7.812,979.004,0.000,0
1606143725.223,-106.934,-41.016,-33.691,-122.070,0.000,0
1606143725.227,-457.520,-47.363,-56.152,-1000.000,0.000,0
1606143725.231,-235.840,-34.668,-46.387,-655.273,0.000,0
1606143725.235,255.859,-9.766,-20.020,546.387,0.000,0
1606143725.239,384.277,-10.742,-2.930,-955.566,0.000,0
1606143725.243,-40.527,-30.762,-21.484,46.387,0.000,0
1606143725.247,-437.988,-49.316,-53.223,-1000.000,0.000,0
1606143725.251,-296.875,-52.246,-52.246,-764.160,0.000,0
1606143725.254,203.125,-38.574,-24.902,409.668,0.000,0
1606143725.258,399.902,-18.555,-3.906,-913.086,0.000,0
1606143725.262,21.484,-26.855,-19.043,199.707,0.000,0
1606143725.266,-418.945,-51.270,-44.922,-988.281,0.000,0
1606143725.270,-355.957,-44.434,-43.945,-857.910,0.000,0
1606143725.274,145.508,-17.578,-22.949,287.598,0.000,0
1606143725.278,400.391,-9.277,-9.277,-896.484,0.000,0
1606143725.282,73.730,-30.762,-22.461,370.605,0.000,0
1606143725.286,-391.113,-52.246,-43.945,-864.258,0.000,0
1606143725.290,-395.508,-51.758,-43.945,-952.148,0.000,0
1606143725.294,90.820,-29.297,-21.973,166.504,0.000,0
1606143725.297,402.344,-17.578,-1.465,-900.391,0.000,0
1606143725.301,149.414,-18.066,-20.020,522.949,0.000,0
1606143725.305,-338.379,-33.691,-57.129,-718.750,0.000,0
1606143725.309,-423.828,-49.316,-65.918,-1000.000,0.000,0
1606143725.313,42.969,-29.297,-34.180,27.832,0.000,0
1606143725.317,409.668,-4.395,7.324,-927.246,0.000,0
1606143725.321,206.055,-24.414,-0.977,632.812,0.000,0
1606143725.325,-300.781,-60.059,-38.574,-574.219,0.000,0
1606143725.329,-443.848,-50.781,-48.828,-1000.000,0.000,0
1606143725.333,-17.578,-20.508,-18.066,-103.027,0.000,0
1606143725.337,384.766,0.977,-2.930,-974.121,0.000,0
1606143725.340,258.301,-17.090,-20.508,735.352,0.000,0
1606143725.344,-245.605,-58.105,-40.039,-432.129,0.000,0
1606143725.348,-460.938,-52.734,-45.898,-1000.000,0.000,0
1606143725.352,-77.148,-32.227,-23.438,-264.160,0.000,0
1606143725.356,365.723,-17.578,-6.348,955.566,0.000,0
1606143725.360,296.875,-20.020,-9.277,830.078,0.000,0
1606143725.364,-197.754,-43.945,-29.785,-314.941,0.000,0
1606143725.368,-468.262,-46.875,-49.805,-1000.000,0.000,0
1606143725.372,-161.621,-28.809,-37.109,-458.984,0.000,0
1606143725.376,305.664,-12.695,-9.277,791.992,0.000,0
1606143725.379,327.637,-8.789,-5.859,933.105,0.000,0
1606143725.383,-146.484,-26.855,-31.250,-191.406,0.000,0
1606143725.387,-465.332,-54.199,-49.316,-1000.000,0.000,0
1606143725.391,-222.168,-54.688,-31.738,-593.262,0.000,0
1606143725.395,270.996,-12.207,2.930,644.531,0.000,0
1606143725.399,373.047,-0.488,-10.742,-989.258,0.000,0
1606143725.403,-80.078,-35.645,-44.922,-66.406,0.000,0
1606143725.407,-446.777,-41.992,-41.016,-1000.000,0.000,0
1606143725.411,-255.859,-20.996,-34.180,-702.637,0.000,0
1606143725.415,240.234,-7.324,-19.531,486.328,0.000,0
1606143725.419,409.668,2.441,-9.766,-930.176,0.000,0
1606143725.422,5.859,-9.766,-17.090,105.469,0.000,0
1606143725.426,-416.016,-29.785,-43.457,-1000.000,0.000,0
1606143725.430,-307.129,-20.020,-58.105,-804.688,0.000,0
1606143725.434,191.895,-5.371,-25.391,354.980,0.000,0
1606143725.438,413.086,-12.207,3.906,-900.879,0.000,0
1606143725.442,56.152,-28.320,-9.277,265.137,0.000,0
1606143725.446,-394.531,-55.176,-44.922,-949.707,0.000,0
1606143725.450,-354.980,-52.246,-41.992,-893.555,0.000,0
1606143725.454,144.531,-20.996,-6.348,241.699,0.000,0
1606143725.458,424.805,-1.953,2.441,-896.973,0.000,0
1606143725.462,125.977,-16.113,-10.742,433.594,0.000,0
1606143725.465,-352.539,-34.180,-43.457,-809.570,0.000,0
1606143725.469,-399.902,-32.715,-55.664,-982.910,0.000,0
1606143725.473,76.660,-25.879,-6.836,125.488,0.000,0
1606143725.477,411.621,-16.602,7.324,-909.668,0.000,0
1606143725.481,167.480,-19.043,-10.742,567.871,0.000,0
1606143725.485,-326.660,-34.668,-28.320,-659.180,0.000,0
1606143725.489,-433.105,-42.969,-39.551,-1000.000,0.000,0
1606143725.493,6.836,-33.203,-23.438,-23.926,0.000,0
1606143725.497,386.719,-16.113,0.977,-942.871,0.000,0
1606143725.501,217.773,-24.414,-5.371,678.223,0.000,0
1606143725.504,-284.668,-44.922,-39.062,-512.207,0.000,0
1606143725.508,-452.637,-48.828,-46.387,-1000.000,0.000,0
1606143725.512,-48.340,-31.250,-25.391,-184.570,0.000,0
1606143725.516,373.047,-15.625,-6.348,988.770,0.000,0
1606143725.520,283.691,-14.160,-10.254,784.180,0.000,0
1606143725.524,-222.656,-29.785,-41.992,-371.582,0.000,0
1606143725.528,-469.238,-51.270,-62.988,-1000.000,0.000,0
1606143725.532,-127.441,-55.176,-37.598,-369.141,0.000,0
1606143725.536,319.336,-34.668,-8.301,875.488,0.000,0
1606143725.540,300.293,-25.391,-4.395,868.652,0.000,0
1606143725.544,-187.012,-37.109,-31.738,-276.855,0.000,0
1606143725.547,-473.633,-41.504,-61.035,-1000.000,0.000,0
1606143725.551,-185.547,-29.785,-44.922,-519.531,0.000,0
1606143725.555,280.762,-13.672,-13.672,731.445,0.000,0
1606143725.559,323.730,-12.695,-6.348,962.891,0.000,0
1606143725.563,-139.648,-32.227,-30.273,-147.461,0.000,0
1606143725.567,-476.562,-55.176,-47.363,-1000.000,0.000,0
1606143725.571,-263.184,-72.754,-34.180,-648.438,0.000,0
1606143725.575,234.375,-43.457,-9.277,568.359,0.000,0
1606143725.579,370.605,-18.555,5.371,-958.984,0.000,0
1606143725.583,-63.477,-37.109,-10.742,4.395,0.000,0
1606143725.587,-457.520,-48.828,-44.922,-1000.000,0.000,0
1606143725.590,-311.035,-47.363,-46.875,-752.441,0.000,0
1606143725.594,185.547,-37.598,-17.578,422.852,0.000,0
1606143725.598,372.070,-27.832,-3.418,-919.434,0.000,0
1606143725.602,-12.207,-33.203,-25.391,163.574,0.000,0
1606143725.606,-439.941,-55.176,-58.105,-1000.000,0.000,0
1606143725.610,-362.793,-54.199,-54.199,-838.379,0.000,0
1606143725.614,159.180,-23.438,-20.996,311.035,0.000,0
1606143725.618,413.086,-10.742,-8.789,-897.461,0.000,0
1606143725.622,70.312,-26.855,-23.438,336.914,0.000,0
1606143725.626,-390.625,-45.410,-41.992,-892.578,0.000,0
1606143725.629,-393.555,-52.734,-58.105,-938.965,0.000,0
1606143725.633,97.168,-44.434,-33.203,184.082,0.000,0
1606143725.637,400.879,-22.949,-13.184,-900.391,0.000,0
1606143725.641,127.441,-26.855,-34.180,487.305,0.000,0
1606143725.645,-350.098,-50.781,-57.129,-750.000,0.000,0
1606143725.649,-424.316,-58.594,-52.734,-1000.000,0.000,0
1606143725.653,52.734,-26.367,-21.973,61.523,0.000,0
1606143725.657,406.738,6.836,-0.488,-920.410,0.000,0
1606143725.661,183.594,-12.207,-9.766,613.281,0.000,0
1606143725.665,-308.105,-44.434,-47.363,-595.215,0.000,0
1606143725.669,-446.777,-58.594,-63.477,-1000.000,0.000,0
1606143725.672,-19.043,-41.992,-36.621,-97.168,0.000,0
1606143725.676,390.137,-5.371,-6.348,-966.309,0.000,0
1606143725.680,261.230,-10.254,-5.859,726.074,0.000,0
1606143725.684,-243.652,-30.762,-35.156,-448.242,0.000,0
1606143725.688,-450.684,-44.922,-54.688,-1000.000,0.000,0
1606143725.692,-71.777,-31.250,-40.527,-253.418,0.000,0
1606143725.696,364.258,1.953,-13.672,951.172,0.000,0
1606143725.700,299.805,-8.301,-13.672,824.707,0.000,0
1606143725.704,-198.730,-41.016,-39.551,-321.777,0.000,0
1606143725.708,-458.984,-48.340,-44.922,-1000.000,0.000,0
1606143725.712,-138.672,-54.688,-32.715,-417.480,0.000,0
1606143725.715,328.613,-35.156,-4.883,828.613,0.000,0
1606143725.719,340.332,-3.906,-1.953,912.598,0.000,0
1606143725.723,-138.184,-24.414,-44.922,-214.355,0.000,0
1606143725.727,-454.102,-44.922,-59.570,-1000.000,0.000,0
1606143725.731,-202.148,-32.715,-28.320,-566.895,0.000,0
1606143725.735,288.086,-6.348,2.930,673.340,0.000,0
1606143725.739,377.441,-2.930,6.348,-999.023,0.000,0
1606143725.743,-79.102,-16.113,-17.578,-80.078,0.000,0
1606143725.747,-445.312,-37.109,-43.457,-1000.000,0.000,0
1606143725.751,-253.906,-43.457,-42.480,-684.082,0.000,0
1606143725.754,243.652,-17.090,-9.766,517.578,0.000,0
1606143725.758,399.902,0.000,2.441,-940.430,0.000,0
1606143725.762,-20.020,-17.090,-24.902,64.453,0.000,0
1606143725.766,-435.059,-47.852,-45.898,-1000.000,0.000,0
1606143725.770,-312.988,-56.641,-40.527,-783.203,0.000,0
1606143725.774,194.336,-21.484,-15.625,381.836,0.000,0
1606143725.778,404.785,-0.977,-9.277,-908.203,0.000,0
1606143725.782,35.645,-26.367,-26.367,240.234,0.000,0
1606143725.786,-399.902,-51.270,-40.039,-961.426,0.000,0
1606143725.790,-354.980,-47.852,-38.574,-881.348,0.000,0
1606143725.794,140.137,-17.090,-16.113,259.277,0.000,0
1606143725.797,418.457,-7.812,-2.930,-895.508,0.000,0
1606143725.801,107.422,-21.484,-25.879,409.180,0.000,0
1606143725.805,-370.117,-43.945,-57.617,-831.543,0.000,0
1606143725.809,-406.250,-51.758,-55.176,-974.121,0.000,0
1606143725.813,71.289,-22.949,-25.879,134.277,0.000,0
1606143725.817,399.414,-5.859,-5.859,-905.762,0.000,0
1606143725.821,158.203,-18.066,-16.602,541.504,0.000,0
1606143725.825,-329.590,-40.039,-41.992,-691.406,0.000,0
1606143725.829,-430.176,-36.133,-45.410,-1000.000,0.000,0
1606143725.833,20.508,-17.578,-30.273,3.906,0.000,0
1606143725.837,394.043,-5.859,-6.348,-936.035,0.000,0
1606143725.840,214.355,-22.949,-4.883,663.574,0.000,0
1606143725.844,-284.668,-43.457,-41.504,-529.785,0.000,0
1606143725.848,-445.801,-37.598,-46.875,-1000.000,0.000,0
1606143725.852,-32.715,-28.809,-26.855,-159.180,0.000,0
1606143725.856,379.883,-13.184,-14.648,-996.582,0.000,0
1606143725.860,265.137,-13.672,-20.020,765.137,0.000,0
1606143725.864,-237.793,-36.621,-41.992,-397.461,0.000,0
1606143725.868,-462.402,-34.668,-51.270,-1000.000,0.000,0
1606143725.872,-108.887,-23.438,-28.809,-326.660,0.000,0
1606143725.876,334.961,-14.648,-1.953,900.879,0.000,0
1606143725.879,306.152,-15.625,-5.371,859.863,0.000,0
1606143725.883,-188.965,-41.016,-33.203,-281.738,0.000,0
1606143725.887,-468.750,-55.664,-58.594,-1000.000,0.000,0
1606143725.891,-167.480,-40.039,-37.109,-479.004,0.000,0
1606143725.895,302.246,-17.578,2.930,767.578,0.000,0
1606143725.899,339.844,-19.531,0.977,948.730,0.000,0
1606143725.903,-134.766,-36.621,-28.809,-162.109,0.000,0
1606143725.907,-459.473,-39.551,-38.086,-1000.000,0.000,0
1606143725.911,-239.746,-40.039,-25.879,-626.953,0.000,0
1606143725.915,239.746,-26.367,-12.695,602.051,0.000,0
1606143725.919,361.816,-4.883,-12.207,-976.562,0.000,0
1606143725.922,-79.102,-20.020,-34.668,-36.133,0.000,0
1606143725.926,-456.543,-48.340,-49.805,-1000.000,0.000,0
1606143725.930,-283.691,-41.016,-32.715,-727.051,0.000,0
1606143725.934,207.031,-17.578,-15.625,454.102,0.000,0
1606143725.938,378.906,-3.906,-13.184,-921.875,0.000,0
1606143725.942,-4.395,-25.391,-17.578,143.555,0.000,0
1606143725.946,-422.852,-46.875,-38.086,-1000.000,0.000,0
1606143725.950,-334.473,-39.062,-41.992,-832.031,0.000,0
1606143725.954,169.922,-20.508,-11.719,317.871,0.000,0
1606143725.958,409.180,-14.160,-4.395,-900.879,0.000,0
1606143725.962,67.871,-22.949,-23.926,310.547,0.000,0
1606143725.965,-392.090,-44.434,-50.781,-909.668,0.000,0
1606143725.969,-392.090,-47.852,-64.941,-928.223,0.000,0
1606143725.973,102.051,-21.973,-32.715,198.730,0.000,0
1606143725.977,396.484,-6.348,-8.301,-896.973,0.000,0
1606143725.981,109.375,-15.625,-21.484,464.355,0.000,0
1606143725.985,-363.281,-38.574,-37.109,-776.855,0.000,0
1606143725.989,-414.062,-27.832,-48.828,-1000.000,0.000,0
1606143725.993,48.340,1.953,-33.691,87.891,0.000,0
1606143725.997,379.395,-10.254,-13.184,-918.945,0.000,0
1606143726.001,167.480,-33.203,-19.531,601.562,0.000,0
1606143726.004,-315.430,-49.316,-33.691,-613.281,0.000,0
1606143726.008,-439.453,-57.617,-38.086,-1000.000,0.000,0
1606143726.012,-11.230,-51.758,-20.020,-59.570,0.000,0
1606143726.016,372.070,-31.250,-1.953,-958.496,0.000,0
1606143726.020,231.934,-20.508,-7.324,718.262,0.000,0
1606143726.024,-270.996,-37.109,-43.457,-456.543,0.000,0
1606143726.028,-470.703,-50.293,-61.523,-1000.000,0.000,0
1606143726.032,-79.590,-38.574,-28.320,-232.422,0.000,0
1606143726.036,351.074,-19.531,-16.113,966.309,0.000,0
1606143726.040,273.926,-22.461,-23.438,805.664,0.000,0
1606143726.044,-229.492,-44.922,-30.762,-346.680,0.000,0
1606143726.047,-478.516,-54.688,-47.852,-1000.000,0.000,0
1606143726.051,-140.137,-42.480,-33.203,-401.367,0.000,0
1606143726.055,316.895,-28.809,-13.184,842.285,0.000,0
1606143726.059,312.988,-29.785,-9.766,895.996,0.000,0
1606143726.063,-172.852,-40.527,-35.645,-240.234,0.000,0
1606143726.067,-474.121,-40.039,-57.129,-1000.000,0.000,0
1606143726.071,-203.613,-24.414,-36.133,-555.176,0.000,0
1606143726.075,280.762,-3.418,-17.578,687.988,0.000,0
1606143726.079,368.652,4.395,-12.695,990.234,0.000,0
1606143726.083,-93.262,-26.367,-31.738,-102.051,0.000,0
1606143726.087,-461.914,-51.758,-55.176,-1000.000,0.000,0
1606143726.090,-256.836,-52.246,-38.086,-678.223,0.000,0
1606143726.094,236.816,-37.598,-15.137,528.320,0.000,0
1606143726.098,376.465,-15.625,-18.555,-952.148,0.000,0
1606143726.102,-51.270,-29.297,-26.855,31.738,0.000,0
1606143726.106,-447.266,-44.922,-45.898,-1000.000,0.000,0
1606143726.110,-304.199,-39.062,-54.199,-773.438,0.000,0
1606143726.114,200.195,-13.672,-20.996,393.555,0.000,0
1606143726.118,403.320,-0.977,2.441,-911.133,0.000,0
1606143726.122,31.738,-18.555,-13.184,216.797,0.000,0
1606143726.126,-403.320,-42.480,-38.574,-976.562,0.000,0
1606143726.129,-342.773,-36.621,-33.203,-866.211,0.000,0
1606143726.133,156.250,-18.555,-4.395,278.320,0.000,0
1606143726.137,411.621,-7.324,-3.418,-895.508,0.000,0
1606143726.141,87.402,-17.578,-25.391,378.906,0.000,0
1606143726.145,-380.371,-35.156,-43.945,-857.422,0.000,0
1606143726.149,-397.949,-41.016,-48.340,-961.426,0.000,0
1606143726.153,89.844,-28.809,-19.531,154.297,0.000,0
1606143726.157,407.715,-8.789,0.488,-903.320,0.000,0
1606143726.161,150.879,-15.137,-12.207,532.715,0.000,0
1606143726.165,-329.102,-30.273,-34.180,-702.148,0.000,0
1606143726.169,-417.969,-40.527,-46.387,-1000.000,0.000,0
1606143726.172,33.203,-31.738,-30.273,22.949,0.000,0
1606143726.176,403.809,-10.254,-4.395,-930.176,0.000,0
1606143726.180,212.891,-9.766,-15.625,647.949,0.000,0
1606143726.184,-291.992,-37.109,-47.852,-551.758,0.000,0
1606143726.188,-444.824,-40.039,-55.176,-1000.000,0.000,0
1606143726.192,-32.715,-1.465,-32.227,-142.578,0.000,0
1606143726.196,377.441,11.230,-1.953,-987.793,0.000,0
1606143726.200,258.301,-10.742,-7.324,743.164,0.000,0
1606143726.204,-255.371,-42.969,-42.480,-426.758,0.000,0
1606143726.208,-471.680,-52.734,-48.828,-1000.000,0.000,0
1606143726.212,-96.191,-27.344,-32.227,-299.316,0.000,0
1606143726.215,310.547,-7.812,-15.625,880.859,0.000,0
1606143726.219,248.047,-17.090,-17.090,791.016,0.000,0
1606143726.223,-205.078,-34.668,-32.715,-292.969,0.000,0
1606143726.227,-480.957,-39.551,-48.828,-1000.000,0.000,0
1606143726.231,-170.898,-19.531,-40.527,-471.680,0.000,0
1606143726.235,315.430,-13.672,-10.254,779.297,0.000,0
1606143726.239,345.215,-18.555,-6.348,938.477,0.000,0
1606143726.243,-136.230,-32.227,-34.180,-180.664,0.000,0
1606143726.247,-461.426,-46.875,-40.527,-1000.000,0.000,0
1606143726.251,-218.262,-34.668,-29.297,-603.027,0.000,0
1606143726.254,270.996,-13.184,-15.137,628.418,0.000,0
1606143726.258,373.535,-7.324,-1.953,-979.004,0.000,0
1606143726.262,-75.195,-36.133,-25.879,-39.062,0.000,0
1606143726.266,-459.473,-61.523,-55.664,-1000.000,0.000,0
1606143726.270,-283.203,-39.551,-47.852,-710.938,0.000,0
1606143726.274,225.098,-10.254,-14.648,480.957,0.000,0
1606143726.278,391.602,-12.695,-5.859,-929.199,0.000,0
1606143726.282,-10.254,-27.344,-24.414,118.164,0.000,0
1606143726.286,-427.734,-49.805,-44.922,-1000.000,0.000,0
1606143726.290,-315.918,-45.410,-31.250,-810.059,0.000,0
1606143726.294,181.152,-16.113,-0.977,345.215,0.000,0
1606143726.297,400.391,-4.883,1.465,-902.344,0.000,0
1606143726.301,64.453,-22.461,-31.250,290.039,0.000,0
1606143726.305,-389.648,-48.340,-59.082,-931.152,0.000,0
1606143726.309,-372.070,-47.852,-43.945,-912.109,0.000,0
1606143726.313,126.953,-20.996,-11.719,219.727,0.000,0
1606143726.317,419.434,-13.672,0.488,-894.043,0.000,0
1606143726.321,122.070,-34.180,-18.555,442.871,0.000,0
1606143726.325,-362.793,-54.199,-47.852,-800.293,0.000,0
1606143726.329,-414.062,-51.758,-57.617,-999.512,0.000,0
1606143726.333,73.730,-14.160,-21.484,97.656,0.000,0
1606143726.337,419.922,2.441,-3.906,-912.598,0.000,0
1606143726.340,183.105,-17.578,-35.645,573.730,0.000,0
1606143726.344,-315.918,-44.434,-63.477,-649.902,0.000,0
1606143726.348,-424.805,-41.992,-56.152,-1000.000,0.000,0
1606143726.352,30.273,-21.973,-31.738,-37.598,0.000,0
1606143726.356,409.180,-13.184,-14.160,-950.684,0.000,0
1606143726.360,234.375,-21.484,-12.695,697.266,0.000,0
1606143726.364,-270.020,-49.316,-41.504,-484.863,0.000,0
1606143726.368,-456.543,-51.270,-57.617,-1000.000,0.000,0
1606143726.372,-62.988,-17.090,-27.832,-206.543,0.000,0
1606143726.376,357.422,-6.836,-14.648,978.027,0.000,0
1606143726.379,270.996,-12.207,-19.043,793.945,0.000,0
1606143726.383,-224.121,-32.715,-28.320,-360.352,0.000,0
1606143726.387,-468.750,-57.617,-54.688,-1000.000,0.000,0
1606143726.391,-127.930,-43.457,-46.387,-376.953,0.000,0
1606143726.395,328.613,-24.414,-12.695,863.281,0.000,0
1606143726.399,315.918,-29.297,-12.695,887.695,0.000,0
1606143726.403,-173.340,-44.922,-39.062,-244.629,0.000,0
1606143726.407,-473.145,-56.152,-50.781,-1000.000,0.000,0
1606143726.411,-172.852,-45.898,-31.738,-496.582,0.000,0
1606143726.415,313.477,-18.555,-0.488,761.230,0.000,0
1606143726.419,354.492,-12.207,-5.371,970.215,0.000,0
1606143726.422,-118.652,-41.992,-41.016,-129.395,0.000,0
1606143726.426,-461.914,-56.641,-59.570,-1000.000,0.000,0
1606143726.430,-240.723,-41.504,-44.434,-656.250,0.000,0
1606143726.434,250.488,-20.508,-13.672,555.176,0.000,0
1606143726.438,383.301,-20.508,0.000,-957.520,0.000,0
1606143726.442,-46.875,-37.109,-18.555,15.625,0.000,0
1606143726.446,-443.848,-49.805,-46.875,-1000.000,0.000,0
1606143726.450,-302.734,-49.316,-38.086,-763.184,0.000,0
1606143726.454,213.867,-18.555,7.812,408.203,0.000,0
1606143726.458,417.480,-6.348,7.324,-912.109,0.000,0
1606143726.462,23.926,-29.297,-41.992,186.035,0.000,0
1606143726.465,-411.621,-48.340,-53.223,-996.582,0.000,0
1606143726.469,-342.773,-36.621,-39.062,-856.934,0.000,0
1606143726.473,156.250,-9.766,-20.508,285.156,0.000,0
1606143726.477,416.504,-10.254,-6.348,-894.531,0.000,0
1606143726.481,90.820,-21.484,-24.414,355.469,0.000,0
1606143726.485,-375.977,-41.016,-46.387,-880.371,0.000,0
1606143726.489,-380.371,-50.293,-33.203,-946.289,0.000,0
1606143726.493,106.934,-32.227,-12.695,174.805,0.000,0
1606143726.497,410.156,-16.113,-7.812,-903.809,0.000,0
1606143726.501,143.555,-24.414,-18.555,514.160,0.000,0
1606143726.504,-338.867,-40.527,-51.270,-718.750,0.000,0
1606143726.508,-424.316,-41.992,-55.664,-1000.000,0.000,0
1606143726.512,32.227,-29.297,-25.879,35.156,0.000,0
1606143726.516,393.066,-11.719,0.488,-926.270,0.000,0
1606143726.520,198.730,-18.555,-3.906,631.836,0.000,0
1606143726.524,-294.922,-42.969,-30.273,-572.754,0.000,0
1606143726.528,-445.801,-52.734,-53.223,-1000.000,0.000,0
1606143726.532,-27.344,-37.109,-43.457,-107.422,0.000,0
1606143726.536,388.184,-8.301,-9.277,-974.121,0.000,0
1606143726.540,260.742,-12.207,-12.695,736.816,0.000,0
1606143726.544,-250.977,-45.410,-45.898,-434.082,0.000,0
1606143726.547,-456.055,-49.805,-49.805,-1000.000,0.000,0
1606143726.551,-76.172,-17.578,-17.090,-258.301,0.000,0
1606143726.555,361.328,-3.906,6.836,943.359,0.000,0
1606143726.559,294.434,-10.254,-4.395,827.148,0.000,0
1606143726.563,-204.590,-31.250,-24.414,-317.871,0.000,0
1606143726.567,-461.426,-47.363,-38.574,-1000.000,0.000,0
1606143726.571,-153.320,-26.367,-35.645,-445.312,0.000,0
1606143726.575,307.617,-10.742,-15.625,804.199,0.000,0
1606143726.579,330.078,-20.996,-16.602,923.340,0.000,0
1606143726.583,-151.855,-41.016,-40.527,-201.172,0.000,0
1606143726.587,-473.145,-59.570,-54.688,-1000.000,0.000,0
1606143726.590,-226.074,-55.176,-34.180,-594.238,0.000,0
1606143726.594,258.789,-31.738,-8.789,642.090,0.000,0
1606143726.598,359.375,-22.949,-3.418,-987.305,0.000,0
1606143726.602,-99.609,-41.992,-28.809,-64.941,0.000,0
1606143726.606,-473.145,-54.199,-51.758,-1000.000,0.000,0
1606143726.610,-281.738,-32.715,-43.457,-702.637,0.000,0
1606143726.614,223.145,-14.160,-20.996,491.211,0.000,0
1606143726.618,391.602,-14.648,-5.859,-933.594,0.000,0
1606143726.622,-20.996,-34.668,-28.320,96.191,0.000,0
1606143726.626,-437.012,-52.246,-52.246,-1000.000,0.000,0
1606143726.629,-325.684,-43.457,-38.086,-795.410,0.000,0
1606143726.633,176.758,-24.902,-12.695,367.188,0.000,0
1606143726.637,388.672,-15.625,-12.695,-908.203,0.000,0
1606143726.641,33.691,-23.926,-28.320,261.719,0.000,0
1606143726.645,-403.320,-43.945,-50.293,-944.336,0.000,0
1606143726.649,-372.070,-38.086,-50.293,-895.020,0.000,0
1606143726.653,127.441,-1.953,-12.695,245.605,0.000,0
1606143726.657,403.320,-10.254,-1.953,-895.996,0.000,0
1606143726.661,102.539,-39.062,-22.949,427.246,0.000,0
1606143726.665,-367.676,-48.340,-35.645,-812.500,0.000,0
1606143726.669,-410.156,-41.992,-35.156,-980.957,0.000,0
1606143726.672,67.871,-20.996,-9.766,127.930,0.000,0
1606143726.676,397.461,-6.348,6.348,-910.156,0.000,0
1606143726.680,165.039,-17.090,-10.254,567.383,0.000,0
1606143726.684,-321.289,-45.898,-48.828,-660.156,0.000,0
1606143726.688,-432.617,-41.992,-49.316,-1000.000,0.000,0
1606143726.692,12.207,-15.625,-22.949,-9.766,0.000,0
1606143726.696,390.625,-9.766,-22.461,-941.895,0.000,0
1606143726.700,224.121,-18.555,-16.113,679.688,0.000,0
1606143726.704,-279.297,-43.945,-23.438,-510.254,0.000,0
1606143726.708,-457.031,-51.270,-41.016,-1000.000,0.000,0
1606143726.712,-62.988,-36.133,-26.855,-179.199,0.000,0
1606143726.715,355.957,-29.785,-8.789,990.234,0.000,0
1606143726.719,264.648,-30.273,-20.996,776.855,0.000,0
1606143726.723,-236.816,-38.086,-46.387,-381.836,0.000,0
1606143726.727,-465.332,-45.410,-57.617,-1000.000,0.000,0
1606143726.731,-113.770,-30.762,-31.250,-349.609,0.000,0
1606143726.735,339.355,-10.742,-1.465,884.277,0.000,0
1606143726.739,320.801,-15.137,-5.859,881.836,0.000,0
1606143726.743,-176.270,-39.062,-33.203,-251.953,0.000,0
1606143726.747,-479.004,-62.988,-52.246,-1000.000,0.000,0
1606143726.751,-192.383,-41.992,-35.156,-514.160,0.000,0
1606143726.754,283.203,-11.230,-13.672,738.281,0.000,0
1606143726.758,333.496,-9.277,-10.254,959.473,0.000,0
1606143726.762,-134.766,-28.809,-32.227,-149.902,0.000,0
1606143726.766,-474.121,-48.828,-47.852,-1000.000,0.000,0
1606143726.770,-254.883,-35.156,-43.945,-642.578,0.000,0
1606143726.774,237.793,-18.555,-24.414,575.684,0.000,0
1606143726.778,367.188,-12.695,-10.742,-966.797,0.000,0
1606143726.782,-64.941,-22.949,-29.297,-3.906,0.000,0
1606143726.786,-450.684,-46.387,-49.805,-1000.000,0.000,0
1606143726.790,-294.922,-31.250,-42.969,-750.000,0.000,0
1606143726.794,213.379,-2.930,-17.578,427.734,0.000,0
1606143726.797,403.320,-10.742,-8.301,-919.434,0.000,0
1606143726.801,18.555,-31.738,-21.973,162.598,0.000,0
1606143726.805,-404.785,-40.039,-39.551,-1000.000,0.000,0
1606143726.809,-333.496,-39.551,-41.016,-846.191,0.000,0
1606143726.813,162.598,-28.809,-24.902,297.852,0.000,0
1606143726.817,414.551,-12.207,-13.184,-897.949,0.000,0
1606143726.821,80.566,-24.902,-19.531,351.074,0.000,0
1606143726.825,-382.324,-51.758,-35.156,-885.254,0.000,0
1606143726.829,-373.047,-44.922,-36.621,-931.641,0.000,0
1606143726.833,122.559,-13.184,-20.508,201.172,0.000,0
1606143726.837,408.691,-8.789,-10.254,-900.391,0.000,0
1606143726.840,132.324,-15.137,-18.555,495.117,0.000,0
1606143726.844,-347.656,-27.832,-38.574,-742.676,0.000,0
1606143726.848,-422.363,-34.180,-45.898,-1000.000,0.000,0
1606143726.852,41.016,-18.066,-19.531,66.406,0.000,0
1606143726.856,391.113,-11.230,-5.371,-923.340,0.000,0
1606143726.860,190.430,-20.508,-22.461,624.023,0.000,0
1606143726.864,-300.781,-53.711,-38.574,-580.078,0.000,0
1606143726.868,-440.918,-57.129,-47.852,-1000.000,0.000,0
1606143726.872,-11.719,-26.855,-24.902,-80.566,0.000,0
1606143726.876,389.160,-11.230,9.766,-965.820,0.000,0
1606143726.879,252.930,-8.789,5.371,728.516,0.000,0
1606143726.883,-253.418,-33.691,-23.926,-443.359,0.000,0
1606143726.887,-459.473,-52.246,-41.992,-1000.000,0.000,0
1606143726.891,-83.496,-31.738,-35.156,-258.301,0.000,0
1606143726.895,354.492,-6.836,-16.113,945.312,0.000,0
1606143726.899,290.039,-8.789,-22.461,814.941,0.000,0
1606143726.903,-217.285,-43.457,-42.480,-337.402,0.000,0
1606143726.907,-477.051,-51.758,-47.852,-1000.000,0.000,0
1606143726.911,-142.578,-28.809,-23.438,-422.363,0.000,0
1606143726.915,327.637,-4.395,-2.441,824.707,0.000,0
1606143726.919,339.844,-2.441,-3.906,914.551,0.000,0
1606143726.922,-146.484,-40.527,-30.762,-212.891,0.000,0
1606143726.926,-465.820,-56.152,-54.688,-1000.000,0.000,0
1606143726.930,-204.102,-22.461,-36.133,-571.289,0.000,0
1606143726.934,281.250,4.883,-13.184,669.922,0.000,0
1606143726.938,360.840,-0.977,-14.648,-999.512,0.000,0
1606143726.942,-96.680,-27.832,-33.203,-82.031,0.000,0
1606143726.946,-460.449,-47.363,-50.293,-1000.000,0.000,0
1606143726.950,-270.996,-43.945,-40.527,-688.965,0.000,0
1606143726.954,222.168,-25.879,-8.789,509.766,0.000,0
1606143726.958,379.883,-16.113,-7.324,-940.430,0.000,0
1606143726.962,-37.109,-26.855,-36.133,71.289,0.000,0
1606143726.965,-444.824,-39.062,-43.457,-1000.000,0.000,0
1606143726.969,-316.406,-38.574,-44.434,-786.133,0.000,0
1606143726.973,180.664,-25.879,-28.809,377.441,0.000,0
1606143726.977,389.160,-14.160,-13.672,-906.738,0.000,0
1606143726.981,32.715,-21.973,-34.668,239.258,0.000,0
1606143726.985,-407.715,-50.293,-56.152,-963.867,0.000,0
1606143726.989,-366.699,-51.758,-54.688,-882.812,0.000,0
1606143726.993,130.859,-23.438,-26.855,256.348,0.000,0
1606143726.997,400.391,-11.719,-14.648,-896.484,0.000,0
1606143727.001,84.473,-28.320,-31.738,409.180,0.000,0
1606143727.004,-376.953,-45.898,-53.711,-827.637,0.000,0
1606143727.008,-410.645,-51.270,-51.270,-980.469,0.000,0
1606143727.012,56.152,-31.738,-21.484,125.488,0.000,0
1606143727.016,393.066,-7.812,-7.324,-908.691,0.000,0
1606143727.020,152.832,-22.949,-26.855,556.641,0.000,0
1606143727.024,-335.938,-50.781,-41.016,-669.922,0.000,0
1606143727.028,-440.430,-56.641,-51.758,-1000.000,0.000,0
1606143727.032,6.836,-25.879,-40.527,-17.090,0.000,0
1606143727.036,390.137,-3.418,-10.742,-936.523,0.000,0
1606143727.040,228.027,-20.020,-18.555,663.086,0.000,0
1606143727.044,-277.344,-33.691,-42.480,-529.297,0.000,0
1606143727.047,-459.961,-38.574,-48.828,-1000.000,0.000,0
1606143727.051,-49.805,-24.902,-33.203,-167.969,0.000,0
1606143727.055,371.582,-9.766,-15.137,999.023,0.000,0
1606143727.059,266.113,-13.672,-27.832,770.996,0.000,0
1606143727.063,-233.887,-34.180,-46.387,-392.090,0.000,0
1606143727.067,-439.941,-44.922,-36.621,-1000.000,0.000,0
1606143727.071,-91.309,-36.133,-19.043,-322.266,0.000,0
1606143727.075,334.961,-18.555,-11.230,895.996,0.000,0
1606143727.079,305.176,-5.859,-15.625,868.652,0.000,0
1606143727.083,-179.688,-22.949,-35.645,-267.090,0.000,0
1606143727.087,-471.680,-41.016,-45.410,-1000.000,0.000,0
1606143727.090,-172.852,-39.062,-29.297,-496.094,0.000,0
1606143727.094,306.641,-14.160,-5.371,754.883,0.000,0
1606143727.098,336.426,-13.184,-10.254,953.125,0.000,0
1606143727.102,-133.301,-39.551,-32.715,-153.809,0.000,0
1606143727.106,-469.727,-52.734,-55.664,-1000.000,0.000,0
1606143727.110,-244.629,-47.363,-47.852,-628.906,0.000,0
1606143727.114,256.836,-15.137,-12.695,600.586,0.000,0
1606143727.118,373.535,-1.465,-1.465,-973.633,0.000,0
1606143727.122,-71.777,-29.785,-22.461,-28.809,0.000,0
1606143727.126,-452.148,-46.875,-49.316,-1000.000,0.000,0
1606143727.129,-290.039,-52.734,-53.223,-740.234,0.000,0
1606143727.133,206.055,-49.316,-31.738,437.500,0.000,0
1606143727.137,395.020,-21.484,-13.184,-923.828,0.000,0
1606143727.141,6.348,-23.438,-27.344,137.207,0.000,0
1606143727.145,-430.664,-41.992,-51.270,-1000.000,0.000,0
1606143727.149,-334.961,-34.180,-46.875,-835.449,0.000,0
1606143727.153,175.293,-9.766,-18.555,312.012,0.000,0
1606143727.157,416.016,-3.418,-7.324,-897.949,0.000,0
1606143727.161,77.148,-14.160,-19.043,321.777,0.000,0
1606143727.165,-384.277,-35.156,-39.551,-905.273,0.000,0
1606143727.169,-374.512,-42.480,-42.969,-927.734,0.000,0
1606143727.172,115.234,-24.414,-11.230,198.730,0.000,0
1606143727.176,415.527,-2.930,4.395,-899.414,0.000,0
1606143727.180,132.812,-20.996,-16.602,489.258,0.000,0
1606143727.184,-350.098,-55.176,-41.016,-753.418,0.000,0
1606143727.188,-412.109,-43.457,-41.016,-1000.000,0.000,0
1606143727.192,50.781,-15.625,-20.020,81.543,0.000,0
1606143727.196,400.391,-7.324,2.441,-918.945,0.000,0
1606143727.200,183.594,-19.531,-2.930,607.422,0.000,0
1606143727.204,-314.941,-38.574,-39.062,-604.980,0.000,0
1606143727.208,-441.895,-36.133,-49.805,-1000.000,0.000,0
1606143727.212,-6.836,-18.555,-24.414,-66.895,0.000,0
1606143727.215,384.766,-9.277,2.441,-959.473,0.000,0
1606143727.219,232.910,-11.230,-10.254,709.473,0.000,0
1606143727.223,-271.484,-30.762,-47.363,-465.820,0.000,0
1606143727.227,-468.262,-60.059,-59.082,-1000.000,0.000,0
1606143727.231,-83.008,-48.340,-36.133,-254.883,0.000,0
1606143727.235,361.816,-7.324,-2.930,954.102,0.000,0
1606143727.239,297.363,-0.977,-5.371,804.199,0.000,0
1606143727.243,-207.031,-21.484,-40.527,-352.051,0.000,0
1606143727.247,-462.402,-30.762,-53.711,-1000.000,0.000,0
1606143727.251,-122.070,-20.508,-25.879,-414.551,0.000,0
1606143727.254,342.285,-3.906,4.395,832.520,0.000,0
1606143727.258,330.078,-0.488,0.488,903.320,0.000,0
1606143727.262,-163.086,-26.367,-31.250,-228.027,0.000,0
1606143727.266,-477.539,-45.898,-45.410,-1000.000,0.000,0
1606143727.270,-208.984,-45.410,-26.367,-562.012,0.000,0
1606143727.274,273.438,-33.203,-10.742,680.664,0.000,0
1606143727.278,353.516,-23.926,-3.418,989.746,0.000,0
1606143727.282,-98.633,-41.992,-26.855,-99.609,0.000,0
1606143727.286,-460.938,-49.316,-47.363,-1000.000,0.000,0
1606143727.290,-263.184,-27.344,-30.762,-674.805,0.000,0
1606143727.294,235.840,-3.906,-5.371,528.320,0.000,0
1606143727.297,376.465,0.977,-5.371,-945.801,0.000,0
1606143727.301,-43.457,-17.090,-31.250,51.758,0.000,0
1606143727.305,-443.359,-44.922,-53.223,-1000.000,0.000,0
1606143727.309,-319.824,-52.246,-44.434,-782.715,0.000,0
1606143727.313,187.500,-31.250,-4.883,380.859,0.000,0
1606143727.317,398.926,-10.742,8.301,-908.691,0.000,0
1606143727.321,27.832,-24.902,-23.438,232.910,0.000,0
1606143727.325,-409.180,-47.852,-41.504,-969.727,0.000,0
1606143727.329,-354.980,-51.270,-31.250,-866.699,0.000,0
1606143727.333,142.090,-29.297,-7.812,279.785,0.000,0
1606143727.337,410.156,-2.441,6.836,-897.461,0.000,0
1606143727.340,96.191,-8.301,-18.555,395.996,0.000,0
1606143727.344,-369.629,-32.227,-47.852,-841.309,0.000,0
1606143727.348,-390.137,-40.039,-41.016,-965.820,0.000,0
1606143727.352,91.797,-22.461,-9.766,149.414,0.000,0
1606143727.356,409.180,-10.254,0.000,-905.273,0.000,0
1606143727.360,158.203,-26.855,-11.230,541.016,0.000,0
1606143727.364,-328.613,-47.852,-40.527,-691.895,0.000,0
1606143727.368,-422.363,-54.688,-42.480,-1000.000,0.000,0
1606143727.372,34.668,-37.109,-19.531,13.672,0.000,0
1606143727.376,402.344,-21.484,-9.277,-934.570,0.000,0
1606143727.379,217.773,-20.020,-16.602,660.156,0.000,0
1606143727.383,-283.691,-36.133,-37.598,-535.645,0.000,0
1606143727.387,-450.195,-45.410,-46.387,-1000.000,0.000,0
1606143727.391,-32.715,-20.508,-26.855,-139.648,0.000,0
1606143727.395,378.906,0.488,-4.883,-987.305,0.000,0
1606143727.399,257.324,-11.230,-10.254,756.836,0.000,0
1606143727.403,-245.117,-44.922,-31.738,-404.785,0.000,0
1606143727.407,-465.820,-45.410,-49.805,-1000.000,0.000,0
1606143727.411,-106.934,-48.340,-29.785,-325.684,0.000,0
1606143727.415,337.891,-32.227,-7.324,905.762,0.000,0
1606143727.419,298.340,-5.371,-10.254,854.004,0.000,0
1606143727.422,-205.566,-37.598,-41.504,-293.945,0.000,0
1606143727.426,-480.957,-48.340,-61.035,-1000.000,0.000,0
1606143727.430,-171.875,-25.879,-34.668,-483.887,0.000,0
1606143727.434,297.852,-8.301,-10.254,763.672,0.000,0
1606143727.438,340.332,-7.812,-11.719,945.801,0.000,0
1606143727.442,-136.719,-33.203,-35.156,-171.875,0.000,0
1606143727.446,-474.121,-48.340,-50.781,-1000.000,0.000,0
1606143727.450,-234.863,-35.156,-35.156,-619.141,0.000,0
1606143727.454,267.090,-14.160,-6.348,610.840,0.000,0
1606143727.458,380.371,-12.207,-6.348,-979.004,0.000,0
1606143727.462,-64.941,-38.086,-33.691,-28.320,0.000,0
1606143727.465,-464.355,-65.430,-56.641,-1000.000,0.000,0
1606143727.469,-262.207,-52.734,-45.410,-675.293,0.000,0
1606143727.473,263.184,-17.578,-13.184,552.734,0.000,0
1606143727.477,392.090,-11.230,-3.418,-937.012,0.000,0
1606143727.481,-5.371,-31.738,-34.668,116.699,0.000,0
1606143727.485,-421.387,-45.410,-51.758,-1000.000,0.000,0
1606143727.489,-323.730,-31.250,-32.227,-821.777,0.000,0
1606143727.493,189.453,-10.254,-11.230,331.055,0.000,0
1606143727.497,414.062,-6.348,-12.207,-904.297,0.000,0
1606143727.501,49.805,-27.344,-39.062,288.574,0.000,0
1606143727.504,-394.531,-44.434,-58.105,-922.363,0.000,0
1606143727.508,-375.488,-47.363,-49.316,-915.039,0.000,0
1606143727.512,115.234,-36.133,-21.484,214.355,0.000,0
1606143727.516,404.297,-24.414,-6.348,-900.879,0.000,0
1606143727.520,125.000,-25.391,-19.043,486.328,0.000,0
1606143727.524,-364.746,-36.621,-42.480,-796.875,0.000,0
1606143727.528,-386.230,-36.133,-43.457,-923.340,0.000,0
1606143727.532,104.980,-17.090,-24.414,233.398,0.000,0
1606143727.536,403.320,0.977,-9.766,-930.664,0.000,0
1606143727.540,184.570,-8.789,-18.066,599.609,0.000,0
1606143727.544,-318.848,-41.504,-40.039,-613.281,0.000,0
1606143727.547,-452.637,-54.199,-49.805,-1000.000,0.000,0
1606143727.551,-16.113,-34.180,-28.809,-50.781,0.000,0
1606143727.555,379.395,-15.137,-6.836,-955.078,0.000,0
1606143727.559,236.816,-24.414,-14.160,713.379,0.000,0
1606143727.563,-261.230,-41.992,-33.691,-466.797,0.000,0
1606143727.567,-448.730,-41.992,-36.621,-1000.000,0.000,0
1606143727.571,-60.059,-26.855,-28.809,-207.520,0.000,0
1606143727.575,367.676,-5.371,-19.531,969.238,0.000,0
1606143727.579,291.992,-3.418,-14.160,808.594,0.000,0
1606143727.583,-207.520,-21.973,-36.621,-339.844,0.000,0
1606143727.587,-461.914,-37.109,-57.129,-1000.000,0.000,0
1606143727.590,-122.559,-18.555,-35.645,-401.855,0.000,0
1606143727.594,339.355,0.977,-8.301,842.285,0.000,0
1606143727.598,317.383,-14.160,-12.695,889.648,0.000,0
1606143727.602,-174.316,-48.340,-35.645,-250.488,0.000,0
1606143727.606,-473.145,-67.871,-57.129,-1000.000,0.000,0
1606143727.610,-199.219,-45.898,-41.992,-552.734,0.000,0
1606143727.614,286.133,-14.648,-12.207,693.359,0.000,0
1606143727.618,354.004,-10.254,-16.602,979.492,0.000,0
1606143727.622,-117.188,-31.738,-42.969,-120.605,0.000,0
1606143727.626,-462.402,-38.086,-59.570,-1000.000,0.000,0
1606143727.629,-248.047,-22.461,-42.969,-664.551,0.000,0
1606143727.633,243.652,-11.230,-10.742,541.016,0.000,0
1606143727.637,379.883,-9.277,-1.953,-952.148,0.000,0
1606143727.641,-46.387,-29.297,-24.902,36.621,0.000,0
1606143727.645,-447.754,-58.105,-47.363,-1000.000,0.000,0
1606143727.649,-310.059,-52.246,-38.574,-771.973,0.000,0
1606143727.653,199.707,-8.789,-15.625,394.043,0.000,0
1606143727.657,403.809,11.230,-2.930,-908.691,0.000,0
1606143727.661,20.508,-6.836,-23.926,220.215,0.000,0
1606143727.665,-422.363,-32.227,-50.293,-978.516,0.000,0
1606143727.669,-360.352,-40.039,-41.992,-863.281,0.000,0
1606143727.672,145.020,-17.578,-8.301,280.762,0.000,0
1606143727.676,409.180,-10.742,-1.953,-895.508,0.000,0
1606143727.680,85.938,-34.668,-21.973,389.160,0.000,0
1606143727.684,-380.859,-44.922,-39.062,-852.539,0.000,0
1606143727.688,-392.578,-47.363,-41.016,-958.984,0.000,0
1606143727.692,96.680,-46.875,-23.926,160.156,0.000,0
1606143727.696,415.527,-9.766,-8.301,-903.320,0.000,0
1606143727.700,155.762,-3.418,-26.855,531.250,0.000,0
1606143727.704,-331.055,-33.203,-55.664,-705.566,0.000,0
1606143727.708,-413.574,-29.785,-42.480,-1000.000,0.000,0
1606143727.712,42.969,-14.648,-19.531,28.320,0.000,0
1606143727.715,398.926,-7.324,-20.020,-931.641,0.000,0
1606143727.719,206.055,-10.254,-21.484,647.949,0.000,0
1606143727.723,-285.645,-38.086,-38.574,-543.945,0.000,0
1606143727.727,-441.895,-58.594,-53.223,-1000.000,0.000,0
1606143727.731,-44.922,-40.039,-30.762,-142.578,0.000,0
1606143727.735,360.352,-24.414,-1.953,-991.211,0.000,0
1606143727.739,245.605,-20.508,-7.812,752.441,0.000,0
1606143727.743,-265.137,-28.809,-37.598,-413.086,0.000,0
1606143727.747,-476.074,-35.645,-43.457,-1000.000,0.000,0
1606143727.751,-104.492,-16.113,-40.039,-307.129,0.000,0
1606143727.754,340.332,3.418,-21.973,916.504,0.000,0
1606143727.758,299.805,-6.348,-16.113,852.539,0.000,0
1606143727.762,-194.824,-26.367,-32.715,-292.480,0.000,0
1606143727.766,-468.262,-47.363,-40.527,-1000.000,0.000,0
1606143727.770,-156.250,-54.688,-39.062,-454.102,0.000,0
1606143727.774,318.359,-27.344,-13.672,792.480,0.000,0
1606143727.778,349.609,-1.953,-6.348,941.406,0.000,0
1606143727.782,-133.789,-19.043,-26.855,-172.852,0.000,0
1606143727.786,-464.355,-36.621,-36.621,-1000.000,0.000,0
1606143727.790,-221.680,-31.250,-40.527,-601.074,0.000,0
1606143727.794,265.137,-19.043,-29.297,628.418,0.000,0
1606143727.797,366.211,-12.207,-16.113,-979.492,0.000,0
1606143727.801,-72.754,-24.414,-28.320,-35.156,0.000,0
1606143727.805,-446.777,-48.340,-44.434,-1000.000,0.000,0
1606143727.809,-277.832,-43.457,-33.203,-711.914,0.000,0
1606143727.813,227.051,-24.414,-7.324,478.516,0.000,0
1606143727.817,395.020,-9.766,-6.348,-927.246,0.000,0
1606143727.821,-15.625,-20.508,-25.391,121.582,0.000,0
1606143727.825,-436.035,-38.574,-43.945,-1000.000,0.000,0
1606143727.829,-333.984,-44.434,-50.781,-811.523,0.000,0
1606143727.833,168.457,-44.922,-29.785,343.262,0.000,0
1606143727.837,402.344,-24.414,-6.836,-900.879,0.000,0
1606143727.840,58.594,-22.461,-21.484,295.410,0.000,0
1606143727.844,-393.066,-34.668,-45.898,-927.246,0.000,0
1606143727.848,-365.234,-33.203,-43.457,-906.250,0.000,0
1606143727.852,128.418,-13.672,-18.066,227.051,0.000,0
1606143727.856,413.086,-6.348,-0.488,-898.438,0.000,0
1606143727.860,126.953,-14.648,-14.160,465.332,0.000,0
1606143727.864,-349.609,-30.762,-42.480,-777.344,0.000,0
1606143727.868,-406.738,-45.410,-53.711,-998.535,0.000,0
1606143727.872,65.430,-56.152,-23.926,102.539,0.000,0
1606143727.876,408.691,-24.414,3.906,-914.551,0.000,0
1606143727.879,175.781,-0.977,-16.602,590.820,0.000,0
1606143727.883,-324.219,-33.203,-45.898,-631.348,0.000,0
1606143727.887,-439.941,-48.340,-39.551,-1000.000,0.000,0
1606143727.891,2.441,-27.832,-14.160,-37.109,0.000,0
1606143727.895,387.207,-4.883,-5.371,-953.125,0.000,0
1606143727.899,236.328,-13.184,-25.391,698.242,0.000,0
1606143727.903,-270.020,-39.551,-28.320,-482.422,0.000,0
1606143727.907,-464.844,-37.598,-25.879,-1000.000,0.000,0
1606143727.911,-70.801,-27.832,-24.414,-201.172,0.000,0
1606143727.915,355.469,-4.395,-11.230,976.562,0.000,0
1606143727.919,279.785,0.488,-9.766,799.316,0.000,0
1606143727.922,-215.820,-27.832,-39.551,-353.027,0.000,0
1606143727.926,-462.402,-35.645,-48.828,-1000.000,0.000,0
1606143727.930,-125.977,-35.645,-25.391,-373.047,0.000,0
1606143727.934,326.172,-25.391,-17.578,862.305,0.000,0
1606143727.938,321.289,-13.672,-8.789,891.602,0.000,0
1606143727.942,-165.527,-18.555,-23.438,-240.723,0.000,0
1606143727.946,-472.656,-31.738,-43.945,-1000.000,0.000,0
1606143727.950,-199.707,-24.902,-26.367,-536.133,0.000,0
1606143727.954,281.250,-1.465,-4.395,708.496,0.000,0
1606143727.958,344.727,0.488,-13.184,976.074,0.000,0
1606143727.962,-121.094,-23.926,-33.203,-123.535,0.000,0
1606143727.965,-472.656,-41.992,-52.734,-1000.000,0.000,0
1606143727.969,-257.324,-55.664,-43.457,-668.457,0.000,0
1606143727.973,241.699,-55.176,-15.625,542.480,0.000,0
1606143727.977,375.000,-16.113,-12.695,-954.102,0.000,0
1606143727.981,-57.129,-29.297,-32.227,20.020,0.000,0
1606143727.985,-455.078,-52.734,-49.316,-1000.000,0.000,0
1606143727.989,-315.918,-37.598,-43.945,-768.066,0.000,0
1606143727.993,193.359,-20.020,-5.371,399.902,0.000,0
1606143727.997,400.879,-16.113,10.742,-914.551,0.000,0
1606143728.001,19.531,-22.461,-18.555,197.266,0.000,0
1606143728.004,-421.387,-30.273,-45.898,-982.910,0.000,0
1606143728.008,-367.188,-58.105,-44.434,-868.164,0.000,0
1606143728.012,134.277,-65.430,-22.461,271.484,0.000,0
1606143728.016,401.855,-22.461,-4.395,-895.996,0.000,0
1606143728.020,79.590,-12.695,-19.531,380.859,0.000,0
1606143728.024,-383.301,-33.691,-40.039,-857.910,0.000,0
1606143728.028,-394.043,-39.062,-28.320,-948.730,0.000,0
1606143728.032,96.680,-14.160,-4.395,173.828,0.000,0
1606143728.036,414.551,9.277,10.742,-901.855,0.000,0
1606143728.040,149.902,-12.207,-5.371,528.809,0.000,0
1606143728.044,-340.820,-35.645,-43.945,-715.332,0.000,0
1606143728.047,-420.410,-41.016,-43.457,-1000.000,0.000,0
1606143728.051,48.828,-61.523,-21.484,57.129,0.000,0
1606143728.055,402.344,-27.344,-11.230,-927.246,0.000,0
1606143728.059,199.707,-7.324,-11.719,642.578,0.000,0
1606143728.063,-286.621,-25.879,-34.668,-552.246,0.000,0
1606143728.067,-442.383,-30.273,-44.922,-1000.000,0.000,0
1606143728.071,-36.133,-27.832,-26.855,-119.629,0.000,0
1606143728.075,374.512,-9.766,-12.695,-979.004,0.000,0
1606143728.079,246.582,-18.555,-24.414,743.164,0.000,0
1606143728.083,-260.742,-43.457,-50.781,-424.316,0.000,0
1606143728.087,-469.238,-39.062,-62.012,-1000.000,0.000,0
1606143728.090,-98.633,-18.555,-39.551,-295.898,0.000,0
1606143728.094,356.934,-3.418,-10.742,924.805,0.000,0
1606143728.098,314.453,-8.789,-13.184,835.938,0.000,0
1606143728.102,-202.637,-35.645,-42.969,-315.430,0.000,0
1606143728.106,-487.305,-45.898,-59.570,-1000.000,0.000,0
1606143728.110,-182.129,-64.941,-39.062,-479.004,0.000,0
1606143728.114,288.574,-41.504,-3.906,776.855,0.000,0
1606143728.118,319.824,-9.277,-8.789,926.758,0.000,0
1606143728.122,-157.227,-37.109,-35.156,-202.637,0.000,0
1606143728.126,-478.516,-46.875,-36.133,-1000.000,0.000,0
1606143728.129,-219.238,-31.738,-25.879,-610.352,0.000,0
1606143728.133,271.973,-4.883,-11.719,622.559,0.000,0
1606143728.137,354.980,-1.465,-6.348,-987.305,0.000,0
1606143728.141,-91.797,-29.297,-37.598,-56.641,0.000,0
1606143728.145,-455.566,-40.527,-57.617,-1000.000,0.000,0
1606143728.149,-280.273,-46.387,-35.645,-703.613,0.000,0
1606143728.153,216.309,-54.199,-2.441,487.793,0.000,0
1606143728.157,377.441,-27.832,-3.906,-930.664,0.000,0
1606143728.161,-32.227,-31.738,-28.320,112.305,0.000,0
1606143728.165,-446.777,-52.734,-49.805,-1000.000,0.000,0
1606143728.169,-332.520,-41.992,-45.410,-811.523,0.000,0
1606143728.172,176.270,-13.184,-20.508,343.750,0.000,0
1606143728.176,398.926,1.953,-13.184,-902.832,0.000,0
1606143728.180,44.922,-20.020,-18.555,285.156,0.000,0
1606143728.184,-398.438,-37.598,-38.086,-933.105,0.000,0
1606143728.188,-360.352,-50.293,-45.898,-896.973,0.000,0
1606143728.192,142.578,-45.410,-18.555,242.188,0.000,0
1606143728.196,424.316,-6.348,-3.906,-895.508,0.000,0
1606143728.200,125.488,-13.184,-20.508,448.730,0.000,0
1606143728.204,-351.074,-36.621,-39.551,-793.457,0.000,0
1606143728.208,-403.809,-45.410,-45.898,-997.070,0.000,0
1606143728.212,65.430,-34.668,-43.457,102.051,0.000,0
1606143728.215,404.297,-8.301,-21.484,-912.109,0.000,0
1606143728.219,168.945,-14.648,-19.531,571.289,0.000,0
1606143728.223,-322.754,-42.480,-41.504,-649.902,0.000,0
1606143728.227,-434.570,-49.805,-51.758,-1000.000,0.000,0
1606143728.231,7.324,-34.180,-39.062,-33.691,0.000,0
1606143728.235,384.277,-13.672,-9.766,-974.121,0.000,0
1606143728.239,224.121,-15.625,-8.789,659.180,0.000,0
1606143728.243,-264.648,-43.945,-31.250,-479.492,0.000,0
1606143728.247,-446.289,-44.434,-46.875,-1000.000,0.000,0
1606143728.251,-53.711,-64.941,-33.203,-213.379,0.000,0
1606143728.254,372.070,-56.641,-2.930,979.492,0.000,0
1606143728.258,282.715,-8.301,-19.043,782.227,0.000,0
1606143728.262,-226.562,-28.809,-57.129,-378.418,0.000,0
1606143728.266,-469.727,-44.434,-61.035,-1000.000,0.000,0
1606143728.270,-131.348,-26.367,-31.250,-376.953,0.000,0
1606143728.274,320.312,-4.883,-6.348,864.258,0.000,0
1606143728.278,309.082,-5.859,-7.812,882.324,0.000,0
1606143728.282,-178.711,-38.086,-33.691,-257.812,0.000,0
1606143728.286,-465.820,-46.387,-41.504,-1000.000,0.000,0
1606143728.290,-181.641,-45.410,-26.367,-522.461,0.000,0
1606143728.294,294.922,-23.926,-13.184,723.145,0.000,0
1606143728.297,355.957,3.906,-12.207,973.633,0.000,0
1606143728.301,-115.723,-32.715,-27.832,-126.953,0.000,0
1606143728.305,-469.238,-54.199,-44.434,-1000.000,0.000,0
1606143728.309,-252.441,-36.621,-43.457,-661.621,0.000,0
1606143728.313,246.582,-8.301,-11.230,548.340,0.000,0
1606143728.317,382.812,0.000,14.160,-953.125,0.000,0
1606143728.321,-40.039,-14.648,-9.766,28.320,0.000,0
1606143728.325,-441.406,-35.156,-50.781,-1000.000,0.000,0
1606143728.329,-299.805,-51.758,-47.363,-752.441,0.000,0
1606143728.333,212.891,-33.691,-20.508,425.781,0.000,0
1606143728.337,401.855,-9.766,-7.812,-916.016,0.000,0
1606143728.340,15.137,-32.715,-20.508,182.129,0.000,0
1606143728.344,-416.016,-50.781,-48.340,-997.559,0.000,0
1606143728.348,-347.656,-49.316,-43.457,-850.098,0.000,0
1606143728.352,155.762,-31.250,-6.348,295.410,0.000,0
1606143728.356,408.203,-5.371,11.230,-895.996,0.000,0
1606143728.360,78.613,-14.648,-19.043,372.070,0.000,0
1606143728.364,-390.625,-41.504,-57.129,-866.699,0.000,0
1606143728.368,-398.438,-42.480,-59.082,-947.754,0.000,0
1606143728.372,98.145,-19.531,-32.227,176.758,0.000,0
1606143728.376,405.762,-15.625,-8.789,-902.832,0.000,0
1606143728.379,144.043,-19.043,-17.090,512.695,0.000,0
1606143728.383,-334.473,-35.645,-37.598,-723.145,0.000,0
1606143728.387,-416.504,-52.246,-41.504,-1000.000,0.000,0
1606143728.391,44.922,-38.086,-26.367,48.340,0.000,0
1606143728.395,402.832,-14.160,-8.789,-926.758,0.000,0
1606143728.399,202.637,-13.672,-14.648,634.277,0.000,0
1606143728.403,-294.922,-39.551,-45.898,-567.871,0.000,0
1606143728.407,-441.406,-39.551,-56.152,-1000.000,0.000,0
1606143728.411,-13.672,-25.391,-34.668,-100.098,0.000,0
1606143728.415,392.578,-19.043,-12.695,-971.191,0.000,0
1606143728.419,262.207,-18.555,-17.090,737.305,0.000,0
1606143728.422,-232.422,-35.156,-24.414,-428.223,0.000,0
1606143728.426,-441.895,-47.363,-40.039,-1000.000,0.000,0
1606143728.430,-82.031,-49.316,-46.387,-281.738,0.000,0
1606143728.434,354.492,-23.926,-24.414,934.570,0.000,0
1606143728.438,296.875,-8.301,-22.949,825.195,0.000,0
1606143728.442,-210.938,-35.156,-49.316,-326.172,0.000,0
1606143728.446,-482.422,-43.457,-68.359,-1000.000,0.000,0
1606143728.450,-175.293,-38.086,-47.363,-458.984,0.000,0
1606143728.454,295.898,-22.461,-9.766,791.992,0.000,0
1606143728.458,322.754,-14.160,-2.930,926.270,0.000,0
1606143728.462,-158.691,-34.668,-21.973,-198.730,0.000,0
1606143728.465,-474.609,-45.410,-43.945,-1000.000,0.000,0
1606143728.469,-223.145,-39.551,-45.410,-586.914,0.000,0
1606143728.473,271.484,-19.043,-20.508,651.367,0.000,0
1606143728.477,365.723,-5.371,-13.184,-989.258,0.000,0
1606143728.481,-97.168,-28.320,-32.715,-60.059,0.000,0
1606143728.485,-466.797,-42.969,-53.223,-1000.000,0.000,0
1606143728.489,-279.785,-58.105,-41.504,-704.590,0.000,0
1606143728.493,223.633,-43.457,-4.883,489.258,0.000,0
1606143728.497,388.184,-4.883,-1.465,-930.176,0.000,0
1606143728.501,-20.508,-28.809,-30.762,102.539,0.000,0
1606143728.504,-437.500,-60.547,-54.199,-1000.000,0.000,0
1606143728.508,-324.219,-47.363,-48.828,-804.688,0.000,0
1606143728.512,181.641,-18.555,-21.484,351.562,0.000,0
1606143728.516,408.203,-6.348,-5.859,-900.391,0.000,0
1606143728.520,57.617,-24.414,-24.902,283.691,0.000,0
1606143728.524,-393.555,-43.945,-57.617,-937.988,0.000,0
1606143728.528,-363.281,-44.434,-47.363,-895.508,0.000,0
1606143728.532,132.812,-59.570,-20.020,243.164,0.000,0
1606143728.536,413.574,-35.156,-13.184,-897.461,0.000,0
1606143728.540,116.211,-13.184,-25.391,437.012,0.000,0
1606143728.544,-354.980,-32.227,-46.875,-803.711,0.000,0
1606143728.547,-395.020,-44.922,-45.410,-987.793,0.000,0
1606143728.551,79.102,-44.434,-25.879,118.164,0.000,0
1606143728.555,416.504,-20.020,-3.906,-910.156,0.000,0
1606143728.559,181.152,-12.207,-8.301,568.359,0.000,0
1606143728.563,-310.059,-28.320,-50.781,-658.203,0.000,0
1606143728.567,-420.410,-34.668,-61.035,-1000.000,0.000,0
1606143728.571,13.672,-44.922,-29.785,-16.602,0.000,0
1606143728.575,375.488,-29.297,-11.230,-940.918,0.000,0
1606143728.579,192.383,-20.508,-9.766,665.527,0.000,0
1606143728.583,-311.035,-39.551,-24.902,-520.020,0.000,0
1606143728.587,-492.676,-51.758,-35.156,-1000.000,0.000,0
1606143728.590,-106.934,-46.387,-7.812,-204.102,0.000,0
1606143728.594,312.500,-25.879,21.973,984.375,0.000,0
1606143728.598,223.145,-23.438,15.625,774.414,0.000,0
1606143728.602,-287.598,-47.852,-10.742,-387.207,0.000,0
1606143728.606,-538.574,-61.035,-17.090,-1000.000,0.000,0
1606143728.610,-198.730,-53.223,8.301,-384.277,0.000,0
1606143728.614,271.484,-32.715,39.062,868.164,0.000,0
1606143728.618,256.348,-33.691,34.180,867.188,0.000,0
1606143728.622,-249.512,-59.082,-1.465,-284.668,0.000,0
1606143728.626,-533.691,-52.734,-18.555,-1000.000,0.000,0
1606143728.629,-245.117,-61.035,-17.090,-533.203,0.000,0
1606143728.633,234.863,-62.012,12.207,719.238,0.000,0
1606143728.637,292.969,-29.785,28.809,959.961,0.000,0
1606143728.641,-176.758,-38.086,-3.418,-156.250,0.000,0
1606143728.645,-505.371,-48.340,-26.855,-1000.000,0.000,0
1606143728.649,-278.320,-39.551,-19.043,-644.531,0.000,0
1606143728.653,216.309,-18.066,7.812,569.824,0.000,0
1606143728.657,347.168,-14.648,4.883,-959.473,0.000,0
1606143728.661,-85.449,-40.039,-32.227,5.859,0.000,0
1606143728.665,-470.703,-64.453,-41.016,-1000.000,0.000,0
1606143728.669,-317.383,-61.523,-26.367,-755.859,0.000,0
1606143728.672,187.500,-39.062,-13.672,417.480,0.000,0
1606143728.676,386.719,-15.625,-5.371,-914.062,0.000,0
1606143728.680,10.742,-20.020,-0.977,182.129,0.000,0
1606143728.684,-414.551,-50.781,-25.879,-999.512,0.000,0
1606143728.688,-343.750,-57.129,-36.133,-846.680,0.000,0
1606143728.692,157.227,-26.855,0.488,300.781,0.000,0
1606143728.696,411.133,-9.277,6.836,-897.949,0.000,0
1606143728.700,73.242,-31.738,-22.461,349.609,0.000,0
1606143728.704,-392.578,-56.641,-46.387,-884.766,0.000,0
1606143728.708,-392.578,-56.641,-47.852,-937.012,0.000,0
1606143728.712,97.168,-48.828,-13.672,191.895,0.000,0
1606143728.715,398.926,-29.297,-3.906,-899.902,0.000,0
1606143728.719,125.488,-29.297,-22.461,493.652,0.000,0
1606143728.723,-354.004,-62.500,-40.039,-741.211,0.000,0
1606143728.727,-431.152,-76.660,-51.758,-1000.000,0.000,0
1606143728.731,38.086,-41.504,-21.484,54.688,0.000,0
1606143728.735,400.879,-7.324,3.906,-924.805,0.000,0
1606143728.739,198.730,-22.461,-15.625,633.301,0.000,0
1606143728.743,-296.875,-45.898,-44.922,-572.754,0.000,0
1606143728.747,-438.477,-42.480,-52.734,-1000.000,0.000,0
1606143728.751,-7.812,-25.391,-31.250,-77.148,0.000,0
1606143728.754,394.531,-13.184,-8.789,-966.309,0.000,0
1606143728.758,257.324,-16.113,-19.043,739.258,0.000,0
1606143728.762,-247.559,-42.480,-46.875,-426.270,0.000,0
1606143728.766,-450.195,-55.664,-41.504,-1000.000,0.000,0
1606143728.770,-76.660,-55.664,-26.367,-251.953,0.000,0
1606143728.774,356.445,-27.344,-11.719,950.684,0.000,0
1606143728.778,299.805,-8.301,-6.348,823.242,0.000,0
1606143728.782,-194.336,-44.922,-27.344,-324.219,0.000,0
1606143728.786,-454.590,-54.688,-42.480,-1000.000,0.000,0
1606143728.790,-133.789,-25.879,-32.227,-422.852,0.000,0
1606143728.794,332.031,-0.977,-10.254,816.406,0.000,0
1606143728.797,342.773,-7.812,-5.371,926.270,0.000,0
1606143728.801,-139.648,-34.180,-31.250,-193.359,0.000,0
1606143728.805,-456.055,-41.504,-51.270,-1000.000,0.000,0
1606143728.809,-200.195,-29.297,-34.668,-573.242,0.000,0
1606143728.813,288.086,-17.578,-16.602,663.086,0.000,0
1606143728.817,380.371,-10.254,-11.230,-994.141,0.000,0
1606143728.821,-79.102,-34.180,-33.691,-68.848,0.000,0
1606143728.825,-447.266,-43.945,-49.316,-1000.000,0.000,0
1606143728.829,-257.812,-38.574,-30.273,-684.570,0.000,0
1606143728.833,234.863,-29.785,-10.254,514.160,0.000,0
1606143728.837,393.066,-7.812,-5.859,-936.035,0.000,0
1606143728.840,-17.090,-20.508,-17.090,93.750,0.000,0
1606143728.844,-430.664,-44.922,-31.738,-1000.000,0.000,0
1606143728.848,-320.801,-50.293,-36.133,-788.574,0.000,0
1606143728.852,190.430,-29.785,-12.695,379.883,0.000,0
1606143728.856,412.109,-1.953,-3.418,-908.691,0.000,0
1606143728.860,37.109,-10.254,-26.367,246.094,0.000,0
1606143728.864,-402.832,-33.691,-48.828,-955.078,0.000,0
1606143728.868,-360.352,-38.086,-47.852,-882.812,0.000,0
1606143728.872,127.930,-24.414,-20.996,253.906,0.000,0
1606143728.876,408.203,-6.836,0.488,-894.043,0.000,0
1606143728.879,110.840,-18.066,-17.578,440.430,0.000,0
1606143728.883,-371.094,-44.922,-53.711,-812.012,0.000,0
1606143728.887,-414.551,-51.270,-49.805,-974.121,0.000,0
1606143728.891,65.918,-29.785,-24.414,143.066,0.000,0
1606143728.895,395.996,-16.602,-17.578,-909.180,0.000,0
1606143728.899,159.180,-25.879,-25.391,567.871,0.000,0
1606143728.903,-329.102,-42.969,-55.176,-661.621,0.000,0
1606143728.907,-432.129,-41.504,-54.688,-1000.000,0.000,0
1606143728.911,21.484,-37.109,-23.438,-2.441,0.000,0
1606143728.915,390.625,-34.180,-16.602,-940.918,0.000,0
1606143728.919,218.262,-23.926,-15.625,681.641,0.000,0
1606143728.922,-274.414,-35.156,-41.504,-503.906,0.000,0
1606143728.926,-444.824,-37.109,-62.012,-1000.000,0.000,0
1606143728.930,-46.875,-26.367,-29.297,-167.969,0.000,0
1606143728.934,362.793,-15.137,-2.441,995.605,0.000,0
1606143728.938,261.230,-7.812,-14.160,780.273,0.000,0
1606143728.942,-238.281,-29.297,-38.086,-375.000,0.000,0
1606143728.946,-474.609,-46.875,-52.734,-1000.000,0.000,0
1606143728.950,-125.000,-39.062,-43.945,-348.633,0.000,0
1606143728.954,328.613,-22.949,-14.648,884.766,0.000,0
1606143728.958,306.641,-11.719,-8.301,871.582,0.000,0
1606143728.962,-181.152,-34.668,-36.133,-267.090,0.000,0
1606143728.965,-464.355,-50.293,-57.617,-1000.000,0.000,0
1606143728.969,-171.875,-29.785,-43.457,-502.930,0.000,0
1606143728.973,304.199,1.953,-19.531,747.070,0.000,0
1606143728.977,357.422,-0.488,-9.277,964.355,0.000,0
1606143728.981,-115.234,-34.180,-36.621,-142.090,0.000,0
1606143728.985,-464.844,-47.363,-60.547,-1000.000,0.000,0
1606143728.989,-235.352,-32.715,-49.316,-627.441,0.000,0
1606143728.993,261.719,-7.324,-16.113,594.238,0.000,0
1606143728.997,380.371,-7.324,1.465,-963.379,0.000,0
1606143729.001,-58.594,-27.832,-23.438,-1.465,0.000,0
1606143729.004,-450.684,-41.016,-48.340,-1000.000,0.000,0
1606143729.008,-296.387,-33.203,-37.598,-742.188,0.000,0
1606143729.012,204.590,-3.906,-12.695,437.988,0.000,0
1606143729.016,388.672,-1.465,-1.465,-922.852,0.000,0
1606143729.020,1.953,-25.391,-23.926,148.926,0.000,0
1606143729.024,-424.805,-43.457,-51.758,-1000.000,0.000,0
1606143729.028,-338.867,-46.387,-41.016,-844.238,0.000,0
1606143729.032,165.527,-19.043,-3.418,303.711,0.000,0
1606143729.036,402.344,-5.371,-6.836,-899.902,0.000,0
1606143729.040,64.453,-30.762,-32.227,321.289,0.000,0
1606143729.044,-384.766,-49.805,-52.734,-901.367,0.000,0
1606143729.047,-376.953,-40.527,-58.594,-929.199,0.000,0
1606143729.051,112.793,-20.508,-18.555,198.242,0.000,0
1606143729.055,418.457,-5.859,5.371,-899.414,0.000,0
1606143729.059,142.578,-23.926,-14.160,488.281,0.000,0
1606143729.063,-340.332,-51.270,-37.598,-750.977,0.000,0
1606143729.067,-408.691,-41.016,-47.363,-1000.000,0.000,0
1606143729.071,57.129,-22.949,-23.438,69.824,0.000,0
1606143729.075,402.344,-15.137,1.953,-924.316,0.000,0
1606143729.079,187.012,-21.484,-1.953,631.836,0.000,0
1606143729.083,-298.828,-37.109,-28.320,-571.777,0.000,0
1606143729.087,-430.176,-33.691,-47.363,-1000.000,0.000,0
1606143729.090,-13.184,-25.391,-38.086,-91.309,0.000,0
1606143729.094,377.441,-12.207,-8.789,-970.703,0.000,0
1606143729.098,247.070,-14.648,-2.930,739.746,0.000,0
1606143729.102,-237.793,-42.969,-41.504,-426.758,0.000,0
1606143729.106,-442.871,-45.410,-61.035,-1000.000,0.000,0
1606143729.110,-99.121,-28.320,-29.785,-273.438,0.000,0
1606143729.114,320.312,-17.578,-0.488,943.848,0.000,0
1606143729.118,265.137,-20.996,1.465,813.965,0.000,0
1606143729.122,-241.211,-42.480,-23.438,-340.820,0.000,0
1606143729.126,-504.883,-51.758,-42.969,-1000.000,0.000,0
1606143729.129,-174.805,-32.715,-22.461,-435.547,0.000,0
1606143729.133,295.898,-0.488,-1.465,814.941,0.000,0
1606143729.137,313.965,-0.977,-14.648,904.785,0.000,0
1606143729.141,-165.039,-32.715,-39.551,-233.398,0.000,0
1606143729.145,-473.145,-50.781,-51.270,-1000.000,0.000,0
1606143729.149,-213.379,-43.457,-33.691,-572.266,0.000,0
1606143729.153,268.066,-23.926,-10.254,667.969,0.000,0
1606143729.157,348.633,-20.020,-17.578,997.559,0.000,0
1606143729.161,-105.957,-40.527,-40.039,-84.473,0.000,0
1606143729.165,-458.984,-57.617,-58.594,-1000.000,0.000,0
1606143729.169,-255.859,-43.945,-43.945,-679.688,0.000,0
1606143729.172,239.258,-15.625,-8.301,520.508,0.000,0
1606143729.176,385.742,-17.578,-3.418,-941.406,0.000,0
1606143729.180,-27.832,-41.992,-37.598,72.266,0.000,0
1606143729.184,-433.105,-61.035,-59.570,-1000.000,0.000,0
1606143729.188,-318.359,-49.805,-49.316,-790.039,0.000,0
1606143729.192,185.059,-15.625,-13.184,373.047,0.000,0
1606143729.196,402.344,-11.719,0.488,-905.762,0.000,0
1606143729.200,40.527,-25.391,-26.855,248.535,0.000,0
1606143729.204,-404.785,-52.734,-52.734,-959.961,0.000,0
1606143729.208,-357.910,-49.805,-42.480,-879.395,0.000,0
1606143729.212,149.902,-16.113,-6.348,265.625,0.000,0
1606143729.215,420.410,-11.719,-2.441,-898.438,0.000,0
1606143729.219,104.492,-22.461,-24.902,407.715,0.000,0
1606143729.223,-365.723,-44.922,-42.969,-825.684,0.000,0
1606143729.227,-401.855,-50.781,-49.805,-979.492,0.000,0
1606143729.231,71.289,-24.414,-27.344,129.883,0.000,0
1606143729.235,397.461,-14.648,-5.371,-907.715,0.000,0
1606143729.239,161.621,-21.973,-19.043,551.758,0.000,0
1606143729.243,-320.801,-34.668,-49.805,-675.781,0.000,0
1606143729.247,-425.781,-39.062,-52.734,-1000.000,0.000,0
1606143729.251,28.320,-29.785,-24.902,-1.465,0.000,0
1606143729.254,400.879,-13.184,-10.742,-939.453,0.000,0
1606143729.258,231.445,-7.812,-13.184,676.270,0.000,0
1606143729.262,-263.184,-35.156,-41.504,-514.648,0.000,0
1606143729.266,-442.383,-55.176,-52.734,-1000.000,0.000,0
1606143729.270,-34.668,-56.641,-22.949,-142.090,0.000,0
1606143729.274,379.883,-35.156,-12.695,-993.652,0.000,0
1606143729.278,276.367,-11.719,-17.578,771.484,0.000,0
1606143729.282,-220.215,-31.738,-36.621,-384.277,0.000,0
1606143729.286,-447.266,-46.387,-57.129,-1000.000,0.000,0
1606143729.290,-91.309,-20.508,-37.598,-335.938,0.000,0
1606143729.294,349.609,-5.859,-12.207,890.137,0.000,0
1606143729.297,325.195,-15.625,-6.836,874.023,0.000,0
1606143729.301,-164.062,-26.367,-32.227,-260.254,0.000,0
1606143729.305,-461.426,-44.434,-61.523,-1000.000,0.000,0
1606143729.309,-169.922,-41.504,-43.945,-482.910,0.000,0
1606143729.313,303.711,-20.996,-5.371,761.719,0.000,0
1606143729.317,346.191,-19.531,0.977,961.426,0.000,0
1606143729.321,-122.559,-35.156,-25.391,-139.648,0.000,0
1606143729.325,-457.031,-49.805,-58.105,-1000.000,0.000,0
1606143729.329,-233.398,-49.316,-53.223,-629.395,0.000,0
1606143729.333,259.766,-28.320,-21.484,595.703,0.000,0
1606143729.337,383.301,-11.230,-15.625,-963.379,0.000,0
1606143729.340,-51.270,-27.832,-32.715,-4.395,0.000,0
1606143729.344,-425.293,-43.945,-54.688,-1000.000,0.000,0
1606143729.348,-253.906,-24.902,-53.711,-730.469,0.000,0
1606143729.352,216.797,0.000,-16.602,445.312,0.000,0
1606143729.356,383.301,-1.953,-3.418,-922.363,0.000,0
1606143729.360,-2.441,-31.738,-38.574,146.973,0.000,0
1606143729.364,-443.848,-53.223,-51.270,-1000.000,0.000,0
1606143729.368,-372.070,-41.992,-31.250,-850.098,0.000,0
1606143729.372,117.676,-20.996,-12.695,294.922,0.000,0
1606143729.376,354.004,-4.395,-1.465,-900.879,0.000,0
1606143729.379,22.949,-8.301,-18.066,292.969,0.000,0
1606143729.383,-423.828,-33.203,-35.645,-912.598,0.000,0
1606143729.387,-423.340,-34.668,-40.039,-944.824,0.000,0
1606143729.391,56.641,-20.996,-35.156,162.109,0.000,0
1606143729.395,368.652,-10.742,-13.672,-897.949,0.000,0
1606143729.399,89.844,-25.391,-17.090,462.891,0.000,0
1606143729.403,-386.230,-54.199,-41.992,-776.367,0.000,0
1606143729.407,-431.152,-47.363,-38.574,-1000.000,0.000,0
1606143729.411,37.109,-31.250,-23.926,68.848,0.000,0
1606143729.415,377.441,-20.020,-13.672,-919.922,0.000,0
1606143729.419,169.922,-20.508,-20.020,606.445,0.000,0
1606143729.422,-317.871,-39.062,-49.316,-607.422,0.000,0
1606143729.426,-449.219,-45.898,-59.082,-1000.000,0.000,0
1606143729.430,-21.973,-26.367,-28.809,-74.219,0.000,0
1606143729.434,368.652,-0.488,-2.930,-963.379,0.000,0
1606143729.438,233.887,-5.859,-8.301,721.191,0.000,0
1606143729.442,-256.348,-31.738,-31.738,-452.637,0.000,0
1606143729.446,-450.195,-39.551,-41.016,-1000.000,0.000,0
1606143729.450,-75.195,-24.902,-24.414,-237.793,0.000,0
1606143729.454,360.840,-8.789,0.000,956.055,0.000,0
1606143729.458,298.828,-7.812,-2.441,814.941,0.000,0
1606143729.462,-205.566,-43.457,-36.133,-333.496,0.000,0
1606143729.465,-459.473,-61.035,-56.152,-1000.000,0.000,0
1606143729.469,-127.930,-30.762,-30.762,-416.016,0.000,0
1606143729.473,334.961,-15.625,-3.906,829.102,0.000,0
1606143729.477,343.262,-10.742,-15.137,914.062,0.000,0
1606143729.481,-143.066,-28.809,-39.551,-214.844,0.000,0
1606143729.485,-451.660,-47.852,-47.852,-1000.000,0.000,0
1606143729.489,-189.453,-30.762,-37.598,-555.176,0.000,0
1606143729.493,289.062,-5.371,-13.672,686.035,0.000,0
1606143729.497,373.535,-7.812,0.000,991.211,0.000,0
1606143729.501,-81.543,-24.414,-32.715,-94.727,0.000,0
1606143729.504,-446.777,-40.527,-57.617,-1000.000,0.000,0
1606143729.508,-254.395,-30.273,-41.016,-679.688,0.000,0
1606143729.512,237.305,3.418,-18.555,521.484,0.000,0
1606143729.516,389.160,-4.883,-5.371,-942.383,0.000,0
1606143729.520,-23.926,-41.992,-24.902,65.430,0.000,0
1606143729.524,-433.105,-55.176,-56.641,-1000.000,0.000,0
1606143729.528,-308.105,-38.086,-46.387,-787.598,0.000,0
1606143729.532,198.242,-17.578,-17.578,374.512,0.000,0
1606143729.536,414.551,-3.906,-4.883,-907.227,0.000,0
1606143729.540,49.805,-14.160,-21.973,235.840,0.000,0
1606143729.544,-399.902,-42.969,-45.410,-968.750,0.000,0
1606143729.547,-350.098,-41.504,-41.992,-870.117,0.000,0
1606143729.551,156.250,-7.324,-16.602,274.902,0.000,0
1606143729.555,416.992,-8.789,-7.812,-898.438,0.000,0
1606143729.559,95.703,-28.809,-30.762,385.254,0.000,0
1606143729.563,-373.047,-43.457,-57.129,-844.238,0.000,0
1606143729.567,-396.973,-53.223,-57.129,-971.191,0.000,0
1606143729.571,82.520,-36.621,-27.344,135.742,0.000,0
1606143729.575,404.785,-8.789,-3.418,-907.715,0.000,0
1606143729.579,163.086,-14.160,-7.812,551.270,0.000,0
1606143729.583,-331.055,-42.480,-41.504,-700.195,0.000,0
1606143729.587,-443.359,-52.734,-55.176,-1000.000,0.000,0
1606143729.590,7.812,-34.180,-30.273,71.289,0.000,0
1606143729.594,378.418,-18.066,-9.766,-947.754,0.000,0
1606143729.598,206.055,-20.020,-10.742,667.969,0.000,0
1606143729.602,-290.527,-41.992,-33.691,-521.973,0.000,0
1606143729.606,-467.285,-61.523,-56.152,-1000.000,0.000,0
1606143729.610,-58.594,-50.781,-42.969,-154.297,0.000,0
1606143729.614,355.469,-24.902,-20.996,-995.117,0.000,0
1606143729.618,250.000,-13.672,-30.273,762.207,0.000,0
1606143729.622,-252.930,-34.668,-53.223,-404.297,0.000,0
1606143729.626,-476.562,-47.363,-40.527,-1000.000,0.000,0
1606143729.629,-111.328,-26.855,-21.484,-330.078,0.000,0
1606143729.633,331.543,-8.789,-11.719,897.461,0.000,0
1606143729.637,293.457,-27.832,-16.113,858.887,0.000,0
1606143729.641,-190.430,-50.293,-43.945,-285.645,0.000,0
1606143729.645,-464.355,-43.457,-48.340,-1000.000,0.000,0
1606143729.649,-173.828,-33.691,-41.504,-493.164,0.000,0
1606143729.653,291.992,-32.227,-24.902,752.441,0.000,0
1606143729.657,341.309,-22.949,-6.836,955.078,0.000,0
1606143729.661,-124.512,-25.391,-34.668,-156.738,0.000,0
1606143729.665,-453.613,-37.598,-57.129,-1000.000,0.000,0
1606143729.669,-221.191,-28.809,-29.785,-625.977,0.000,0
1606143729.672,270.020,-2.930,7.324,597.656,0.000,0
1606143729.676,375.488,-0.488,-5.859,-969.727,0.000,0
1606143729.680,-70.801,-33.691,-37.109,-12.695,0.000,0
1606143729.684,-446.289,-51.270,-48.828,-1000.000,0.000,0
1606143729.688,-284.668,-34.668,-43.945,-735.352,0.000,0
1606143729.692,210.938,-13.672,-13.184,448.730,0.000,0
1606143729.696,390.625,-14.160,-5.371,-925.293,0.000,0
1606143729.700,-6.836,-33.203,-39.062,134.277,0.000,0
1606143729.704,-426.758,-51.270,-50.781,-1000.000,0.000,0
1606143729.708,-329.590,-45.898,-39.062,-827.148,0.000,0
1606143729.712,177.246,-14.648,-14.160,324.707,0.000,0
1606143729.715,413.574,-11.719,2.930,-901.855,0.000,0
1606143729.719,70.312,-35.645,-8.301,320.312,0.000,0
1606143729.723,-385.254,-48.828,-47.852,-899.902,0.000,0
1606143729.727,-378.418,-51.758,-53.711,-929.688,0.000,0
1606143729.731,106.934,-31.250,-13.184,197.266,0.000,0
1606143729.735,407.227,-2.930,9.766,-897.461,0.000,0
1606143729.739,139.648,-11.230,-8.789,474.121,0.000,0
1606143729.743,-342.773,-41.992,-44.922,-764.648,0.000,0
1606143729.747,-409.668,-49.316,-56.152,-1000.000,0.000,0
1606143729.751,60.547,-31.250,-31.250,69.336,0.000,0
1606143729.754,409.180,-11.719,-5.371,-921.387,0.000,0
1606143729.758,192.383,-19.043,-9.766,612.305,0.000,0
1606143729.762,-295.898,-43.457,-38.574,-596.680,0.000,0
1606143729.766,-426.758,-42.480,-50.781,-1000.000,0.000,0
1606143729.770,-30.762,-28.320,-25.391,-78.125,0.000,0
1606143729.774,378.906,-14.648,0.977,-962.402,0.000,0
1606143729.778,240.234,-18.555,-12.207,703.613,0.000,0
1606143729.782,-285.645,-33.203,-39.551,-478.516,0.000,0
1606143729.786,-466.797,-37.109,-43.457,-1000.000,0.000,0
1606143729.790,-104.980,-61.035,-25.391,-265.137,0.000,0
1606143729.794,315.918,-51.758,-4.395,951.172,0.000,0
1606143729.797,260.742,-17.090,-6.348,797.363,0.000,0
1606143729.801,-236.816,-33.691,-30.762,-362.793,0.000,0
1606143729.805,-481.445,-40.039,-44.434,-1000.000,0.000,0
1606143729.809,-145.020,-33.691,-30.762,-419.922,0.000,0
1606143729.813,321.777,-6.348,-7.812,827.637,0.000,0
1606143729.817,344.727,5.371,-9.766,903.809,0.000,0
1606143729.821,-130.859,-30.762,-41.016,-230.469,0.000,0
1606143729.825,-470.215,-47.852,-52.246,-1000.000,0.000,0
1606143729.829,-223.145,-47.852,-40.527,-562.988,0.000,0
1606143729.833,270.996,-25.391,-14.160,683.105,0.000,0
1606143729.837,359.375,-0.977,-6.836,987.793,0.000,0
1606143729.840,-103.516,-29.297,-36.133,-99.121,0.000,0
1606143729.844,-468.262,-46.875,-58.594,-1000.000,0.000,0
1606143729.848,-258.301,-36.133,-49.316,-687.012,0.000,0
1606143729.852,245.117,-13.672,-15.137,517.578,0.000,0
1606143729.856,380.859,3.418,-9.277,-945.801,0.000,0
1606143729.860,-39.551,-21.484,-38.086,51.270,0.000,0
1606143729.864,-431.152,-39.551,-43.945,-1000.000,0.000,0
1606143729.868,-300.781,-30.762,-20.996,-779.785,0.000,0
1606143729.872,198.730,-21.973,-6.836,386.230,0.000,0
1606143729.876,393.555,-18.066,-12.695,-910.156,0.000,0
1606143729.879,30.762,-25.391,-24.902,224.609,0.000,0
1606143729.883,-406.738,-44.922,-46.875,-970.703,0.000,0
1606143729.887,-360.840,-45.410,-55.176,-873.047,0.000,0
1606143729.891,134.766,-26.367,-28.809,268.555,0.000,0
1606143729.895,401.367,-7.324,-8.789,-897.461,0.000,0
1606143729.899,94.727,-21.973,-21.484,400.391,0.000,0
1606143729.903,-368.652,-51.270,-54.688,-836.914,0.000,0
1606143729.907,-393.555,-48.828,-50.293,-968.262,0.000,0
1606143729.911,81.543,-26.855,-11.230,146.973,0.000,0
1606143729.915,400.391,-11.719,0.488,-905.273,0.000,0
1606143729.919,150.391,-18.066,-15.625,538.086,0.000,0
1606143729.922,-341.797,-42.480,-34.668,-691.406,0.000,0
1606143729.926,-433.105,-30.762,-45.898,-1000.000,0.000,0
1606143729.930,14.648,-28.809,-27.832,6.348,0.000,0
1606143729.934,374.512,-42.969,5.371,-935.059,0.000,0
1606143729.938,194.824,-29.297,-17.090,656.250,0.000,0
1606143729.942,-300.781,-42.480,-51.270,-540.039,0.000,0
1606143729.946,-454.590,-48.828,-45.410,-1000.000,0.000,0
1606143729.950,-50.781,-36.621,-27.832,-154.297,0.000,0
1606143729.954,350.586,-15.625,-12.695,999.512,0.000,0
1606143729.958,244.629,-19.531,-14.160,762.695,0.000,0
1606143729.962,-245.605,-38.574,-33.203,-398.438,0.000,0
1606143729.965,-476.562,-42.480,-52.246,-1000.000,0.000,0
1606143729.969,-117.676,-26.367,-34.668,-332.031,0.000,0
1606143729.973,341.309,-1.953,-6.836,902.832,0.000,0
1606143729.977,292.969,-10.742,-17.578,855.957,0.000,0
1606143729.981,-202.637,-41.016,-46.875,-288.086,0.000,0
1606143729.985,-474.121,-50.293,-56.152,-1000.000,0.000,0
1606143729.989,-185.059,-57.129,-33.691,-485.840,0.000,0
1606143729.993,283.203,-44.434,-2.930,765.625,0.000,0
1606143729.997,333.008,-12.695,-6.348,948.730,0.000,0
1606143730.001,-140.137,-29.297,-23.438,-167.480,0.000,0
1606143730.004,-472.168,-40.039,-40.527,-1000.000,0.000,0
1606143730.008,-240.234,-28.320,-40.527,-624.023,0.000,0
1606143730.012,248.535,-13.672,-5.859,600.586,0.000,0
1606143730.016,362.305,-10.742,-5.371,-975.586,0.000,0
1606143730.020,-78.125,-36.133,-30.273,-23.926,0.000,0
1606143730.024,-453.613,-52.734,-42.480,-1000.000,0.000,0
1606143730.028,-288.086,-50.781,-39.551,-738.281,0.000,0
1606143730.032,203.613,-68.359,-24.414,441.895,0.000,0
1606143730.036,382.812,-43.945,-9.766,-927.734,0.000,0
1606143730.040,-3.906,-19.043,-18.555,135.742,0.000,0
1606143730.044,-422.363,-37.109,-47.363,-1000.000,0.000,0
1606143730.047,-339.355,-36.133,-38.086,-842.773,0.000,0
1606143730.051,164.062,-8.301,1.953,305.176,0.000,0
1606143730.055,395.996,1.465,0.000,-898.438,0.000,0
1606143730.059,41.504,-30.273,-29.785,302.734,0.000,0
1606143730.063,-409.668,-44.922,-52.246,-916.992,0.000,0
1606143730.067,-379.883,-30.273,-46.875,-919.922,0.000,0
1606143730.071,100.586,-46.387,-22.461,203.613,0.000,0
1606143730.075,388.184,-35.645,-2.930,-899.902,0.000,0
1606143730.079,121.582,-18.066,-11.719,465.820,0.000,0
1606143730.083,-358.398,-39.551,-43.945,-769.531,0.000,0
1606143730.087,-420.410,-41.992,-50.293,-1000.000,0.000,0
1606143730.090,42.969,-16.602,-20.508,71.777,0.000,0
1606143730.094,387.207,-2.930,-1.465,-918.457,0.000,0
1606143730.098,169.922,-17.090,-19.531,594.238,0.000,0
1606143730.102,-318.359,-33.691,-36.621,-613.770,0.000,0
1606143730.106,-445.312,-41.992,-41.992,-1000.000,0.000,0
1606143730.110,-13.672,-40.527,-31.250,-63.477,0.000,0
1606143730.114,378.418,-24.414,-5.371,-954.102,0.000,0
1606143730.118,229.492,-9.277,-18.066,711.426,0.000,0
1606143730.122,-267.090,-26.367,-48.828,-465.332,0.000,0
1606143730.126,-461.914,-43.945,-46.387,-1000.000,0.000,0
1606143730.129,-82.520,-44.922,-27.344,-235.840,0.000,0
1606143730.133,352.051,-23.438,-2.441,961.426,0.000,0
1606143730.137,289.551,-6.836,-4.883,808.105,0.000,0
1606143730.141,-207.031,-28.320,-33.203,-344.238,0.000,0
1606143730.145,-462.402,-46.387,-50.781,-1000.000,0.000,0
1606143730.149,-134.766,-48.340,-31.250,-407.227,0.000,0
1606143730.153,321.777,-27.344,-3.418,835.449,0.000,0
1606143730.157,323.242,-7.324,-10.742,905.762,0.000,0
1606143730.161,-166.016,-19.531,-43.457,-224.121,0.000,0
1606143730.165,-474.609,-34.668,-62.012,-1000.000,0.000,0
1606143730.169,-204.590,-39.551,-43.945,-566.895,0.000,0
1606143730.172,281.738,-32.227,-12.207,680.176,0.000,0
1606143730.176,369.141,-8.301,3.418,992.188,0.000,0
1606143730.180,-85.938,-22.461,-22.461,-96.191,0.000,0
1606143730.184,-446.289,-40.527,-48.828,-1000.000,0.000,0
1606143730.188,-246.582,-31.738,-35.156,-673.340,0.000,0
1606143730.192,254.395,-18.555,-17.578,528.320,0.000,0
1606143730.196,401.855,-15.137,-25.879,-945.312,0.000,0
1606143730.200,-16.602,-16.113,-40.039,56.641,0.000,0
1606143730.204,-413.574,-29.297,-48.340,-1000.000,0.000,0
1606143730.208,-291.504,-36.133,-40.527,-769.531,0.000,0
1606143730.212,195.312,-30.762,-16.113,401.367,0.000,0
1606143730.215,392.578,-18.066,-6.348,-914.551,0.000,0
1606143730.219,17.578,-18.066,-29.297,216.797,0.000,0
1606143730.223,-413.086,-44.922,-52.246,-971.191,0.000,0
1606143730.227,-363.770,-43.945,-42.969,-874.023,0.000,0
1606143730.231,131.348,-17.578,-18.066,268.066,0.000,0
1606143730.235,405.273,-11.719,-17.578,-896.484,0.000,0
1606143730.239,90.332,-19.531,-31.738,391.602,0.000,0
1606143730.243,-372.559,-35.156,-46.875,-843.262,0.000,0
1606143730.247,-392.578,-45.898,-46.387,-967.285,0.000,0
1606143730.251,80.566,-34.668,-22.461,144.531,0.000,0
1606143730.254,399.902,-25.879,-6.836,-905.273,0.000,0
1606143730.258,147.949,-27.832,-23.926,539.551,0.000,0
1606143730.262,-334.473,-40.039,-44.434,-692.871,0.000,0
1606143730.266,-425.293,-53.711,-44.922,-1000.000,0.000,0
1606143730.270,24.902,-30.273,-30.762,8.789,0.000,0
1606143730.274,396.484,-3.418,1.953,-936.035,0.000,0
1606143730.278,214.844,-18.555,-5.371,653.809,0.000,0
1606143730.282,-288.086,-44.434,-50.293,-543.457,0.000,0
1606143730.286,-450.684,-45.898,-51.270,-1000.000,0.000,0
1606143730.290,-42.969,-28.809,-20.508,-145.508,0.000,0
1606143730.294,372.070,-13.672,5.371,-992.676,0.000,0
1606143730.297,262.695,-19.531,-6.836,761.230,0.000,0
1606143730.301,-243.652,-38.574,-38.574,-405.273,0.000,0
1606143730.305,-465.820,-46.387,-45.898,-1000.000,0.000,0
1606143730.309,-107.422,-31.250,-26.855,-312.988,0.000,0
1606143730.313,332.520,-14.648,-9.766,905.273,0.000,0
1606143730.317,292.480,-19.043,-24.414,848.145,0.000,0
1606143730.321,-203.125,-27.832,-47.363,-297.363,0.000,0
1606143730.325,-479.492,-31.250,-49.805,-1000.000,0.000,0
1606143730.329,-173.828,-22.949,-26.855,-493.164,0.000,0
1606143730.333,300.293,-5.371,-7.324,761.230,0.000,0
1606143730.337,343.262,-3.906,-5.859,945.801,0.000,0
1606143730.340,-133.789,-34.668,-25.879,-174.316,0.000,0
1606143730.344,-471.680,-55.664,-53.711,-1000.000,0.000,0
1606143730.348,-226.562,-45.898,-40.527,-616.211,0.000,0
1606143730.352,260.254,-31.738,-12.695,607.422,0.000,0
1606143730.356,366.699,-12.695,-13.184,-973.145,0.000,0
1606143730.360,-73.730,-33.203,-41.992,-28.809,0.000,0
1606143730.364,-456.055,-68.848,-62.988,-1000.000,0.000,0
1606143730.368,-286.133,-54.199,-52.734,-733.887,0.000,0
1606143730.372,210.449,-9.277,-36.133,449.707,0.000,0
1606143730.376,383.789,5.859,-22.949,-925.781,0.000,0
1606143730.379,-9.277,-9.766,-30.273,136.230,0.000,0
1606143730.383,-421.387,-41.016,-41.504,-1000.000,0.000,0
1606143730.387,-330.566,-51.758,-36.133,-822.754,0.000,0
1606143730.391,169.434,-15.137,-18.555,329.590,0.000,0
1606143730.395,409.668,0.000,-7.324,-901.367,0.000,0
1606143730.399,66.406,-27.344,-25.879,314.941,0.000,0
1606143730.403,-387.695,-53.223,-47.852,-909.180,0.000,0
1606143730.407,-374.512,-46.875,-41.504,-917.480,0.000,0
1606143730.411,113.770,-39.551,-9.766,213.379,0.000,0
1606143730.415,402.344,-25.879,6.348,-897.949,0.000,0
1606143730.419,120.117,-11.719,-14.160,478.027,0.000,0
1606143730.422,-357.910,-37.598,-35.156,-762.695,0.000,0
1606143730.426,-415.039,-43.945,-41.992,-1000.000,0.000,0
1606143730.430,49.316,-25.391,-30.273,72.266,0.000,0
1606143730.434,391.602,-15.625,-13.184,-919.922,0.000,0
1606143730.438,185.547,-20.508,-20.996,608.887,0.000,0
1606143730.442,-308.105,-45.898,-54.199,-606.934,0.000,0
1606143730.446,-437.012,-45.410,-55.664,-1000.000,0.000,0
1606143730.450,1.465,-42.480,-22.461,-65.430,0.000,0
1606143730.454,386.719,-38.574,-8.301,-959.961,0.000,0
1606143730.458,241.699,-8.301,-15.137,713.379,0.000,0
1606143730.462,-249.023,-16.602,-37.598,-459.961,0.000,0
1606143730.465,-444.824,-35.645,-44.434,-1000.000,0.000,0
1606143730.469,-62.988,-26.367,-26.855,-219.238,0.000,0
1606143730.473,365.234,0.488,-12.207,970.703,0.000,0
1606143730.477,293.945,3.906,-12.695,807.129,0.000,0
1606143730.481,-218.750,-35.645,-41.016,-344.238,0.000,0
1606143730.485,-473.633,-52.734,-52.246,-1000.000,0.000,0
1606143730.489,-129.883,-40.527,-27.832,-392.090,0.000,0
1606143730.493,320.801,-42.969,-7.812,846.680,0.000,0
1606143730.497,314.453,-29.297,-8.789,895.508,0.000,0
1606143730.501,-168.945,-32.227,-38.086,-236.816,0.000,0
1606143730.504,-476.074,-43.457,-53.223,-1000.000,0.000,0
1606143730.508,-210.938,-27.832,-30.273,-552.246,0.000,0
1606143730.512,271.973,-5.859,-15.625,688.965,0.000,0
1606143730.516,349.609,-3.418,-19.531,987.305,0.000,0
1606143730.520,-106.445,-22.949,-38.086,-102.051,0.000,0
1606143730.524,-466.309,-40.527,-50.781,-1000.000,0.000,0
1606143730.528,-266.113,-46.875,-31.738,-670.898,0.000,0
1606143730.532,232.910,-21.484,0.488,533.203,0.000,0
1606143730.536,371.582,0.488,-5.859,-946.289,0.000,0
1606143730.540,-53.711,-40.527,-39.551,53.223,0.000,0
1606143730.544,-457.031,-62.012,-50.781,-1000.000,0.000,0
1606143730.547,-323.242,-39.062,-40.039,-786.621,0.000,0
1606143730.551,185.059,-27.832,-22.461,376.465,0.000,0
1606143730.555,386.719,-9.766,-9.766,-908.691,0.000,0
1606143730.559,20.996,-13.672,-18.066,223.145,0.000,0
1606143730.563,-410.645,-41.016,-45.898,-972.656,0.000,0
1606143730.567,-361.328,-48.828,-44.434,-875.488,0.000,0
1606143730.571,131.348,-33.203,-22.461,266.113,0.000,0
1606143730.575,391.113,-14.160,-13.672,-898.438,0.000,0
1606143730.579,83.496,-20.996,-29.297,389.160,0.000,0
1606143730.583,-378.418,-42.480,-54.199,-841.797,0.000,0
1606143730.587,-401.855,-43.457,-57.617,-965.820,0.000,0
1606143730.590,82.520,-31.250,-34.668,143.066,0.000,0
1606143730.594,401.367,-20.996,-7.324,-905.762,0.000,0
1606143730.598,148.926,-22.461,-13.672,534.668,0.000,0
1606143730.602,-339.844,-48.340,-30.762,-698.242,0.000,0
1606143730.606,-434.082,-62.988,-36.621,-1000.000,0.000,0
1606143730.610,15.137,-45.898,-29.297,11.230,0.000,0
1606143730.614,384.766,-11.230,-9.766,-934.570,0.000,0
1606143730.618,205.566,-2.441,-8.789,658.203,0.000,0
1606143730.622,-296.875,-33.203,-48.340,-539.062,0.000,0
1606143730.626,-458.008,-51.758,-68.359,-1000.000,0.000,0
1606143730.629,-39.062,-33.203,-31.250,-127.930,0.000,0
1606143730.633,375.000,-20.996,-0.977,-990.723,0.000,0
1606143730.637,261.230,-19.531,-0.977,761.719,0.000,0
1606143730.641,-253.906,-37.598,-25.391,-399.902,0.000,0
1606143730.645,-473.145,-61.523,-45.410,-1000.000,0.000,0
1606143730.649,-111.816,-56.641,-20.508,-317.871,0.000,0
1606143730.653,328.613,-23.438,8.789,902.832,0.000,0
1606143730.657,298.340,-10.254,-0.977,854.004,0.000,0
1606143730.661,-198.242,-33.203,-34.668,-294.434,0.000,0
1606143730.665,-481.934,-52.734,-47.363,-1000.000,0.000,0
1606143730.669,-171.875,-41.504,-32.227,-471.680,0.000,0
1606143730.672,297.852,-16.113,-13.672,768.555,0.000,0
1606143730.676,347.168,-14.160,-8.789,951.660,0.000,0
1606143730.680,-125.000,-48.340,-38.086,-158.691,0.000,0
1606143730.684,-460.938,-61.035,-56.152,-1000.000,0.000,0
1606143730.688,-236.816,-43.945,-35.645,-610.840,0.000,0
1606143730.692,243.652,-49.805,-6.348,623.535,0.000,0
1606143730.696,369.141,-38.574,-5.371,-976.074,0.000,0
1606143730.700,-67.383,-32.227,-21.973,-28.809,0.000,0
1606143730.704,-439.941,-49.316,-39.062,-1000.000,0.000,0
1606143730.708,-272.461,-34.668,-32.715,-719.238,0.000,0
1606143730.712,230.469,-12.207,0.000,468.750,0.000,0
1606143730.715,402.344,-14.160,2.930,-929.688,0.000,0
1606143730.719,-13.184,-36.621,-38.086,130.859,0.000,0
1606143730.723,-425.781,-47.363,-66.406,-1000.000,0.000,0
1606143730.727,-325.684,-37.109,-49.805,-821.289,0.000,0
1606143730.731,171.875,-13.184,-11.230,333.008,0.000,0
1606143730.735,400.391,-3.906,1.953,-898.438,0.000,0
1606143730.739,54.688,-27.344,-20.996,311.035,0.000,0
1606143730.743,-396.484,-50.781,-50.293,-916.016,0.000,0
1606143730.747,-385.742,-48.828,-45.898,-916.016,0.000,0
1606143730.751,115.723,-19.043,-21.973,217.773,0.000,0
1606143730.754,408.691,-1.465,-9.277,-898.926,0.000,0
1606143730.758,113.770,-24.902,-19.531,470.703,0.000,0
1606143730.762,-354.004,-52.246,-47.852,-769.043,0.000,0
1606143730.766,-412.109,-50.781,-54.199,-1000.000,0.000,0
1606143730.770,65.918,-23.438,-29.297,97.656,0.000,0
1606143730.774,409.180,-7.812,-6.348,-916.992,0.000,0
1606143730.778,177.246,-20.996,-10.254,601.074,0.000,0
1606143730.782,-311.523,-41.504,-35.156,-614.746,0.000,0
1606143730.786,-443.848,-58.105,-48.340,-1000.000,0.000,0
1606143730.790,-12.695,-33.203,-34.668,-63.965,0.000,0
1606143730.794,371.094,0.000,-11.719,-960.449,0.000,0
1606143730.797,223.633,-8.301,-13.672,706.543,0.000,0
1606143730.801,-264.160,-36.621,-35.156,-470.703,0.000,0
1606143730.805,-454.590,-37.598,-50.293,-1000.000,0.000,0
1606143730.809,-74.219,-27.344,-38.574,-231.445,0.000,0
1606143730.813,353.027,-22.949,-14.160,961.426,0.000,0
1606143730.817,282.227,-22.949,-9.277,806.641,0.000,0
1606143730.821,-219.238,-45.898,-33.203,-344.238,0.000,0
1606143730.825,-462.891,-53.223,-52.246,-1000.000,0.000,0
1606143730.829,-126.465,-32.227,-38.086,-405.273,0.000,0
1606143730.833,326.172,-9.277,-14.160,840.820,0.000,0
1606143730.837,321.289,-15.137,-17.090,896.484,0.000,0
1606143730.840,-163.574,-40.527,-43.945,-237.305,0.000,0
1606143730.844,-465.332,-50.293,-57.617,-1000.000,0.000,0
1606143730.848,-193.848,-30.762,-36.133,-542.969,0.000,0
1606143730.852,282.715,-16.113,-11.230,694.336,0.000,0
1606143730.856,358.398,-21.484,-14.160,989.258,0.000,0
1606143730.860,-92.285,-34.668,-33.691,-93.262,0.000,0
1606143730.864,-443.848,-44.922,-49.316,-1000.000,0.000,0
1606143730.868,-251.465,-39.062,-32.227,-665.039,0.000,0
1606143730.872,235.352,-18.066,-1.465,542.480,0.000,0
1606143730.876,382.324,-5.859,2.930,-944.824,0.000,0
1606143730.879,-33.203,-32.227,-14.648,59.570,0.000,0
1606143730.883,-436.035,-58.594,-38.086,-1000.000,0.000,0
1606143730.887,-305.664,-41.992,-33.203,-770.996,0.000,0
1606143730.891,203.613,-7.812,-7.324,396.484,0.000,0
1606143730.895,405.762,1.953,-1.465,-910.645,0.000,0
1606143730.899,31.250,-11.719,-21.973,225.098,0.000,0
1606143730.903,-407.227,-36.133,-47.363,-973.145,0.000,0
1606143730.907,-350.098,-36.621,-40.527,-868.164,0.000,0
1606143730.911,154.785,-29.785,-8.789,275.879,0.000,0
1606143730.915,416.992,-20.508,-2.441,-896.973,0.000,0
1606143730.919,92.773,-20.996,-22.461,390.137,0.000,0
1606143730.922,-373.535,-50.293,-41.504,-848.145,0.000,0
1606143730.926,-385.254,-56.152,-51.270,-957.520,0.000,0
1606143730.930,105.957,-26.367,-35.156,160.156,0.000,0
1606143730.934,413.086,-10.742,-16.113,-903.809,0.000,0
1606143730.938,161.133,-16.113,-32.227,526.367,0.000,0
1606143730.942,-307.617,-27.344,-57.617,-704.590,0.000,0
1606143730.946,-403.320,-35.156,-57.129,-1000.000,0.000,0
1606143730.950,34.180,-21.973,-33.691,8.789,0.000,0
1606143730.954,402.832,-1.953,-6.836,-937.012,0.000,0
1606143730.958,229.980,-5.859,-12.207,663.574,0.000,0
1606143730.962,-271.973,-32.715,-49.316,-530.273,0.000,0
1606143730.965,-440.430,-48.340,-63.477,-1000.000,0.000,0
1606143730.969,-25.879,-31.738,-41.504,-143.555,0.000,0
1606143730.973,389.160,-4.883,-18.555,-993.652,0.000,0
1606143730.977,282.715,-13.672,-22.949,767.090,0.000,0
1606143730.981,-218.262,-37.598,-45.410,-392.090,0.000,0
1606143730.985,-447.266,-42.480,-55.176,-1000.000,0.000,0
1606143730.989,-82.520,-23.926,-33.203,-306.641,0.000,0
1606143730.993,358.887,-10.254,-12.695,912.598,0.000,0
1606143730.997,316.895,-10.742,-10.254,859.375,0.000,0
1606143731.001,-166.992,-21.973,-27.344,-276.855,0.000,0
1606143731.004,-446.289,-33.203,-56.641,-1000.000,0.000,0
1606143731.008,-155.762,-29.785,-52.246,-479.980,0.000,0
1606143731.012,312.500,-8.789,-22.949,765.625,0.000,0
1606143731.016,353.027,-6.836,-11.230,952.637,0.000,0
1606143731.020,-114.746,-26.367,-38.574,-153.809,0.000,0
1606143731.024,-443.359,-37.109,-57.617,-1000.000,0.000,0
1606143731.028,-203.125,-36.621,-35.645,-601.562,0.000,0
1606143731.032,284.668,-32.715,-10.254,625.000,0.000,0
1606143731.036,395.020,-15.137,-3.418,-971.191,0.000,0
1606143731.040,-46.875,-21.484,-15.137,-15.625,0.000,0
1606143731.044,-437.500,-48.828,-38.574,-1000.000,0.000,0
1606143731.047,-270.996,-42.969,-42.480,-718.750,0.000,0
1606143731.051,228.027,-20.508,-23.926,470.215,0.000,0
1606143731.055,398.926,-19.531,-15.625,-923.340,0.000,0
1606143731.059,13.184,-35.156,-31.738,144.043,0.000,0
1606143731.063,-398.926,-45.898,-54.199,-1000.000,0.000,0
1606143731.067,-312.500,-37.598,-48.340,-827.148,0.000,0
1606143731.071,185.547,-18.066,-21.973,326.660,0.000,0
1606143731.075,418.945,-16.602,-11.230,-899.414,0.000,0
1606143731.079,66.406,-37.109,-22.949,306.641,0.000,0
1606143731.083,-388.672,-53.223,-36.621,-916.992,0.000,0
1606143731.087,-369.141,-52.246,-41.504,-915.527,0.000,0
1606143731.090,121.582,-26.367,-27.832,213.867,0.000,0
1606143731.094,410.645,-5.371,-7.812,-897.949,0.000,0
1606143731.098,122.559,-18.066,-16.602,472.656,0.000,0
1606143731.102,-361.328,-46.387,-41.016,-770.996,0.000,0
1606143731.106,-428.223,-57.617,-46.875,-1000.000,0.000,0
1606143731.110,47.852,-32.715,-26.367,89.355,0.000,0
1606143731.114,394.531,-9.766,-4.883,-919.922,0.000,0
1606143731.118,173.340,-19.531,-13.184,602.051,0.000,0
1606143731.122,-309.082,-48.340,-42.480,-614.258,0.000,0
1606143731.126,-427.246,-53.711,-57.617,-1000.000,0.000,0
1606143731.129,10.254,-31.250,-33.691,-56.152,0.000,0
1606143731.133,395.508,-18.066,-9.277,-957.520,0.000,0
1606143731.137,243.652,-20.020,-19.531,714.844,0.000,0
1606143731.141,-257.812,-30.762,-41.992,-462.402,0.000,0
1606143731.145,-451.172,-38.086,-46.387,-1000.000,0.000,0
1606143731.149,-74.219,-32.227,-24.902,-229.980,0.000,0
1606143731.153,350.586,-22.461,-3.906,962.402,0.000,0
1606143731.157,280.762,-24.414,-2.441,801.758,0.000,0
1606143731.161,-223.145,-44.434,-27.344,-351.074,0.000,0
1606143731.165,-479.980,-52.246,-62.500,-1000.000,0.000,0
1606143731.169,-149.902,-40.527,-59.570,-412.109,0.000,0
1606143731.172,312.988,-24.414,-20.996,835.938,0.000,0
1606143731.176,308.105,-19.531,-10.742,895.020,0.000,0
1606143731.180,-173.340,-41.016,-34.180,-241.699,0.000,0
1606143731.184,-463.379,-50.781,-47.363,-1000.000,0.000,0
1606143731.188,-203.125,-42.969,-34.668,-546.875,0.000,0
1606143731.192,276.367,-20.508,-5.371,699.707,0.000,0
1606143731.196,355.469,-6.836,0.488,983.398,0.000,0
1606143731.200,-114.746,-39.551,-35.645,-110.352,0.000,0
1606143731.204,-471.680,-59.570,-60.547,-1000.000,0.000,0
1606143731.208,-254.395,-36.621,-43.457,-671.387,0.000,0
1606143731.212,249.512,-16.602,-9.766,532.715,0.000,0
1606143731.215,388.672,-15.625,-10.742,-950.684,0.000,0
1606143731.219,-30.273,-29.785,-25.879,54.688,0.000,0
1606143731.223,-425.293,-46.387,-44.922,-1000.000,0.000,0
1606143731.227,-294.434,-48.828,-47.363,-764.160,0.000,0
1606143731.231,215.332,-19.043,-13.184,410.645,0.000,0
1606143731.235,419.434,12.695,-3.906,-913.574,0.000,0
1606143731.239,38.574,-8.301,-30.273,213.867,0.000,0
1606143731.243,-397.949,-36.621,-54.199,-973.145,0.000,0
1606143731.247,-353.516,-41.016,-53.711,-877.441,0.000,0
1606143731.251,136.719,-13.184,-26.855,259.766,0.000,0
1606143731.254,411.621,18.555,0.000,-896.484,0.000,0
1606143731.258,105.469,-9.277,-11.719,390.625,0.000,0
1606143731.262,-364.746,-47.363,-45.410,-848.145,0.000,0
1606143731.266,-390.625,-54.688,-51.758,-961.426,0.000,0
1606143731.270,92.773,-30.762,-31.738,157.227,0.000,0
1606143731.274,407.227,-22.461,-12.695,-903.809,0.000,0
1606143731.278,154.785,-37.109,-21.484,535.645,0.000,0
1606143731.282,-323.730,-46.387,-44.434,-696.289,0.000,0
1606143731.286,-419.922,-38.574,-52.734,-1000.000,0.000,0
1606143731.290,28.809,-22.949,-29.297,11.230,0.000,0
1606143731.294,395.020,-11.719,-5.859,-936.035,0.000,0
1606143731.297,211.914,-10.742,-18.555,658.691,0.000,0
1606143731.301,-280.273,-36.621,-48.340,-531.738,0.000,0
1606143731.305,-443.359,-51.758,-51.270,-1000.000,0.000,0
1606143731.309,-36.133,-32.227,-30.273,-150.391,0.000,0
1606143731.313,371.582,-20.020,-7.324,-994.141,0.000,0
1606143731.317,270.020,-20.996,-6.348,766.113,0.000,0
1606143731.321,-224.121,-34.668,-41.504,-395.020,0.000,0
1606143731.325,-453.613,-57.129,-54.688,-1000.000,0.000,0
1606143731.329,-89.844,-44.434,-24.414,-311.035,0.000,0
1606143731.333,364.746,-0.977,-11.230,916.504,0.000,0
1606143731.337,325.195,2.441,-17.578,853.516,0.000,0
1606143731.340,-172.363,-26.855,-35.645,-287.598,0.000,0
1606143731.344,-455.566,-43.457,-55.664,-1000.000,0.000,0
1606143731.348,-150.391,-32.227,-38.086,-467.285,0.000,0
1606143731.352,320.801,-9.277,-12.695,778.320,0.000,0
1606143731.356,352.539,-12.207,-13.184,947.266,0.000,0
1606143731.360,-121.094,-37.109,-35.645,-162.109,0.000,0
1606143731.364,-450.195,-53.711,-55.664,-1000.000,0.000,0
1606143731.368,-208.008,-38.574,-41.016,-609.863,0.000,0
1606143731.372,280.273,-15.137,-15.625,615.723,0.000,0
1606143731.376,392.090,-10.254,-9.277,-971.680,0.000,0
1606143731.379,-40.039,-31.250,-20.020,-19.043,0.000,0
1606143731.383,-429.199,-54.688,-46.387,-1000.000,0.000,0
1606143731.387,-269.531,-35.156,-44.434,-725.586,0.000,0
1606143731.391,235.352,4.883,-13.672,457.520,0.000,0
1606143731.395,416.992,4.883,4.883,-924.316,0.000,0
1606143731.399,20.996,-21.484,-19.043,138.672,0.000,0
1606143731.403,-408.203,-44.434,-49.805,-1000.000,0.000,0
1606143731.407,-316.406,-41.504,-48.828,-823.730,0.000,0
1606143731.411,183.105,-18.066,-19.043,328.125,0.000,0
1606143731.415,416.992,-3.906,3.418,-897.461,0.000,0
1606143731.419,72.754,-14.648,-16.113,309.570,0.000,0
1606143731.422,-391.602,-38.574,-46.387,-916.992,0.000,0
1606143731.426,-377.441,-41.992,-48.340,-918.457,0.000,0
1606143731.430,113.770,-12.207,-25.879,208.008,0.000,0
1606143731.434,401.855,9.277,-6.348,-898.438,0.000,0
1606143731.438,122.559,-19.531,-14.648,462.402,0.000,0
1606143731.442,-346.680,-55.176,-50.293,-776.855,0.000,0
1606143731.446,-412.598,-61.523,-56.152,-1000.000,0.000,0
1606143731.450,54.688,-32.715,-18.066,80.566,0.000,0
1606143731.454,401.855,-15.137,5.859,-916.992,0.000,0
1606143731.458,179.199,-31.738,-16.113,594.727,0.000,0
1606143731.462,-309.082,-41.504,-42.480,-621.094,0.000,0
1606143731.465,-443.359,-50.781,-42.480,-1000.000,0.000,0
1606143731.469,-19.043,-33.203,-24.902,-69.824,0.000,0
1606143731.473,382.324,2.441,-1.465,-958.008,0.000,0
1606143731.477,237.305,-12.207,-6.348,707.520,0.000,0
1606143731.481,-270.996,-50.781,-40.039,-469.727,0.000,0
1606143731.485,-462.891,-67.383,-57.617,-1000.000,0.000,0
1606143731.489,-74.707,-37.109,-35.645,-241.699,0.000,0
1606143731.493,361.816,0.488,0.488,960.938,0.000,0
1606143731.497,291.504,-15.625,-4.883,809.570,0.000,0
1606143731.501,-213.867,-40.039,-34.668,-345.703,0.000,0
1606143731.504,-467.773,-48.340,-43.945,-1000.000,0.000,0
1606143731.508,-131.348,-41.992,-24.414,-388.672,0.000,0
1606143731.512,317.383,-23.926,4.883,848.633,0.000,0
1606143731.516,298.828,-23.926,4.395,901.367,0.000,0
1606143731.520,-180.664,-41.992,-29.785,-224.609,0.000,0
1606143731.524,-485.352,-54.688,-50.293,-1000.000,0.000,0
1606143731.528,-225.586,-54.199,-28.809,-557.617,0.000,0
1606143731.532,263.672,-34.668,1.953,685.547,0.000,0
1606143731.536,343.262,-22.461,0.000,989.746,0.000,0
1606143731.540,-116.699,-41.016,-24.902,-102.539,0.000,0
1606143731.544,-463.379,-55.176,-40.039,-1000.000,0.000,0
1606143731.547,-255.859,-45.410,-20.996,-678.711,0.000,0
1606143731.551,228.516,-23.438,-4.883,524.414,0.000,0
1606143731.555,368.652,-14.648,-12.695,-949.219,0.000,0
1606143731.559,-41.016,-38.086,-32.227,42.480,0.000,0
1606143731.563,-441.895,-54.688,-59.570,-1000.000,0.000,0
1606143731.567,-310.547,-38.086,-48.340,-779.297,0.000,0
1606143731.571,194.336,-27.832,-11.719,384.766,0.000,0
1606143731.575,395.508,-20.996,-4.395,-913.086,0.000,0
1606143731.579,16.602,-34.668,-28.320,214.844,0.000,0
1606143731.583,-412.598,-58.594,-46.875,-971.680,0.000,0
1606143731.587,-353.027,-41.504,-42.480,-879.883,0.000,0
1606143731.590,134.766,-11.230,-14.160,260.254,0.000,0
1606143731.594,395.996,-4.883,-4.883,-895.508,0.000,0
1606143731.598,81.055,-21.973,-39.062,385.742,0.000,0
1606143731.602,-387.207,-45.898,-63.477,-847.168,0.000,0
1606143731.606,-411.133,-52.734,-57.129,-967.773,0.000,0
1606143731.610,77.637,-33.691,-24.414,144.043,0.000,0
1606143731.614,406.250,-15.137,-4.395,-904.297,0.000,0
1606143731.618,157.227,-19.531,-18.555,538.574,0.000,0
1606143731.622,-332.520,-41.992,-38.574,-692.871,0.000,0
1606143731.626,-429.199,-50.781,-35.645,-1000.000,0.000,0
1606143731.629,20.020,-22.461,-15.137,8.301,0.000,0
1606143731.633,382.812,-3.418,-9.277,-934.082,0.000,0
1606143731.637,197.754,-20.020,-17.090,655.273,0.000,0
1606143731.641,-300.781,-41.992,-41.504,-541.016,0.000,0
1606143731.645,-454.102,-49.316,-42.480,-1000.000,0.000,0
1606143731.649,-46.387,-34.180,-20.020,-145.020,0.000,0
1606143731.653,357.910,-24.902,-4.883,-993.652,0.000,0
1606143731.657,245.117,-27.344,-11.230,761.719,0.000,0
1606143731.661,-247.559,-39.551,-37.598,-398.438,0.000,0
1606143731.665,-468.750,-53.223,-31.250,-1000.000,0.000,0
1606143731.669,-116.211,-38.086,-13.672,-332.031,0.000,0
1606143731.672,330.566,-6.348,-15.137,902.344,0.000,0
1606143731.676,292.480,-6.836,-19.531,850.098,0.000,0
1606143731.680,-205.566,-34.180,-40.039,-296.387,0.000,0
1606143731.684,-486.328,-48.828,-57.617,-1000.000,0.000,0
1606143731.688,-185.547,-34.668,-41.504,-491.211,0.000,0
1606143731.692,290.039,-8.789,-13.672,761.230,0.000,0
1606143731.696,328.125,-13.184,-8.301,946.289,0.000,0
1606143731.700,-147.461,-43.945,-35.645,-175.293,0.000,0
1606143731.704,-470.215,-49.805,-41.504,-1000.000,0.000,0
1606143731.708,-229.492,-27.344,-27.832,-625.000,0.000,0
1606143731.712,263.184,-31.738,-9.277,601.074,0.000,0
1606143731.715,373.535,-35.156,-7.812,-981.445,0.000,0
1606143731.719,-73.730,-36.133,-36.133,-41.992,0.000,0
1606143731.723,-451.660,-54.199,-55.176,-1000.000,0.000,0
1606143731.727,-285.156,-45.410,-46.875,-729.004,0.000,0
1606143731.731,214.355,-19.043,-20.996,455.566,0.000,0
1606143731.735,385.742,-5.859,-11.230,-925.293,0.000,0
1606143731.739,-16.113,-22.949,-36.621,129.395,0.000,0
1606143731.743,-433.594,-41.504,-59.082,-1000.000,0.000,0
1606143731.747,-336.914,-32.715,-44.922,-827.637,0.000,0
1606143731.751,166.992,-11.230,-19.531,322.266,0.000,0
1606143731.754,399.414,-5.371,-1.465,-899.902,0.000,0
1606143731.758,47.852,-22.461,-13.184,316.406,0.000,0
1606143731.762,-404.785,-46.387,-42.480,-908.691,0.000,0
1606143731.766,-385.742,-52.246,-47.852,-919.922,0.000,0
1606143731.770,104.980,-38.086,-23.926,213.379,0.000,0
1606143731.774,397.949,-17.578,-8.301,-898.438,0.000,0
1606143731.778,115.234,-20.508,-28.809,469.238,0.000,0
1606143731.782,-360.840,-43.945,-49.805,-769.531,0.000,0
1606143731.786,-417.480,-55.176,-37.598,-1000.000,0.000,0
1606143731.790,48.828,-37.109,-12.695,94.238,0.000,0
1606143731.794,389.160,-18.066,-8.301,-919.434,0.000,0
1606143731.797,178.711,-16.602,-23.926,608.398,0.000,0
1606143731.801,-305.664,-39.062,-48.340,-601.562,0.000,0
1606143731.805,-443.359,-49.316,-56.641,-1000.000,0.000,0
1606143731.809,-13.672,-43.945,-29.785,-64.453,0.000,0
1606143731.813,379.883,-45.898,-4.883,-958.496,0.000,0
1606143731.817,237.305,-30.762,-8.301,717.773,0.000,0
1606143731.821,-256.348,-36.621,-41.016,-457.520,0.000,0
1606143731.825,-456.543,-49.805,-51.270,-1000.000,0.000,0
1606143731.829,-77.148,-32.227,-21.973,-228.516,0.000,0
1606143731.833,359.375,-6.348,-1.465,962.402,0.000,0
1606143731.837,284.668,0.000,-2.441,804.199,0.000,0
1606143731.840,-218.750,-29.297,-33.691,-350.098,0.000,0
1606143731.844,-472.656,-47.852,-54.688,-1000.000,0.000,0
1606143731.848,-145.020,-33.203,-32.227,-401.367,0.000,0
1606143731.852,316.895,-17.578,-1.465,839.355,0.000,0
1606143731.856,322.754,-9.766,-3.418,902.832,0.000,0
1606143731.860,-173.828,-31.250,-41.992,-232.422,0.000,0
1606143731.864,-490.723,-47.852,-53.223,-1000.000,0.000,0
1606143731.868,-228.027,-38.574,-27.344,-563.477,0.000,0
1606143731.872,258.301,-22.461,-7.324,676.758,0.000,0
1606143731.876,347.168,-8.301,-3.418,985.352,0.000,0
1606143731.879,-120.605,-26.855,-28.809,-109.863,0.000,0
1606143731.883,-483.398,-53.223,-47.363,-1000.000,0.000,0
1606143731.887,-274.902,-46.875,-36.621,-682.617,0.000,0
1606143731.891,229.004,-16.602,-15.137,518.066,0.000,0
1606143731.895,375.000,-7.324,-4.395,-940.918,0.000,0
1606143731.899,-41.016,-24.414,-28.320,58.105,0.000,0
1606143731.903,-444.824,-42.969,-56.152,-1000.000,0.000,0
1606143731.907,-322.266,-44.922,-46.387,-791.016,0.000,0
1606143731.911,185.547,-33.691,-17.090,371.094,0.000,0
1606143731.915,400.879,-26.367,-8.301,-908.691,0.000,0
1606143731.919,36.133,-24.414,-20.020,229.980,0.000,0
1606143731.922,-398.926,-34.668,-43.457,-966.797,0.000,0
1606143731.926,-346.680,-38.574,-46.387,-875.977,0.000,0
1606143731.930,147.949,-26.855,-22.461,264.648,0.000,0
1606143731.934,415.527,-9.277,-10.254,-898.438,0.000,0
1606143731.938,108.398,-11.719,-19.043,406.738,0.000,0
1606143731.942,-359.375,-46.875,-50.293,-832.031,0.000,0
1606143731.946,-390.137,-53.223,-45.410,-963.379,0.000,0
1606143731.950,79.102,-25.391,-6.348,153.809,0.000,0
1606143731.954,392.578,-15.625,2.441,-905.762,0.000,0
1606143731.958,144.043,-14.160,-12.695,538.574,0.000,0
1606143731.962,-341.309,-27.344,-41.992,-693.359,0.000,0
1606143731.965,-438.477,-39.062,-49.316,-1000.000,0.000,0
1606143731.969,22.461,-19.531,-21.973,17.090,0.000,0
1606143731.973,395.996,0.488,-2.930,-936.035,0.000,0
1606143731.977,207.031,-13.672,-12.207,665.039,0.000,0
1606143731.981,-295.898,-43.457,-41.992,-526.855,0.000,0
1606143731.985,-456.055,-51.758,-52.246,-1000.000,0.000,0
1606143731.989,-44.434,-40.527,-24.414,-151.855,0.000,0
1606143731.993,355.957,-35.645,-9.277,-994.141,0.000,0
1606143731.997,248.047,-27.832,-15.137,754.395,0.000,0
1606143732.001,-247.559,-30.762,-30.762,-410.645,0.000,0
1606143732.004,-463.867,-42.480,-46.387,-1000.000,0.000,0
1606143732.008,-100.586,-35.156,-35.156,-336.426,0.000,0
1606143732.012,328.613,-16.602,-14.648,891.602,0.000,0
1606143732.016,283.691,-14.648,-18.066,847.168,0.000,0
1606143732.020,-209.473,-29.785,-37.109,-304.688,0.000,0
1606143732.024,-491.699,-35.645,-50.781,-1000.000,0.000,0
1606143732.028,-187.012,-24.414,-38.574,-504.883,0.000,0
1606143732.032,299.316,-9.766,-11.719,751.465,0.000,0
1606143732.036,343.262,-14.648,-9.277,940.430,0.000,0
1606143732.040,-134.277,-43.457,-40.527,-186.523,0.000,0
1606143732.044,-467.773,-53.223,-64.941,-1000.000,0.000,0
1606143732.047,-234.375,-42.969,-46.875,-631.836,0.000,0
1606143732.051,252.441,-41.992,-18.066,593.750,0.000,0
1606143732.055,364.258,-27.344,-10.254,-975.586,0.000,0
1606143732.059,-74.707,-27.832,-28.809,-37.109,0.000,0
1606143732.063,-452.148,-46.387,-51.270,-1000.000,0.000,0
1606143732.067,-292.480,-40.527,-42.969,-736.328,0.000,0
1606143732.071,209.473,-11.230,-12.207,444.336,0.000,0
1606143732.075,385.742,-5.371,-6.836,-926.758,0.000,0
1606143732.079,0.000,-29.297,-29.297,138.184,0.000,0
1606143732.083,-413.086,-52.734,-51.758,-1000.000,0.000,0
1606143732.087,-333.496,-53.223,-52.734,-832.031,0.000,0
1606143732.090,171.875,-41.504,-25.879,319.824,0.000,0
1606143732.094,412.109,-41.016,-7.324,-900.879,0.000,0
1606143732.098,62.012,-37.598,-28.320,310.059,0.000,0
1606143732.102,-389.648,-40.527,-51.758,-909.668,0.000,0
1606143732.106,-371.582,-34.180,-45.410,-922.852,0.000,0
1606143732.110,117.188,-13.672,-17.578,202.637,0.000,0
1606143732.114,421.387,-3.906,8.301,-897.949,0.000,0
1606143732.118,140.625,-18.555,-19.531,473.145,0.000,0
1606143732.122,-348.633,-38.086,-61.035,-770.508,0.000,0
1606143732.126,-406.250,-31.250,-53.711,-1000.000,0.000,0
1606143732.129,72.754,-24.414,-8.301,90.820,0.000,0
1606143732.133,416.016,-26.367,10.742,-918.457,0.000,0
1606143732.137,189.453,-21.484,-23.438,601.562,0.000,0
1606143732.141,-305.664,-43.457,-51.758,-608.887,0.000,0
1606143732.145,-433.105,-46.875,-51.270,-1000.000,0.000,0
1606143732.149,-1.953,-23.438,-33.203,-82.520,0.000,0
1606143732.153,398.926,-4.883,-3.906,-965.332,0.000,0
1606143732.157,264.160,-11.230,8.301,727.051,0.000,0
1606143732.161,-245.605,-39.062,-24.902,-450.195,0.000,0
1606143732.165,-451.660,-41.504,-43.945,-1000.000,0.000,0
1606143732.169,-79.102,-23.438,-20.508,-219.727,0.000,0
1606143732.172,350.586,-4.395,-1.465,962.402,0.000,0
1606143732.176,285.156,-16.602,-4.395,816.406,0.000,0
1606143732.180,-217.285,-48.340,-29.785,-326.660,0.000,0
1606143732.184,-472.656,-51.758,-53.223,-1000.000,0.000,0
1606143732.188,-150.879,-35.156,-31.738,-421.875,0.000,0
1606143732.192,304.688,-31.250,0.977,826.172,0.000,0
1606143732.196,313.477,-25.879,3.906,906.738,0.000,0
1606143732.200,-165.527,-33.691,-27.832,-225.098,0.000,0
1606143732.204,-477.051,-51.270,-53.223,-1000.000,0.000,0
1606143732.208,-216.309,-33.203,-30.762,-559.570,0.000,0
1606143732.212,268.555,-3.906,-3.418,682.617,0.000,0
1606143732.215,340.820,-4.395,-14.648,991.699,0.000,0
1606143732.219,-117.188,-29.785,-40.527,-99.609,0.000,0
1606143732.223,-464.844,-47.363,-41.992,-1000.000,0.000,0
1606143732.227,-272.461,-38.086,-25.391,-684.570,0.000,0
1606143732.231,218.262,-21.973,-6.348,516.113,0.000,0
1606143732.235,366.699,-20.508,-7.324,-944.824,0.000,0
1606143732.239,-59.570,-34.668,-27.832,58.105,0.000,0
1606143732.243,-464.844,-44.434,-45.410,-1000.000,0.000,0
1606143732.247,-327.637,-38.086,-41.016,-786.133,0.000,0
1606143732.251,181.641,-20.996,-0.977,381.836,0.000,0
1606143732.254,385.254,-7.324,10.742,-909.668,0.000,0
1606143732.258,12.207,-19.043,-30.762,227.051,0.000,0
1606143732.262,-425.781,-41.504,-48.340,-969.727,0.000,0
1606143732.266,-368.164,-41.992,-30.273,-869.629,0.000,0
1606143732.270,136.230,-38.574,-10.742,274.902,0.000,0
1606143732.274,408.203,-39.062,-2.441,-896.973,0.000,0
1606143732.278,104.492,-23.926,-13.672,403.320,0.000,0
1606143732.282,-361.816,-28.320,-37.109,-834.961,0.000,0
1606143732.286,-386.230,-30.762,-41.504,-970.703,0.000,0
1606143732.290,82.520,-28.320,-27.832,139.160,0.000,0
1606143732.294,398.926,-15.625,-12.207,-907.715,0.000,0
1606143732.297,153.320,-8.301,-6.348,549.805,0.000,0
1606143732.301,-333.984,-27.344,-34.668,-682.617,0.000,0
1606143732.305,-430.176,-41.016,-52.734,-1000.000,0.000,0
1606143732.309,15.137,-30.273,-23.926,5.371,0.000,0
1606143732.313,389.160,-18.555,-0.488,-936.523,0.000,0
1606143732.317,218.750,-12.695,-6.348,660.156,0.000,0
1606143732.321,-284.668,-30.762,-26.855,-530.762,0.000,0
1606143732.325,-458.008,-45.898,-42.969,-1000.000,0.000,0
1606143732.329,-52.734,-34.180,-36.133,-168.457,0.000,0
1606143732.333,360.840,-26.367,-5.859,-1000.000,0.000,0
1606143732.337,256.836,-19.531,-4.395,765.137,0.000,0
1606143732.340,-242.188,-43.457,-37.598,-400.391,0.000,0
1606143732.344,-461.426,-59.082,-54.688,-1000.000,0.000,0
1606143732.348,-92.773,-30.762,-37.598,-321.289,0.000,0
1606143732.352,351.074,-0.488,-17.578,900.879,0.000,0
1606143732.356,310.059,3.418,-18.555,849.609,0.000,0
1606143732.360,-188.965,-22.949,-40.527,-296.875,0.000,0
1606143732.364,-465.332,-32.715,-62.012,-1000.000,0.000,0
1606143732.368,-173.340,-19.531,-56.641,-516.113,0.000,0
1606143732.372,294.922,-46.387,-35.156,736.816,0.000,0
1606143732.376,340.332,-40.039,-33.203,940.918,0.000,0
1606143732.379,-130.371,2.930,-50.781,-183.594,0.000,0
1606143732.383,-452.148,-10.742,-66.406,-1000.000,0.000,0
1606143732.387,-222.168,-14.160,-69.336,-643.555,0.000,0
1606143732.391,266.113,6.836,-49.805,581.055,0.000,0
1606143732.395,386.230,14.160,-41.016,-978.516,0.000,0
1606143732.399,-51.270,-3.906,-66.406,-41.504,0.000,0
1606143732.403,-423.828,-25.391,-91.309,-1000.000,0.000,0
1606143732.407,-261.230,-18.555,-73.242,-732.422,0.000,0
1606143732.411,237.793,-19.043,-35.156,445.312,0.000,0
1606143732.415,421.875,-11.230,-27.344,-923.828,0.000,0
1606143732.419,28.809,-9.766,-48.828,144.043,0.000,0
1606143732.422,-391.602,-33.203,-71.777,-1000.000,0.000,0
1606143732.426,-303.711,-27.832,-72.754,-835.938,0.000,0
1606143732.430,190.918,-9.277,-43.457,312.500,0.000,0
1606143732.434,418.945,3.906,-24.414,-901.367,0.000,0
1606143732.438,75.684,-5.371,-42.480,320.801,0.000,0
1606143732.442,-381.836,-36.133,-69.336,-901.855,0.000,0
1606143732.446,-374.512,-52.246,-66.406,-928.223,0.000,0
1606143732.450,111.328,-21.973,-34.180,200.684,0.000,0
1606143732.454,409.180,0.488,-17.578,-898.926,0.000,0
1606143732.458,139.648,-11.230,-29.297,486.816,0.000,0
1606143732.462,-338.379,-27.832,-50.781,-753.906,0.000,0
1606143732.465,-404.785,-34.180,-60.547,-1000.000,0.000,0
1606143732.469,62.500,-39.551,-33.203,81.543,0.000,0
1606143732.473,415.039,-64.453,-6.836,-920.410,0.000,0
1606143732.477,202.637,-38.086,-23.926,619.141,0.000,0
1606143732.481,-292.480,-22.461,-53.223,-594.727,0.000,0
1606143732.485,-425.781,-34.668,-56.152,-1000.000,0.000,0
1606143732.489,4.395,-20.996,-32.715,-58.594,0.000,0
1606143732.493,391.602,-5.371,-19.531,-961.426,0.000,0
1606143732.497,249.512,-4.883,-20.996,719.238,0.000,0
1606143732.501,-239.746,-21.484,-43.457,-454.102,0.000,0
1606143732.504,-432.617,-24.414,-55.176,-1000.000,0.000,0
1606143732.508,-58.594,-22.949,-32.715,-246.582,0.000,0
1606143732.512,367.676,-34.180,-3.906,952.637,0.000,0
1606143732.516,294.922,-23.926,-6.836,813.965,0.000,0
1606143732.520,-203.125,-26.367,-43.457,-337.891,0.000,0
1606143732.524,-456.055,-47.852,-56.641,-1000.000,0.000,0
1606143732.528,-130.859,-38.086,-37.109,-416.016,0.000,0
1606143732.532,325.684,-10.254,-11.230,826.172,0.000,0
1606143732.536,335.449,2.441,-4.395,913.574,0.000,0
1606143732.540,-152.344,-21.973,-34.668,-215.332,0.000,0
1606143732.544,-467.285,-40.527,-52.246,-1000.000,0.000,0
1606143732.547,-197.266,-18.555,-32.715,-559.082,0.000,0
1606143732.551,282.715,-42.480,-9.766,686.035,0.000,0
1606143732.555,356.445,-46.875,-5.371,990.234,0.000,0
1606143732.559,-104.492,-29.785,-36.621,-96.680,0.000,0
1606143732.563,-457.031,-47.852,-62.500,-1000.000,0.000,0
1606143732.567,-254.395,-40.527,-40.527,-683.594,0.000,0
1606143732.571,238.770,-26.367,-22.461,516.602,0.000,0
1606143732.575,383.301,-13.184,-19.043,-945.801,0.000,0
1606143732.579,-37.598,-21.484,-28.809,58.105,0.000,0
1606143732.583,-435.059,-33.691,-47.363,-1000.000,0.000,0
1606143732.587,-303.711,-23.438,-38.086,-788.086,0.000,0
1606143732.590,200.684,-0.488,-4.883,374.512,0.000,0
1606143732.594,410.645,5.371,7.324,-907.227,0.000,0
1606143732.598,40.039,-23.438,-20.020,235.840,0.000,0
1606143732.602,-403.809,-52.246,-50.781,-964.355,0.000,0
1606143732.606,-353.027,-41.016,-43.457,-883.301,0.000,0
1606143732.610,148.926,-40.039,-16.113,253.418,0.000,0
1606143732.614,416.992,-40.039,-10.254,-896.973,0.000,0
1606143732.618,108.398,-21.484,-18.555,407.715,0.000,0
1606143732.622,-354.980,-31.250,-36.621,-828.613,0.000,0
1606143732.626,-386.719,-34.668,-43.457,-977.051,0.000,0
1606143732.629,87.891,-25.391,-23.926,130.371,0.000,0
1606143732.633,408.203,-10.254,-12.695,-906.250,0.000,0
1606143732.637,159.180,-13.184,-20.996,541.016,0.000,0
1606143732.641,-327.637,-37.109,-53.223,-689.453,0.000,0
1606143732.645,-423.340,-40.039,-57.129,-1000.000,0.000,0
1606143732.649,21.484,-35.156,-34.668,-2.930,0.000,0
1606143732.653,385.254,-42.969,-25.879,-937.988,0.000,0
1606143732.657,209.961,-32.715,-35.645,658.691,0.000,0
1606143732.661,-286.133,-35.156,-51.758,-533.203,0.000,0
1606143732.665,-457.031,-41.016,-51.758,-1000.000,0.000,0
1606143732.669,-58.594,-35.645,-35.156,-175.781,0.000,0
1606143732.672,363.281,-14.160,-13.184,994.629,0.000,0
1606143732.676,263.672,-8.301,-7.812,767.578,0.000,0
1606143732.680,-248.047,-42.480,-44.922,-395.508,0.000,0
1606143732.684,-475.098,-51.758,-69.824,-1000.000,0.000,0
1606143732.688,-116.211,-31.250,-42.480,-349.121,0.000,0
1606143732.692,333.984,-15.137,-15.137,887.207,0.000,0
1606143732.696,311.523,-7.324,-16.113,866.699,0.000,0
1606143732.700,-183.594,-23.926,-38.086,-275.391,0.000,0
1606143732.704,-474.121,-32.715,-52.734,-1000.000,0.000,0
1606143732.708,-179.688,-26.855,-40.527,-500.488,0.000,0
1606143732.712,303.711,-22.949,-14.160,750.000,0.000,0
1606143732.715,358.887,-15.625,0.977,951.660,0.000,0
1606143732.719,-120.605,-35.645,-27.344,-160.156,0.000,0
1606143732.723,-462.891,-50.293,-60.059,-1000.000,0.000,0
1606143732.727,-229.980,-34.668,-46.875,-625.488,0.000,0
1606143732.731,262.695,-8.789,-12.207,594.238,0.000,0
1606143732.735,375.977,6.836,-3.906,-961.914,0.000,0
1606143732.739,-54.688,-5.859,-26.855,3.418,0.000,0
1606143732.743,-439.453,-32.227,-51.758,-1000.000,0.000,0
1606143732.747,-289.062,-36.133,-55.176,-740.723,0.000,0
1606143732.751,212.891,-20.996,-20.508,437.988,0.000,0
1606143732.754,400.391,-15.137,10.254,-920.410,0.000,0
1606143732.758,13.672,-30.762,-12.207,163.086,0.000,0
1606143732.762,-411.621,-44.434,-46.875,-1000.000,0.000,0
1606143732.766,-331.055,-30.762,-43.945,-835.938,0.000,0
1606143732.770,168.457,-10.254,-17.578,313.477,0.000,0
1606143732.774,412.598,-6.836,-5.859,-899.414,0.000,0
1606143732.778,81.543,-24.414,-20.020,334.473,0.000,0
1606143732.782,-378.906,-44.434,-44.922,-895.020,0.000,0
1606143732.786,-378.418,-37.109,-53.223,-931.641,0.000,0
1606143732.790,115.723,-36.621,-20.508,196.777,0.000,0
1606143732.794,417.969,-39.551,-12.207,-899.902,0.000,0
1606143732.797,141.113,-27.344,-35.156,488.281,0.000,0
1606143732.801,-335.449,-37.109,-48.340,-749.023,0.000,0
1606143732.805,-405.762,-34.180,-43.457,-1000.000,0.000,0
1606143732.809,57.129,-15.625,-19.043,67.383,0.000,0
1606143732.813,411.621,-7.812,-3.418,-924.805,0.000,0
1606143732.817,199.219,-15.137,-16.113,630.859,0.000,0
1606143732.821,-295.898,-39.551,-41.992,-575.684,0.000,0
1606143732.825,-435.059,-46.875,-41.504,-1000.000,0.000,0
1606143732.829,-12.207,-37.109,-25.879,-79.102,0.000,0
1606143732.833,388.184,-28.809,-10.742,-963.867,0.000,0
1606143732.837,243.652,-21.484,-17.578,729.492,0.000,0
1606143732.840,-267.578,-39.062,-52.246,-441.406,0.000,0
1606143732.844,-472.168,-43.945,-63.965,-1000.000,0.000,0
1606143732.848,-88.867,-24.902,-35.645,-251.465,0.000,0
1606143732.852,344.727,-24.414,-7.812,948.242,0.000,0
1606143732.856,283.203,-20.020,-11.719,819.824,0.000,0
1606143732.860,-213.867,-35.645,-37.598,-328.125,0.000,0
1606143732.864,-477.051,-56.152,-52.734,-1000.000,0.000,0
1606143732.868,-151.367,-36.621,-25.391,-420.898,0.000,0
1606143732.872,313.965,-22.949,-3.906,826.172,0.000,0
1606143732.876,329.590,-15.137,-13.672,914.551,0.000,0
1606143732.879,-145.020,-27.832,-41.016,-211.426,0.000,0
1606143732.883,-456.055,-42.480,-53.223,-1000.000,0.000,0
1606143732.887,-196.777,-17.578,-30.273,-569.336,0.000,0
1606143732.891,281.250,-0.977,-11.230,666.016,0.000,0
1606143732.895,369.629,-1.953,-7.324,-996.582,0.000,0
1606143732.899,-82.031,-18.066,-30.273,-71.777,0.000,0
1606143732.903,-446.289,-46.387,-51.758,-1000.000,0.000,0
1606143732.907,-244.141,-45.410,-40.039,-678.711,0.000,0
1606143732.911,258.301,-14.160,-12.695,520.020,0.000,0
1606143732.915,402.832,9.766,-7.324,-936.035,0.000,0
1606143732.919,-10.254,-15.137,-30.762,92.285,0.000,0
1606143732.922,-413.574,-44.434,-45.898,-1000.000,0.000,0
1606143732.926,-297.852,-34.180,-39.062,-789.062,0.000,0
1606143732.930,204.102,-20.508,-22.461,374.512,0.000,0
1606143732.934,417.969,-25.879,-11.719,-904.785,0.000,0
1606143732.938,57.129,-29.297,-28.320,257.324,0.000,0
1606143732.942,-378.906,-38.086,-49.805,-955.078,0.000,0
1606143732.946,-333.008,-42.969,-38.574,-882.812,0.000,0
1606143732.950,144.043,-26.367,-14.648,257.324,0.000,0
1606143732.954,408.203,-0.488,-1.465,-898.438,0.000,0
1606143732.958,110.352,-10.254,-20.508,423.340,0.000,0
1606143732.962,-359.863,-45.898,-44.434,-814.941,0.000,0
1606143732.965,-384.766,-44.434,-37.109,-979.980,0.000,0
1606143732.969,98.145,-22.949,-11.230,130.859,0.000,0
1606143732.973,418.457,-11.230,5.859,-908.691,0.000,0
1606143732.977,171.387,-9.766,-8.301,557.617,0.000,0
1606143732.981,-317.383,-35.645,-48.340,-668.945,0.000,0
1606143732.985,-420.410,-40.039,-58.594,-1000.000,0.000,0
1606143732.989,27.344,-19.043,-23.438,-0.488,0.000,0
1606143732.993,393.555,-6.836,-3.906,-940.918,0.000,0
1606143732.997,227.539,-10.254,-8.301,684.082,0.000,0
1606143733.001,-270.508,-32.227,-36.133,-504.883,0.000,0
1606143733.004,-454.102,-40.527,-60.059,-1000.000,0.000,0
1606143733.008,-57.129,-32.715,-33.203,-165.039,0.000,0
1606143733.012,359.375,-22.461,-0.488,995.605,0.000,0
1606143733.016,269.043,-9.766,-8.301,777.832,0.000,0
1606143733.020,-235.840,-21.484,-39.551,-379.395,0.000,0
1606143733.024,-466.797,-41.016,-53.711,-1000.000,0.000,0
1606143733.028,-122.070,-36.133,-35.156,-348.145,0.000,0
1606143733.032,319.824,-35.156,-7.812,884.766,0.000,0
1606143733.036,305.176,-28.320,-4.395,867.188,0.000,0
1606143733.040,-181.641,-28.320,-37.598,-272.461,0.000,0
1606143733.044,-468.262,-44.434,-53.223,-1000.000,0.000,0
1606143733.047,-183.594,-37.598,-32.715,-518.066,0.000,0
1606143733.051,291.992,-14.648,-5.859,734.375,0.000,0
1606143733.055,350.098,-1.465,-3.418,960.938,0.000,0
1606143733.059,-114.258,-30.273,-36.621,-146.484,0.000,0
1606143733.063,-454.590,-60.547,-54.199,-1000.000,0.000,0
1606143733.067,-227.051,-36.621,-29.297,-628.418,0.000,0
1606143733.071,263.184,-14.160,-3.418,592.285,0.000,0
1606143733.075,368.652,-19.043,-6.348,-974.121,0.000,0
1606143733.079,-64.941,-22.461,-19.531,-11.719,0.000,0
1606143733.083,-445.312,-39.551,-33.203,-1000.000,0.000,0
1606143733.087,-299.316,-36.621,-28.320,-743.164,0.000,0
1606143733.090,198.730,-12.695,-6.348,431.641,0.000,0
1606143733.094,387.207,-7.324,4.395,-920.410,0.000,0
1606143733.098,1.953,-23.926,-22.949,163.574,0.000,0
1606143733.102,-419.922,-41.016,-57.129,-1000.000,0.000,0
1606143733.106,-337.891,-35.645,-46.875,-851.562,0.000,0
1606143733.110,171.875,-10.254,-14.160,292.969,0.000,0
1606143733.114,425.781,1.465,-3.906,-897.949,0.000,0
1606143733.118,89.844,-22.461,-27.344,337.891,0.000,0
1606143733.122,-374.023,-52.734,-50.293,-889.648,0.000,0
1606143733.126,-374.512,-34.668,-41.992,-939.453,0.000,0
1606143733.129,105.469,-16.113,-7.812,183.594,0.000,0
1606143733.133,400.879,-17.090,5.859,-900.391,0.000,0
1606143733.137,127.441,-14.648,-14.160,492.676,0.000,0
1606143733.141,-350.098,-27.832,-40.527,-741.699,0.000,0
1606143733.145,-416.992,-36.621,-46.387,-1000.000,0.000,0
1606143733.149,45.898,-28.809,-28.320,41.504,0.000,0
1606143733.153,395.996,-15.625,-19.531,-924.805,0.000,0
1606143733.157,187.988,-16.113,-30.762,618.164,0.000,0
1606143733.161,-300.781,-34.668,-47.852,-585.938,0.000,0
1606143733.165,-440.918,-41.992,-50.781,-1000.000,0.000,0
1606143733.169,-19.531,-23.926,-22.461,-105.469,0.000,0
1606143733.172,372.070,-27.832,-14.648,-970.703,0.000,0
1606143733.176,236.816,-29.297,-23.438,721.680,0.000,0
1606143733.180,-257.812,-28.809,-39.551,-449.707,0.000,0
1606143733.184,-462.891,-41.016,-59.570,-1000.000,0.000,0
1606143733.188,-88.867,-40.527,-45.898,-284.180,0.000,0
1606143733.192,344.727,-25.879,-15.137,931.641,0.000,0
1606143733.196,290.039,-14.160,-5.859,834.961,0.000,0
1606143733.200,-201.172,-35.645,-33.203,-316.895,0.000,0
1606143733.204,-451.172,-51.270,-50.293,-1000.000,0.000,0
1606143733.208,-120.605,-21.973,-34.180,-416.504,0.000,0
1606143733.212,331.543,-16.602,-17.578,817.871,0.000,0
1606143733.215,332.031,-27.832,-10.254,915.527,0.000,0
1606143733.219,-143.066,-33.203,-29.297,-209.473,0.000,0
1606143733.223,-438.477,-48.340,-43.945,-1000.000,0.000,0
1606143733.227,-182.617,-45.410,-37.598,-559.082,0.000,0
1606143733.231,289.551,-21.484,-17.578,674.316,0.000,0
1606143733.235,374.512,-10.742,-11.230,-997.070,0.000,0
1606143733.239,-68.848,-29.785,-34.180,-63.965,0.000,0
1606143733.243,-430.176,-46.387,-49.316,-1000.000,0.000,0
1606143733.247,-248.535,-37.598,-45.898,-687.012,0.000,0
1606143733.251,251.465,-13.184,-22.461,507.812,0.000,0
1606143733.254,416.016,-8.789,-8.789,-927.246,0.000,0
1606143733.258,-0.488,-25.391,-33.203,108.398,0.000,0
1606143733.262,-414.062,-36.621,-58.594,-1000.000,0.000,0
1606143733.266,-286.133,-27.832,-40.039,-792.480,0.000,0
1606143733.270,219.727,-26.367,-16.602,371.094,0.000,0
1606143733.274,445.801,-17.578,-8.301,-906.250,0.000,0
1606143733.278,75.684,-18.066,-17.090,270.508,0.000,0
1606143733.282,-390.625,-40.039,-49.805,-943.359,0.000,0
1606143733.286,-339.844,-30.762,-49.805,-886.719,0.000,0
1606143733.290,162.598,-18.066,-19.043,256.836,0.000,0
1606143733.294,434.082,-12.207,-8.789,-897.949,0.000,0
1606143733.297,128.906,-13.672,-23.438,439.941,0.000,0
1606143733.301,-344.727,-32.227,-48.828,-802.246,0.000,0
1606143733.305,-386.719,-49.316,-48.828,-976.074,0.000,0
1606143733.309,93.750,-16.113,-25.391,134.277,0.000,0
1606143733.313,416.016,0.977,-4.883,-911.133,0.000,0
1606143733.317,184.570,-23.438,-9.277,568.848,0.000,0
1606143733.321,-310.059,-46.875,-39.062,-660.156,0.000,0
1606143733.325,-434.082,-66.895,-45.410,-1000.000,0.000,0
1606143733.329,12.207,-40.039,-20.996,-9.766,0.000,0
1606143733.333,397.949,-11.230,0.000,-942.383,0.000,0
1606143733.337,234.375,-13.184,-11.230,681.152,0.000,0
1606143733.340,-279.785,-35.645,-36.133,-505.859,0.000,0
1606143733.344,-459.961,-46.387,-38.574,-1000.000,0.000,0
