timestamps,TP9,AF7,AF8,TP10,Right AUX
1606139188.846,0.000,0.000,0.000,-0.488,0.000
1606139188.850,0.000,0.000,0.000,0.488,0.000
1606139188.854,-1.465,-0.977,-0.977,0.488,0.000
1606139188.858,0.000,1.465,0.488,-10.254,0.000
1606139188.862,-4.395,-9.766,-6.348,36.621,0.000
1606139188.866,-44.434,-27.344,-19.043,-46.875,0.000
1606139188.870,-75.684,-26.855,-23.438,-219.727,0.000
1606139188.873,-50.781,-23.926,-24.414,-145.508,0.000
1606139188.877,8.789,-26.367,-22.949,69.824,0.000
1606139188.881,33.203,-24.414,-28.320,145.996,0.000
1606139188.885,-14.160,-20.996,-35.645,-30.762,0.000
1606139188.889,-63.965,-27.344,-35.645,-206.055,0.000
1606139188.893,-48.340,-29.785,-31.250,-156.250,0.000
1606139188.897,13.184,-24.902,-33.203,64.453,0.000
1606139188.901,39.551,-17.578,-36.133,179.688,0.000
1606139188.905,-1.953,-14.160,-33.203,35.156,0.000
1606139188.909,-63.477,-21.484,-38.086,-176.270,0.000
1606139188.913,-58.105,-22.949,-37.109,-173.828,0.000
1606139188.916,4.883,-20.508,-29.297,49.805,0.000
1606139188.920,22.461,-27.832,-22.461,173.340,0.000
1606139188.924,-12.207,-36.621,-19.531,41.992,0.000
1606139188.928,-62.988,-36.621,-24.902,-157.227,0.000
1606139188.932,-68.848,-32.227,-27.832,-164.551,0.000
1606139188.936,-7.812,-26.367,-29.297,51.270,0.000
1606139188.940,34.180,-23.926,-31.250,188.477,0.000
1606139188.944,0.000,-30.762,-29.785,79.102,0.000
1606139188.948,-64.453,-33.203,-28.809,-131.836,0.000
1606139188.952,-84.473,-29.785,-25.391,-189.453,0.000
1606139188.955,-32.715,-30.273,-22.949,-3.418,0.000
1606139188.959,13.672,-23.926,-20.508,173.340,0.000
1606139188.963,0.000,28.809,-20.996,122.559,0.000
1606139188.967,-66.406,41.504,-29.785,-127.930,0.000
1606139188.971,-94.727,-12.207,-28.809,-245.117,0.000
1606139188.975,-41.992,-34.180,-29.785,-71.777,0.000
1606139188.979,16.602,-32.227,-30.273,124.023,0.000
1606139188.983,15.137,-35.156,-28.320,95.703,0.000
1606139188.987,-42.969,-33.203,-24.902,-125.488,0.000
1606139188.991,-73.730,-29.297,-23.438,-244.141,0.000
1606139188.995,-36.133,-31.250,-31.250,-109.863,0.000
1606139188.998,23.438,-26.367,-29.785,94.727,0.000
1606139189.002,20.996,-22.461,-25.391,106.934,0.000
1606139189.006,-41.016,-34.668,-26.367,-104.004,0.000
1606139189.010,-75.684,-6.348,-27.832,-242.188,0.000
1606139189.014,-41.504,21.973,-20.020,-129.883,0.000
1606139189.018,12.207,-14.648,-16.602,85.938,0.000
1606139189.022,8.789,-34.180,-23.926,120.605,0.000
1606139189.026,-39.551,-30.273,-22.461,-71.289,0.000
1606139189.030,-84.473,-33.691,-19.043,-230.469,0.000
1606139189.034,-78.125,-38.574,-23.438,-164.062,0.000
1606139189.038,-11.230,-30.273,-22.461,65.918,0.000
1606139189.041,6.836,-27.344,-23.926,131.836,0.000
1606139189.045,-49.805,-34.180,-28.320,-59.570,0.000
1606139189.049,-90.820,-40.527,-26.855,-227.539,0.000
1606139189.053,-69.824,-36.133,-20.996,-165.527,0.000
1606139189.057,0.488,-32.715,-12.695,71.777,0.000
1606139189.061,24.902,-12.207,-13.672,162.598,0.000
1606139189.065,-26.367,5.371,-18.066,-3.906,0.000
1606139189.069,-80.078,-28.320,-20.508,-202.637,0.000
1606139189.073,-78.613,-45.898,-23.926,-188.477,0.000
1606139189.077,-14.648,-38.574,-21.973,40.527,0.000
1606139189.080,21.973,-33.203,-18.066,169.922,0.000
1606139189.084,-16.113,-32.715,-19.043,38.086,0.000
1606139189.088,-75.684,-38.086,-24.902,-178.711,0.000
1606139189.092,-84.473,-33.203,-31.250,-210.938,0.000
1606139189.096,-23.438,-26.367,-28.320,-1.953,0.000
1606139189.100,12.207,-29.785,-23.438,153.809,0.000
1606139189.104,-22.461,-32.715,-26.855,55.664,0.000
1606139189.108,-84.473,-42.969,-27.832,-170.898,0.000
1606139189.112,-96.680,-11.719,-34.180,-231.934,0.000
1606139189.116,-41.016,-8.789,-39.551,-44.922,0.000
1606139189.120,18.066,-34.180,-26.367,140.137,0.000
1606139189.123,7.324,-25.879,-22.461,85.938,0.000
1606139189.127,-58.105,-30.762,-27.832,-140.625,0.000
1606139189.131,-88.379,-33.691,-30.273,-230.469,0.000
1606139189.135,-41.016,-33.691,-30.273,-65.430,0.000
1606139189.139,12.695,-32.715,-29.785,137.207,0.000
1606139189.143,5.859,-32.227,-23.926,112.305,0.000
1606139189.147,-48.828,-32.227,-21.484,-104.980,0.000
1606139189.151,-69.336,-25.391,-28.320,-196.777,0.000
1606139189.155,-25.879,-22.949,-24.414,-49.805,0.000
1606139189.159,11.719,-33.203,-11.719,151.855,0.000
1606139189.163,-4.395,14.160,-4.395,154.297,0.000
1606139189.166,-63.965,16.602,-8.789,-62.500,0.000
1606139189.170,-96.680,-44.922,-12.695,-207.031,0.000
1606139189.174,-62.012,-46.875,-12.207,-102.539,0.000
1606139189.178,0.488,-44.434,-13.184,111.816,0.000
1606139189.182,20.996,-39.551,-11.719,162.109,0.000
1606139189.186,-30.762,-39.062,-12.207,-40.039,0.000
1606139189.190,-67.871,-37.109,-15.625,-202.637,0.000
1606139189.194,-34.668,-30.273,-18.066,-117.676,0.000
1606139189.198,27.344,-27.344,-15.137,101.074,0.000
1606139189.202,45.898,-20.508,-11.230,168.457,0.000
1606139189.205,-2.441,-33.203,-17.090,-19.043,0.000
1606139189.209,-56.152,-33.691,-26.855,-204.590,0.000
1606139189.213,-44.922,-8.789,-30.762,-156.738,0.000
1606139189.217,23.926,-21.484,-28.809,60.547,0.000
1606139189.221,42.969,-32.227,-27.832,153.809,0.000
1606139189.225,-17.578,-31.250,-27.832,-0.488,0.000
1606139189.229,-64.941,-32.227,-28.320,-186.523,0.000
1606139189.233,-56.641,-30.273,-26.367,-181.152,0.000
1606139189.237,-2.930,-29.297,-20.508,34.668,0.000
1606139189.241,26.855,-25.879,-21.484,164.062,0.000
1606139189.245,-8.301,-28.809,-21.973,41.992,0.000
1606139189.248,-72.754,-40.039,-24.414,-179.199,0.000
1606139189.252,-83.496,-38.574,-28.809,-224.121,0.000
1606139189.256,-24.902,-31.250,-23.926,-16.602,0.000
1606139189.260,19.531,-28.320,-20.508,135.742,0.000
1606139189.264,-10.254,-28.809,-26.367,37.109,0.000
1606139189.268,-82.031,-38.086,-26.367,-175.781,0.000
1606139189.272,-97.168,1.465,-23.926,-226.074,0.000
1606139189.276,-40.039,22.949,-23.438,-35.156,0.000
1606139189.280,13.672,-24.902,-19.043,151.367,0.000
1606139189.284,-6.836,-35.645,-13.672,84.961,0.000
1606139189.288,-74.219,-46.875,-13.184,-143.555,0.000
1606139189.291,-99.609,-15.137,-20.508,-211.914,0.000
1606139189.295,-63.965,-6.836,-20.020,-50.293,0.000
1606139189.299,-18.066,-41.992,-15.137,134.277,0.000
1606139189.303,-24.414,-46.875,-15.137,110.352,0.000
1606139189.307,-81.543,-49.316,-21.973,-109.863,0.000
1606139189.311,-110.840,-43.457,-28.809,-222.168,0.000
1606139189.315,-68.848,-43.457,-25.391,-83.008,0.000
1606139189.319,-5.371,-39.551,-20.020,125.000,0.000
1606139189.323,-1.953,-30.273,-20.020,134.766,0.000
1606139189.327,-63.477,-35.645,-23.438,-88.867,0.000
1606139189.330,-97.656,-39.062,-24.414,-225.586,0.000
1606139189.334,-62.500,-34.668,-24.414,-117.676,0.000
1606139189.338,1.465,-30.762,-24.414,95.215,0.000
1606139189.342,15.137,-24.414,-22.461,139.648,0.000
1606139189.346,-37.598,-30.762,-23.438,-60.059,0.000
1606139189.350,-81.543,-26.367,-32.227,-230.957,0.000
1606139189.354,-49.316,7.812,-30.273,-151.855,0.000
1606139189.358,18.555,-2.441,-25.879,86.914,0.000
1606139189.362,34.668,-26.855,-26.367,158.691,0.000
1606139189.366,-7.812,-27.344,-26.855,-36.621,0.000
1606139189.370,-51.758,-28.320,-28.809,-216.309,0.000
1606139189.373,-45.898,-26.855,-27.832,-160.156,0.000
1606139189.377,4.883,-29.297,-26.367,56.641,0.000
1606139189.381,29.785,-29.785,-25.391,152.832,0.000
1606139189.385,-9.766,-32.227,-25.391,9.277,0.000
1606139189.389,-66.895,-31.250,-28.809,-177.734,0.000
1606139189.393,-63.965,-13.184,-35.645,-177.734,0.000
1606139189.397,-2.441,-21.973,-35.645,34.668,0.000
1606139189.401,30.273,-31.250,-31.738,176.270,0.000
1606139189.405,-7.324,-30.273,-34.668,61.035,0.000
1606139189.409,-74.219,-34.180,-39.062,-160.156,0.000
1606139189.413,-81.543,-29.297,-32.715,-201.172,0.000
1606139189.416,-17.578,-24.902,-28.809,14.648,0.000
1606139189.420,15.625,-24.414,-29.785,171.387,0.000
1606139189.424,-9.766,-26.367,-32.227,77.148,0.000
1606139189.428,-67.871,-36.133,-39.551,-146.484,0.000
1606139189.432,-83.984,6.348,-34.668,-192.871,0.000
1606139189.436,-20.020,30.762,-28.809,-7.324,0.000
1606139189.440,24.414,-12.695,-32.227,131.836,0.000
1606139189.444,3.418,-21.973,-35.156,64.941,0.000
1606139189.448,-45.898,-20.508,-31.738,-145.508,0.000
1606139189.452,-71.289,-26.367,-29.785,-236.816,0.000
1606139189.455,-34.668,-32.227,-35.156,-84.961,0.000
1606139189.459,21.484,-33.691,-35.645,104.492,0.000
1606139189.463,14.160,-30.762,-32.715,82.031,0.000
1606139189.467,-50.293,-33.691,-29.785,-131.348,0.000
1606139189.471,-81.543,-42.480,-29.785,-247.070,0.000
1606139189.475,-42.969,-37.109,-27.344,-109.375,0.000
1606139189.479,8.301,-26.855,-20.020,93.262,0.000
1606139189.483,0.000,-28.320,-22.949,85.449,0.000
1606139189.487,-63.965,-45.410,-25.879,-126.953,0.000
1606139189.491,-100.586,-21.484,-30.762,-259.766,0.000
1606139189.495,-62.988,5.371,-32.715,-154.785,0.000
1606139189.498,-7.324,-25.391,-27.344,60.547,0.000
1606139189.502,-6.348,-32.715,-24.902,107.422,0.000
1606139189.506,-63.477,-31.738,-29.785,-94.727,0.000
1606139189.510,-108.887,-39.062,-36.133,-254.395,0.000
1606139189.514,-89.355,-41.992,-35.156,-171.875,0.000
1606139189.518,-30.762,-38.574,-40.039,46.387,0.000
1606139189.522,-12.695,-35.156,-41.016,127.930,0.000
1606139189.526,-55.664,-39.551,-34.180,-36.133,0.000
1606139189.530,-90.820,-35.645,-34.668,-208.984,0.000
1606139189.534,-78.613,-3.418,-36.621,-155.762,0.000
1606139189.538,-23.438,-7.324,-29.297,77.637,0.000
1606139189.541,13.184,-27.344,-21.484,177.734,0.000
1606139189.545,-28.809,-26.855,-16.113,18.066,0.000
1606139189.549,-82.031,-30.273,-19.531,-175.293,0.000
1606139189.553,-68.848,-30.762,-19.043,-155.273,0.000
1606139189.557,1.465,-29.785,-9.766,86.426,0.000
1606139189.561,34.668,-23.926,-20.508,205.078,0.000
1606139189.565,-5.859,-25.391,-27.344,59.570,0.000
1606139189.569,-63.477,-28.809,-26.367,-144.043,0.000
1606139189.573,-64.941,-7.324,-29.297,-170.898,0.000
1606139189.577,-0.977,-16.602,-29.297,37.109,0.000
1606139189.580,38.086,-39.062,-32.227,204.102,0.000
1606139189.584,13.184,-34.180,-28.809,111.816,0.000
1606139189.588,-46.875,-35.156,-25.879,-126.465,0.000
1606139189.592,-68.848,-34.668,-33.203,-203.125,0.000
1606139189.596,-11.719,-28.320,-35.156,-1.465,0.000
1606139189.600,39.062,-22.461,-35.156,190.430,0.000
1606139189.604,16.113,-19.531,-32.715,131.836,0.000
1606139189.608,-59.082,-26.855,-26.367,-109.863,0.000
1606139189.612,-86.426,-32.227,-27.344,-209.473,0.000
1606139189.616,-35.156,-30.762,-30.273,-21.973,0.000
1606139189.620,24.902,-26.367,-28.320,206.543,0.000
1606139189.623,15.625,-23.438,-29.785,186.035,0.000
1606139189.627,-61.523,-34.668,-37.109,-78.613,0.000
1606139189.631,-95.703,-16.602,-44.922,-227.051,0.000
1606139189.635,-45.898,6.836,-46.875,-68.359,0.000
1606139189.639,15.137,-16.113,-39.551,164.062,0.000
1606139189.643,13.672,-25.391,-39.551,183.105,0.000
1606139189.647,-56.152,-31.250,-45.410,-47.852,0.000
1606139189.651,-99.609,-34.180,-44.434,-201.660,0.000
1606139189.655,-64.453,-27.832,-44.922,-87.891,0.000
1606139189.659,-0.488,-26.367,-38.574,139.160,0.000
1606139189.663,16.602,-22.949,-25.391,208.008,0.000
1606139189.666,-39.062,-30.762,-25.879,7.812,0.000
1606139189.670,-88.867,-30.762,-36.621,-185.059,0.000
1606139189.674,-68.848,-27.832,-39.551,-132.324,0.000
1606139189.678,0.488,-38.086,-36.621,106.445,0.000
1606139189.682,36.133,-31.738,-29.297,218.262,0.000
1606139189.686,-22.461,-32.227,-25.879,25.391,0.000
1606139189.690,-86.914,-37.109,-27.344,-206.543,0.000
1606139189.694,-76.172,-34.668,-29.297,-190.918,0.000
1606139189.698,-11.230,-29.785,-29.297,59.570,0.000
1606139189.702,25.391,-25.391,-27.344,188.965,0.000
1606139189.705,-22.461,-29.297,-31.738,8.301,0.000
1606139189.709,-87.402,-23.438,-27.832,-234.863,0.000
1606139189.713,-83.496,-3.418,-18.555,-239.746,0.000
1606139189.717,-10.742,-12.207,-22.461,-5.859,0.000
1606139189.721,33.203,-27.832,-21.973,146.484,0.000
1606139189.725,-8.789,-28.320,-14.648,20.508,0.000
1606139189.729,-85.938,-24.414,-22.949,-238.281,0.000
1606139189.733,-100.098,-23.438,-30.273,-301.758,0.000
1606139189.737,-28.809,-30.762,-20.996,-74.707,0.000
1606139189.741,26.855,-26.367,-17.578,124.023,0.000
1606139189.745,-3.418,-24.902,-17.578,49.805,0.000
1606139189.748,-86.426,-29.785,-20.508,-219.727,0.000
1606139189.752,-109.375,-28.320,-30.762,-341.309,0.000
1606139189.756,-36.621,-22.461,-32.227,-130.859,0.000
1606139189.760,28.809,-16.113,-28.809,109.863,0.000
1606139189.764,6.836,-20.996,-28.809,59.082,0.000
1606139189.768,-72.754,-25.391,-29.297,-200.684,0.000
1606139189.772,-106.934,-30.273,-35.156,-333.008,0.000
1606139189.776,-56.641,-30.762,-36.621,-171.387,0.000
1606139189.780,15.137,-29.785,-29.297,72.754,0.000
1606139189.784,12.695,-29.785,-29.297,83.984,0.000
1606139189.788,-65.430,-35.645,-31.250,-156.250,0.000
1606139189.791,-104.980,-41.504,-30.273,-305.664,0.000
1606139189.795,-66.406,-42.969,-33.203,-176.270,0.000
1606139189.799,3.418,-33.203,-28.809,72.266,0.000
1606139189.803,15.137,-30.762,-23.438,124.023,0.000
1606139189.807,-61.035,-43.457,-27.344,-104.492,0.000
1606139189.811,-116.211,-34.180,-30.762,-283.691,0.000
1606139189.815,-84.473,-17.578,-28.320,-197.754,0.000
1606139189.819,-20.020,-28.809,-30.273,35.156,0.000
1606139189.823,0.488,-41.016,-34.180,111.816,0.000
1606139189.827,-52.734,-42.480,-39.062,-82.031,0.000
1606139189.830,-106.445,-44.922,-37.598,-267.090,0.000
1606139189.834,-88.379,-41.992,-36.621,-212.891,0.000
1606139189.838,-12.695,-32.227,-39.551,27.344,0.000
1606139189.842,28.809,-26.367,-32.227,142.578,0.000
1606139189.846,-22.461,-31.738,-36.621,-35.156,0.000
1606139189.850,-80.566,-34.180,-42.969,-230.957,0.000
1606139189.854,-69.336,-34.668,-41.992,-198.242,0.000
1606139189.858,7.812,-29.297,-37.109,45.898,0.000
1606139189.862,49.316,-26.855,-34.668,181.641,0.000
1606139189.866,0.977,-34.668,-32.715,32.227,0.000
1606139189.870,-58.594,-33.691,-31.250,-185.059,0.000
1606139189.873,-55.176,-31.250,-31.738,-206.543,0.000
1606139189.877,19.531,-29.785,-28.320,35.156,0.000
1606139189.881,64.453,-24.414,-20.996,203.125,0.000
1606139189.885,23.438,-22.461,-18.066,96.680,0.000
1606139189.889,-49.316,-28.320,-17.578,-123.535,0.000
1606139189.893,-63.477,-31.738,-21.484,-187.012,0.000
1606139189.897,1.465,-22.949,-23.438,18.555,0.000
1606139189.901,58.105,-16.602,-21.484,200.684,0.000
1606139189.905,28.809,-22.461,-22.949,132.812,0.000
1606139189.909,-59.082,-27.344,-22.461,-102.539,0.000
1606139189.913,-90.820,-27.832,-27.344,-211.426,0.000
1606139189.916,-24.414,-26.855,-28.320,-15.137,0.000
1606139189.920,38.574,-25.391,-19.043,194.336,0.000
1606139189.924,19.043,-24.414,-19.531,141.113,0.000
1606139189.928,-61.035,-28.320,-26.367,-114.746,0.000
1606139189.932,-99.121,-24.414,-29.297,-239.258,0.000
1606139189.936,-49.805,-22.461,-31.738,-78.125,0.000
1606139189.940,13.672,-24.902,-29.785,139.648,0.000
1606139189.944,13.184,-20.996,-25.879,148.438,0.000
1606139189.948,-58.105,-23.926,-28.320,-86.914,0.000
1606139189.952,-104.980,-29.785,-34.668,-246.582,0.000
1606139189.955,-60.059,-30.762,-30.762,-126.465,0.000
1606139189.959,19.043,-29.297,-27.832,109.375,0.000
1606139189.963,34.668,-24.414,-29.297,161.621,0.000
1606139189.967,-39.551,-30.762,-39.062,-74.707,0.000
1606139189.971,-97.168,-34.668,-46.875,-264.160,0.000
1606139189.975,-62.988,-35.645,-42.969,-167.969,0.000
1606139189.979,16.113,-37.109,-40.039,84.473,0.000
1606139189.983,27.832,-31.250,-39.551,162.598,0.000
1606139189.987,-41.504,-30.762,-41.992,-52.734,0.000
1606139189.991,-100.098,-41.504,-44.922,-254.883,0.000
1606139189.995,-70.801,-41.504,-44.922,-181.152,0.000
1606139189.998,17.090,-37.109,-38.574,74.219,0.000
1606139190.002,43.457,-39.062,-36.133,180.664,0.000
1606139190.006,-21.484,-41.504,-39.551,6.836,0.000
1606139190.010,-86.914,-33.691,-35.156,-199.707,0.000
1606139190.014,-70.312,-21.973,-32.715,-177.734,0.000
1606139190.018,6.348,-21.973,-40.039,69.824,0.000
1606139190.022,43.945,-17.090,-35.156,224.121,0.000
1606139190.026,-7.812,-19.531,-29.297,80.566,0.000
1606139190.030,-83.984,-26.367,-30.273,-165.039,0.000
1606139190.034,-78.125,-22.949,-27.832,-184.082,0.000
1606139190.038,8.789,-20.020,-21.973,72.754,0.000
1606139190.041,62.988,-17.090,-14.648,242.188,0.000
1606139190.045,10.254,-18.066,-16.113,116.211,0.000
1606139190.049,-77.148,-22.461,-24.902,-145.508,0.000
1606139190.053,-92.285,-20.020,-25.391,-206.055,0.000
1606139190.057,-19.531,-18.066,-17.578,28.809,0.000
1606139190.061,43.457,-20.020,-14.648,229.492,0.000
1606139190.065,2.930,-23.438,-13.184,142.090,0.000
1606139190.069,-78.125,-25.391,-13.184,-131.348,0.000
1606139190.073,-87.402,-20.508,-16.113,-224.121,0.000
1606139190.077,-12.695,-17.578,-14.648,-14.160,0.000
1606139190.080,59.082,-18.555,-10.742,206.543,0.000
1606139190.084,41.504,-20.996,-20.020,164.062,0.000
1606139190.088,-47.363,-29.785,-28.809,-97.168,0.000
1606139190.092,-90.820,-2.441,-34.180,-235.840,0.000
1606139190.096,-32.227,16.602,-34.668,-67.871,0.000
1606139190.100,47.363,-13.672,-28.320,181.152,0.000
1606139190.104,39.551,-20.020,-26.855,176.758,0.000
1606139190.108,-53.223,-22.461,-26.855,-101.074,0.000
1606139190.112,-106.445,-27.832,-28.320,-268.555,0.000
1606139190.116,-60.547,-31.738,-33.691,-118.164,0.000
1606139190.120,20.996,-29.297,-30.273,152.344,0.000
1606139190.123,29.785,-26.367,-29.297,196.289,0.000
1606139190.127,-63.965,-36.133,-37.598,-79.590,0.000
1606139190.131,-126.953,-36.621,-38.086,-284.668,0.000
1606139190.135,-79.102,-32.715,-29.785,-147.949,0.000
1606139190.139,9.277,-39.551,-30.762,138.672,0.000
1606139190.143,26.855,-41.504,-31.738,213.867,0.000
1606139190.147,-50.293,-39.551,-29.785,-32.715,0.000
1606139190.151,-117.188,-39.551,-32.227,-251.465,0.000
1606139190.155,-92.285,-38.574,-27.344,-168.457,0.000
1606139190.159,-2.441,-27.832,-20.020,125.977,0.000
1606139190.163,30.762,-26.367,-22.461,249.512,0.000
1606139190.166,-42.480,-32.715,-27.344,18.555,0.000
1606139190.170,-121.094,-36.621,-26.367,-250.488,0.000
1606139190.174,-107.910,-36.621,-26.855,-222.656,0.000
1606139190.178,-8.789,-26.855,-23.438,94.727,0.000
1606139190.182,52.246,-23.438,-20.020,275.391,0.000
1606139190.186,-6.836,-27.344,-24.414,78.613,0.000
1606139190.190,-87.891,-30.273,-23.926,-224.609,0.000
1606139190.194,-75.684,-36.621,-24.414,-245.117,0.000
1606139190.198,26.855,-26.367,-21.484,64.941,0.000
1606139190.202,91.797,-11.230,-17.090,272.461,0.000
1606139190.205,34.668,-14.648,-23.926,110.352,0.000
1606139190.209,-67.871,-13.672,-31.738,-210.938,0.000
1606139190.213,-81.055,-14.160,-36.133,-272.461,0.000
1606139190.217,6.348,-19.531,-30.273,22.949,0.000
1606139190.221,72.754,-13.672,-21.973,258.789,0.000
1606139190.225,37.598,-11.230,-19.531,144.531,0.000
1606139190.229,-59.570,-16.602,-26.367,-176.270,0.000
1606139190.233,-91.797,-14.648,-29.297,-291.504,0.000
1606139190.237,-10.742,-11.719,-19.043,-21.484,0.000
1606139190.241,68.848,-9.766,-17.090,249.512,0.000
1606139190.245,40.527,-7.324,-18.555,177.734,0.000
1606139190.248,-67.383,-17.578,-20.020,-161.621,0.000
1606139190.252,-114.258,-22.949,-18.066,-326.172,0.000
1606139190.256,-42.969,-23.438,-16.602,-92.285,0.000
1606139190.260,41.016,-21.973,-23.438,211.426,0.000
1606139190.264,18.066,-27.344,-24.414,192.383,0.000
1606139190.268,-85.449,-39.062,-24.902,-148.438,0.000
1606139190.272,-136.719,-35.156,-28.809,-344.727,0.000
1606139190.276,-74.219,-33.203,-26.855,-144.531,0.000
1606139190.280,26.367,-33.691,-19.043,197.266,0.000
1606139190.284,29.785,-33.203,-17.578,235.840,0.000
1606139190.288,-70.801,-40.039,-20.020,-104.980,0.000
1606139190.291,-139.648,-41.016,-23.926,-340.332,0.000
1606139190.295,-82.031,-36.621,-24.902,-188.965,0.000
1606139190.299,25.879,-36.133,-27.344,166.992,0.000
1606139190.303,40.039,-32.715,-27.344,276.367,0.000
1606139190.307,-62.988,-37.109,-28.320,-41.992,0.000
1606139190.311,-146.484,-41.992,-43.945,-341.797,0.000
1606139190.315,-106.445,-42.480,-45.410,-240.234,0.000
1606139190.319,10.742,-36.621,-36.621,146.973,0.000
1606139190.323,51.758,-32.715,-35.645,285.156,0.000
1606139190.327,-29.785,-41.016,-33.691,-14.648,0.000
1606139190.330,-114.746,-34.668,-34.668,-317.383,0.000
1606139190.334,-91.797,-29.785,-37.598,-268.066,0.000
1606139190.338,25.879,-35.645,-28.320,118.164,0.000
1606139190.342,81.055,-29.297,-22.949,317.871,0.000
1606139190.346,7.324,-27.832,-31.250,74.219,0.000
1606139190.350,-99.609,-35.156,-37.109,-284.668,0.000
1606139190.354,-99.121,-37.598,-34.668,-294.922,0.000
1606139190.358,20.020,-27.832,-24.902,98.633,0.000
1606139190.362,84.473,-22.949,-26.855,343.750,0.000
1606139190.366,20.020,-26.367,-32.715,150.391,0.000
1606139190.370,-83.008,-23.438,-28.809,-209.961,0.000
1606139190.373,-94.238,1.953,-32.715,-284.668,0.000
1606139190.377,7.324,-1.465,-33.203,59.570,0.000
1606139190.381,87.402,-23.926,-23.926,348.145,0.000
1606139190.385,37.109,-20.996,-20.508,199.219,0.000
1606139190.389,-82.520,-30.273,-26.855,-204.590,0.000
1606139190.393,-110.840,-35.645,-29.785,-337.402,0.000
1606139190.397,-10.742,-30.762,-24.414,-17.578,0.000
1606139190.401,77.148,-24.414,-20.508,313.477,0.000
1606139190.405,36.133,-26.367,-22.461,229.004,0.000
1606139190.409,-90.332,-31.738,-25.879,-183.594,0.000
1606139190.413,-132.812,-27.344,-22.949,-370.117,0.000
1606139190.416,-41.016,-20.020,-14.648,-78.613,0.000
1606139190.420,62.012,-16.113,-9.277,291.992,0.000
1606139190.424,49.316,-20.020,-10.742,250.977,0.000
1606139190.428,-75.195,-26.855,-14.648,-170.410,0.000
1606139190.432,-145.508,-20.996,-21.973,-396.484,0.000
1606139190.436,-66.895,-17.090,-20.508,-148.438,0.000
1606139190.440,53.711,-20.020,-14.160,248.535,0.000
1606139190.444,58.594,-21.484,-21.484,286.621,0.000
1606139190.448,-59.082,-21.973,-27.344,-96.680,0.000
1606139190.452,-145.020,-25.391,-36.133,-388.672,0.000
1606139190.455,-91.797,-27.832,-41.504,-217.285,0.000
1606139190.459,36.621,-19.043,-27.344,210.449,0.000
1606139190.463,63.477,-12.695,-19.531,316.895,0.000
1606139190.467,-58.105,-33.203,-35.156,-72.266,0.000
1606139190.471,-157.715,-17.090,-38.086,-405.273,0.000
1606139190.475,-106.934,20.508,-29.785,-272.461,0.000
1606139190.479,27.344,-5.859,-25.391,158.691,0.000
1606139190.483,64.453,-24.902,-19.043,327.148,0.000
1606139190.487,-34.668,-26.855,-21.973,0.000,0.000
1606139190.491,-137.695,-31.738,-28.320,-375.000,0.000
1606139190.495,-102.051,-31.738,-25.391,-310.547,0.000
1606139190.498,27.832,-22.949,-19.531,125.000,0.000
1606139190.502,74.707,-20.508,-17.578,339.355,0.000
1606139190.506,-0.977,-26.855,-18.555,61.035,0.000
1606139190.510,-111.816,-20.996,-25.879,-337.402,0.000
1606139190.514,-118.652,-15.625,-32.715,-355.957,0.000
1606139190.518,0.977,-20.020,-24.414,63.965,0.000
1606139190.522,74.219,-16.602,-12.207,345.703,0.000
1606139190.526,4.883,-18.066,-15.625,121.582,0.000
1606139190.530,-118.164,-24.902,-26.855,-314.453,0.000
1606139190.534,-129.883,-31.738,-26.367,-391.113,0.000
1606139190.538,-8.789,-33.203,-18.555,20.020,0.000
1606139190.541,80.078,-21.973,-14.160,349.121,0.000
1606139190.545,18.066,-28.809,-22.461,182.617,0.000
1606139190.549,-120.117,-32.715,-31.250,-272.461,0.000
1606139190.553,-149.414,-24.902,-29.785,-420.410,0.000
1606139190.557,-33.203,-23.438,-17.578,-47.363,0.000
1606139190.561,62.988,-24.902,-19.531,314.453,0.000
1606139190.565,25.879,-29.785,-31.250,200.684,0.000
1606139190.569,-102.539,-27.832,-31.250,-256.836,0.000
1606139190.573,-153.809,-27.344,-28.320,-449.707,0.000
1606139190.577,-55.664,-31.250,-28.809,-137.695,0.000
1606139190.580,53.223,-27.344,-30.762,260.742,0.000
1606139190.584,30.762,-22.949,-26.855,241.211,0.000
1606139190.588,-100.098,-25.879,-27.832,-205.078,0.000
1606139190.592,-163.574,-27.344,-37.598,-457.031,0.000
1606139190.596,-78.613,-24.902,-38.574,-203.125,0.000
1606139190.600,46.387,-22.949,-30.273,214.844,0.000
1606139190.604,50.293,-19.531,-25.391,269.531,0.000
1606139190.608,-74.707,-24.902,-34.668,-151.855,0.000
1606139190.612,-156.250,-21.973,-38.574,-452.637,0.000
1606139190.616,-83.496,-16.602,-29.785,-247.559,0.000
1606139190.620,50.781,-17.578,-23.438,203.125,0.000
1606139190.623,71.777,-15.625,-29.297,320.312,0.000
1606139190.627,-45.410,-21.973,-34.180,-71.289,0.000
1606139190.631,-145.508,-25.879,-35.156,-423.340,0.000
1606139190.635,-99.121,-27.832,-36.133,-288.574,0.000
1606139190.639,28.809,-28.320,-35.645,161.133,0.000
1606139190.643,69.824,-24.902,-28.809,347.656,0.000
1606139190.647,-32.715,-29.785,-27.344,18.066,0.000
1606139190.651,-138.672,-25.879,-24.902,-368.164,0.000
1606139190.655,-114.258,-27.344,-25.391,-316.406,0.000
1606139190.659,15.625,-31.250,-26.367,125.000,0.000
1606139190.663,79.590,-23.926,-28.320,359.863,0.000
1606139190.666,-8.789,-23.926,-29.297,71.289,0.000
1606139190.670,-128.418,-28.809,-29.785,-347.656,0.000
1606139190.674,-125.977,-32.715,-30.762,-363.281,0.000
1606139190.678,8.301,-28.320,-23.438,69.336,0.000
1606139190.682,94.727,-18.066,-17.578,361.328,0.000
1606139190.686,17.090,-20.996,-17.090,138.672,0.000
1606139190.690,-119.629,-31.738,-21.973,-298.340,0.000
1606139190.694,-132.324,-31.738,-26.367,-373.047,0.000
1606139190.698,-6.836,-27.344,-19.043,42.480,0.000
1606139190.702,80.078,-22.949,-10.742,371.582,0.000
1606139190.705,19.531,-25.391,-14.648,211.914,0.000
1606139190.709,-119.629,-30.273,-19.531,-237.305,0.000
1606139190.713,-162.109,-27.832,-18.066,-389.160,0.000
1606139190.717,-41.992,-27.832,-17.090,-37.109,0.000
1606139190.721,69.336,-26.367,-19.043,314.941,0.000
1606139190.725,28.809,-28.809,-24.902,218.262,0.000
1606139190.729,-99.121,-33.691,-24.902,-213.379,0.000
1606139190.733,-142.578,-36.133,-25.879,-411.621,0.000
1606139190.737,-41.992,-31.738,-21.484,-114.258,0.000
1606139190.741,70.312,-23.438,-16.113,278.809,0.000
1606139190.745,50.781,-20.996,-16.602,270.508,0.000
1606139190.748,-87.891,-35.645,-25.391,-156.738,0.000
1606139190.752,-165.039,-30.762,-39.062,-421.387,0.000
1606139190.756,-83.496,-20.996,-36.621,-184.570,0.000
1606139190.760,48.828,-31.250,-26.367,236.328,0.000
1606139190.764,56.152,-28.320,-17.090,285.156,0.000
1606139190.768,-73.730,-32.715,-20.996,-134.766,0.000
1606139190.772,-155.762,-39.062,-31.738,-439.941,0.000
1606139190.776,-87.402,-31.250,-26.855,-250.000,0.000
1606139190.780,40.527,-20.996,-22.949,180.176,0.000
1606139190.784,63.965,-22.461,-23.926,287.598,0.000
1606139190.788,-51.758,-28.809,-29.785,-72.266,0.000
1606139190.791,-147.949,-25.391,-32.227,-404.297,0.000
1606139190.795,-99.121,-23.926,-27.344,-297.852,0.000
1606139190.799,44.434,-18.066,-31.250,153.320,0.000
1606139190.803,87.891,-16.113,-28.320,333.008,0.000
1606139190.807,-19.531,-29.297,-28.320,-1.465,0.000
1606139190.811,-129.883,-35.156,-31.738,-364.258,0.000
1606139190.815,-103.027,-33.691,-27.832,-312.988,0.000
1606139190.819,31.738,-24.414,-21.973,109.375,0.000
1606139190.823,87.891,-17.090,-17.090,342.285,0.000
1606139190.827,-4.883,-25.879,-20.508,80.078,0.000
1606139190.830,-125.977,-36.133,-24.902,-309.082,0.000
1606139190.834,-113.770,-31.738,-23.438,-319.336,0.000
1606139190.838,23.438,-22.949,-12.695,97.168,0.000
1606139190.842,91.797,-22.949,-7.812,355.957,0.000
1606139190.846,8.301,-27.832,-17.090,138.672,0.000
1606139190.850,-122.070,-38.086,-25.391,-265.625,0.000
1606139190.854,-126.465,-41.016,-24.902,-336.914,0.000
1606139190.858,-0.977,-27.344,-24.414,41.016,0.000
1606139190.862,83.008,-16.602,-24.414,338.379,0.000
1606139190.866,29.297,-21.973,-22.461,195.312,0.000
1606139190.870,-102.539,-31.738,-29.785,-226.074,0.000
1606139190.873,-142.578,-39.062,-31.738,-363.281,0.000
1606139190.877,-34.668,-33.691,-24.414,-23.926,0.000
1606139190.881,75.195,-22.461,-18.066,320.801,0.000
1606139190.885,49.805,-25.391,-16.602,246.094,0.000
1606139190.889,-81.055,-26.367,-24.414,-184.082,0.000
1606139190.893,-138.672,-20.508,-29.297,-392.090,0.000
1606139190.897,-45.898,-28.320,-26.855,-115.234,0.000
1606139190.901,75.195,-29.297,-24.414,269.043,0.000
1606139190.905,68.359,-23.926,-28.320,263.672,0.000
1606139190.909,-57.617,-28.320,-33.203,-138.184,0.000
1606139190.913,-120.117,-34.668,-28.809,-376.465,0.000
1606139190.916,-40.527,-33.203,-30.762,-154.785,0.000
1606139190.920,73.730,-25.879,-34.180,231.934,0.000
1606139190.924,80.566,-26.367,-34.668,287.598,0.000
1606139190.928,-39.551,-36.621,-40.527,-89.844,0.000
1606139190.932,-123.535,-9.277,-43.457,-366.211,0.000
1606139190.936,-66.406,4.883,-43.945,-206.543,0.000
1606139190.940,49.805,-24.902,-38.574,178.223,0.000
1606139190.944,79.590,-23.926,-28.320,294.434,0.000
1606139190.948,-26.855,-24.902,-29.297,-35.156,0.000
1606139190.952,-116.699,-30.273,-35.645,-354.492,0.000
1606139190.955,-73.730,-30.273,-33.691,-258.789,0.000
1606139190.959,49.316,-29.297,-28.809,145.996,0.000
1606139190.963,94.238,-27.344,-30.273,309.570,0.000
1606139190.967,-2.441,-31.738,-25.391,28.320,0.000
1606139190.971,-111.816,-35.645,-30.273,-316.895,0.000
1606139190.975,-88.867,-30.273,-31.738,-293.945,0.000
1606139190.979,36.133,-24.414,-24.902,112.793,0.000
1606139190.983,89.844,-23.438,-29.297,329.590,0.000
1606139190.987,10.254,-23.438,-26.855,91.309,0.000
1606139190.991,-101.074,-26.367,-28.320,-265.137,0.000
1606139190.995,-103.027,-31.250,-35.645,-298.828,0.000
1606139190.998,18.066,-25.391,-32.227,72.754,0.000
1606139191.002,91.309,-23.438,-31.250,322.754,0.000
1606139191.006,29.785,-26.855,-29.785,130.371,0.000
1606139191.010,-82.031,-30.762,-27.344,-233.398,0.000
1606139191.014,-103.027,-33.691,-29.297,-313.965,0.000
1606139191.018,8.301,-29.297,-27.344,21.484,0.000
1606139191.022,98.145,-20.020,-23.438,312.012,0.000
1606139191.026,52.734,-17.578,-22.949,200.195,0.000
1606139191.030,-75.195,-23.438,-27.832,-197.266,0.000
1606139191.034,-115.234,-8.301,-28.320,-338.379,0.000
1606139191.038,-14.160,-3.906,-15.625,-21.484,0.000
1606139191.041,80.566,-20.020,-5.859,292.480,0.000
1606139191.045,48.828,-25.391,-15.137,222.656,0.000
1606139191.049,-81.543,-30.273,-22.461,-176.270,0.000
1606139191.053,-132.812,-35.645,-20.020,-364.746,0.000
1606139191.057,-41.016,-31.738,-20.996,-104.004,0.000
1606139191.061,68.848,-19.531,-22.461,243.164,0.000
1606139191.065,56.641,-21.973,-23.438,248.047,0.000
1606139191.069,-65.918,-33.203,-26.855,-109.863,0.000
1606139191.073,-124.023,-27.344,-25.879,-333.984,0.000
1606139191.077,-47.852,-27.344,-23.438,-149.414,0.000
1606139191.080,68.359,-27.344,-18.066,213.379,0.000
1606139191.084,70.312,-24.414,-18.555,272.461,0.000
1606139191.088,-46.387,-34.668,-23.438,-78.613,0.000
1606139191.092,-125.977,-39.551,-24.414,-339.355,0.000
1606139191.096,-74.219,-38.574,-29.297,-205.078,0.000
1606139191.100,44.922,-30.762,-26.855,154.785,0.000
1606139191.104,71.289,-27.344,-22.949,279.785,0.000
1606139191.108,-39.062,-33.691,-36.621,-39.062,0.000
1606139191.112,-132.324,-32.715,-40.527,-346.680,0.000
1606139191.116,-92.773,-32.227,-38.574,-253.906,0.000
1606139191.120,36.621,-27.344,-33.691,128.418,0.000
1606139191.123,85.449,-23.438,-28.320,283.691,0.000
1606139191.127,-16.113,-35.645,-29.785,2.930,0.000
1606139191.131,-124.023,-30.762,-34.668,-317.871,0.000
1606139191.135,-104.980,-17.578,-34.180,-288.086,0.000
1606139191.139,15.625,-26.855,-27.832,78.613,0.000
1606139191.143,74.707,-30.762,-26.367,289.062,0.000
1606139191.147,0.977,-32.715,-30.762,64.941,0.000
1606139191.151,-109.863,-34.180,-34.180,-280.762,0.000
1606139191.155,-114.746,-30.762,-36.133,-310.547,0.000
1606139191.159,4.883,-28.809,-32.227,41.992,0.000
1606139191.163,82.520,-24.902,-25.879,291.992,0.000
1606139191.166,20.508,-29.785,-27.832,125.488,0.000
1606139191.170,-95.703,-24.902,-32.227,-232.422,0.000
1606139191.174,-118.652,-16.602,-28.809,-321.289,0.000
1606139191.178,-5.859,-24.902,-21.484,0.977,0.000
1606139191.182,90.332,-19.043,-15.137,291.504,0.000
1606139191.186,40.527,-21.484,-16.602,175.293,0.000
1606139191.190,-86.426,-33.203,-24.414,-199.707,0.000
1606139191.194,-128.418,-41.992,-32.227,-343.262,0.000
1606139191.198,-37.598,-41.016,-30.273,-53.711,0.000
1606139191.202,65.918,-30.762,-22.461,260.254,0.000
1606139191.205,34.668,-33.203,-20.020,201.660,0.000
1606139191.209,-97.656,-36.133,-24.902,-161.133,0.000
1606139191.213,-153.320,-23.438,-28.320,-342.285,0.000
1606139191.217,-69.336,-28.320,-25.879,-104.004,0.000
1606139191.221,30.762,-41.992,-27.344,214.355,0.000
1606139191.225,18.066,-42.480,-28.809,205.078,0.000
1606139191.229,-94.238,-41.992,-30.273,-142.090,0.000
1606139191.233,-161.133,-38.086,-27.344,-356.445,0.000
1606139191.237,-86.426,-34.180,-21.973,-170.410,0.000
1606139191.241,36.621,-30.762,-24.902,173.828,0.000
1606139191.245,43.457,-32.227,-29.785,232.910,0.000
1606139191.248,-71.289,-39.551,-31.250,-99.609,0.000
1606139191.252,-143.555,-39.062,-26.855,-350.586,0.000
1606139191.256,-81.055,-37.109,-21.484,-213.379,0.000
1606139191.260,37.109,-29.785,-15.625,149.414,0.000
1606139191.264,52.734,-26.855,-17.090,251.953,0.000
1606139191.268,-54.688,-33.203,-26.855,-52.734,0.000
1606139191.272,-149.414,-40.527,-36.133,-329.590,0.000
1606139191.276,-111.328,-41.504,-32.715,-245.605,0.000
1606139191.280,18.555,-39.062,-23.926,111.328,0.000
1606139191.284,69.336,-30.762,-16.113,273.438,0.000
1606139191.288,-36.133,-38.574,-27.344,14.648,0.000
1606139191.291,-145.996,-49.805,-41.504,-309.082,0.000
1606139191.295,-118.164,-41.016,-37.598,-291.016,0.000
1606139191.299,9.277,-34.180,-31.738,73.242,0.000
1606139191.303,69.824,-31.738,-26.367,285.156,0.000
1606139191.307,-9.277,-29.785,-27.832,78.125,0.000
1606139191.311,-116.699,-39.551,-31.738,-268.066,0.000
1606139191.315,-121.582,-48.340,-30.273,-312.988,0.000
1606139191.319,-6.836,-33.203,-29.297,26.855,0.000
1606139191.323,74.707,-23.438,-28.809,272.461,0.000
1606139191.327,18.066,-27.832,-23.438,125.488,0.000
1606139191.330,-98.145,-38.574,-29.785,-221.191,0.000
1606139191.334,-123.535,-46.875,-37.109,-325.684,0.000
1606139191.338,-25.879,-39.062,-28.809,-18.066,0.000
1606139191.342,54.688,-35.156,-22.949,253.418,0.000
1606139191.346,12.695,-30.273,-23.438,142.090,0.000
1606139191.350,-99.609,-39.062,-23.926,-207.520,0.000
1606139191.354,-124.023,-57.617,-29.297,-336.426,0.000
1606139191.358,-28.809,-45.898,-30.762,-78.125,0.000
1606139191.362,62.988,-30.762,-28.809,216.309,0.000
1606139191.366,37.598,-28.809,-23.926,179.199,0.000
1606139191.370,-85.449,-36.133,-26.855,-172.852,0.000
1606139191.373,-138.672,-41.992,-31.250,-350.586,0.000
1606139191.377,-57.129,-32.715,-25.391,-105.957,0.000
1606139191.381,56.641,-20.508,-22.949,202.637,0.000
1606139191.385,49.316,-26.367,-24.414,200.684,0.000
1606139191.389,-74.707,-32.715,-26.367,-133.789,0.000
1606139191.393,-134.766,-35.645,-30.762,-348.633,0.000
1606139191.397,-62.500,-34.668,-31.250,-160.156,0.000
1606139191.401,52.734,-21.973,-23.926,179.688,0.000
1606139191.405,61.523,-22.461,-19.531,247.559,0.000
1606139191.409,-53.711,-39.062,-24.902,-83.496,0.000
1606139191.413,-142.578,-44.434,-35.645,-350.098,0.000
1606139191.416,-87.402,-40.527,-35.645,-216.797,0.000
1606139191.420,32.715,-34.180,-31.738,125.977,0.000
1606139191.424,54.688,-28.320,-26.855,238.281,0.000
1606139191.428,-38.574,-34.180,-32.715,-46.387,0.000
1606139191.432,-122.559,-39.062,-38.086,-328.613,0.000
1606139191.436,-85.938,-39.551,-29.297,-248.535,0.000
1606139191.440,25.879,-33.691,-28.320,93.750,0.000
1606139191.444,63.477,-27.344,-31.738,238.281,0.000
1606139191.448,-18.066,-27.832,-28.320,5.859,0.000
1606139191.452,-119.141,-29.785,-34.180,-297.852,0.000
1606139191.455,-98.633,-35.156,-38.574,-302.734,0.000
1606139191.459,13.672,-38.574,-32.715,30.762,0.000
1606139191.463,64.453,-31.250,-30.762,237.305,0.000
1606139191.467,-5.371,-33.203,-34.668,46.387,0.000
1606139191.471,-109.863,-33.203,-40.039,-281.250,0.000
1606139191.475,-109.375,-28.809,-39.551,-314.941,0.000
1606139191.479,10.742,-21.973,-29.297,32.715,0.000
1606139191.483,77.637,-20.996,-23.926,260.742,0.000
1606139191.487,10.254,-32.227,-29.297,92.773,0.000
1606139191.491,-99.609,-33.691,-28.809,-229.004,0.000
1606139191.495,-115.234,-27.832,-28.809,-300.781,0.000
1606139191.498,-8.301,-24.414,-36.133,-21.973,0.000
1606139191.502,74.707,-23.926,-30.273,224.121,0.000
1606139191.506,32.227,-26.855,-23.926,130.859,0.000
1606139191.510,-84.473,-30.273,-23.438,-185.059,0.000
1606139191.514,-122.070,-36.133,-23.438,-308.105,0.000
1606139191.518,-34.180,-33.203,-23.438,-41.504,0.000
1606139191.522,69.824,-27.832,-23.926,245.605,0.000
1606139191.526,60.547,-29.297,-22.949,195.801,0.000
1606139191.530,-70.801,-40.527,-25.391,-125.000,0.000
1606139191.534,-115.234,-46.875,-25.391,-287.598,0.000
1606139191.538,-28.320,-39.551,-21.484,-82.031,0.000
1606139191.541,72.266,-27.832,-19.043,225.586,0.000
1606139191.545,63.477,-30.762,-12.207,249.023,0.000
1606139191.549,-44.434,-41.992,-18.066,-82.031,0.000
1606139191.553,-106.445,-52.734,-21.973,-304.688,0.000
1606139191.557,-57.617,-51.270,-16.113,-123.047,0.000
1606139191.561,44.434,-38.086,-16.113,203.613,0.000
1606139191.565,63.477,-23.926,-23.926,263.672,0.000
1606139191.569,-35.156,-26.367,-27.344,-33.691,0.000
1606139191.573,-120.605,-38.086,-27.832,-286.621,0.000
1606139191.577,-67.383,-31.250,-35.156,-175.293,0.000
1606139191.580,52.734,-25.879,-25.391,165.527,0.000
1606139191.584,68.848,-29.785,-13.672,278.320,0.000
1606139191.588,-31.250,-33.691,-18.555,12.695,0.000
1606139191.592,-126.465,-37.109,-24.902,-262.695,0.000
1606139191.596,-93.262,-28.320,-27.344,-211.914,0.000
1606139191.600,19.043,-27.344,-22.461,123.535,0.000
1606139191.604,63.477,-31.738,-19.043,291.992,0.000
1606139191.608,-6.348,-31.250,-26.367,62.500,0.000
1606139191.612,-102.051,-34.180,-26.855,-232.910,0.000
1606139191.616,-97.168,-36.621,-30.762,-232.910,0.000
1606139191.620,41.016,-26.855,-27.344,96.680,0.000
1606139191.623,105.469,-21.973,-19.531,304.199,0.000
1606139191.627,7.812,-28.809,-22.461,110.840,0.000
1606139191.631,-94.238,-34.180,-26.367,-205.078,0.000
1606139191.635,-100.098,-31.250,-30.273,-246.094,0.000
1606139191.639,18.555,-22.461,-31.250,62.988,0.000
1606139191.643,94.238,-17.090,-23.438,296.875,0.000
1606139191.647,34.180,-22.949,-18.066,166.992,0.000
1606139191.651,-79.102,-21.973,-22.461,-160.156,0.000
1606139191.655,-107.910,-25.879,-31.738,-268.066,0.000
1606139191.659,10.742,-30.762,-30.762,12.695,0.000
1606139191.663,100.586,-17.578,-22.461,263.672,0.000
1606139191.666,56.641,-16.113,-24.414,179.688,0.000
1606139191.670,-54.688,-27.832,-27.832,-142.090,0.000
1606139191.674,-100.098,-30.273,-27.832,-285.156,0.000
1606139191.678,-10.254,-20.996,-23.926,-31.738,0.000
1606139191.682,84.473,-16.602,-24.414,253.906,0.000
1606139191.686,49.805,-20.508,-28.809,209.961,0.000
1606139191.690,-66.406,-30.762,-26.855,-113.770,0.000
1606139191.694,-124.512,-23.926,-25.879,-308.105,0.000
1606139191.698,-39.551,-14.160,-19.043,-107.422,0.000
1606139191.702,80.566,-15.137,-13.672,221.191,0.000
1606139191.705,78.125,-14.160,-20.020,239.258,0.000
1606139191.709,-44.434,-26.367,-25.391,-101.074,0.000
1606139191.713,-111.328,-30.273,-32.715,-312.012,0.000
1606139191.717,-38.086,-22.461,-26.855,-133.301,0.000
1606139191.721,71.289,-22.461,-18.555,201.660,0.000
1606139191.725,90.332,-20.996,-23.926,286.133,0.000
1606139191.729,-11.230,-25.879,-24.902,-10.254,0.000
1606139191.733,-107.422,-29.785,-30.762,-276.855,0.000
1606139191.737,-68.848,-29.297,-40.527,-189.453,0.000
1606139191.741,42.969,-30.762,-42.480,146.484,0.000
1606139191.745,84.961,-22.461,-29.785,291.016,0.000
1606139191.748,-6.348,-24.414,-25.391,24.414,0.000
1606139191.752,-106.934,-31.738,-32.715,-279.785,0.000
1606139191.756,-75.684,-33.203,-25.879,-219.238,0.000
1606139191.760,49.805,-27.832,-23.926,153.320,0.000
1606139191.764,83.496,-23.438,-21.484,330.566,0.000
1606139191.768,-3.906,-18.555,-21.484,73.730,0.000
1606139191.772,-79.102,-25.879,-26.367,-238.281,0.000
1606139191.776,-61.523,-29.785,-31.738,-219.238,0.000
1606139191.780,46.875,-19.043,-32.227,127.930,0.000
1606139191.784,113.281,-19.531,-20.996,345.703,0.000
1606139191.788,42.480,-25.879,-24.414,139.160,0.000
1606139191.791,-65.918,-22.461,-37.598,-205.078,0.000
1606139191.795,-72.266,-17.090,-36.133,-251.465,0.000
1606139191.799,54.688,-17.090,-29.297,97.168,0.000
1606139191.803,152.832,-22.461,-31.738,356.934,0.000
1606139191.807,80.566,-24.414,-32.227,197.754,0.000
1606139191.811,-87.402,-27.344,-29.297,-183.594,0.000
1606139191.815,-117.188,-22.949,-33.691,-316.406,0.000
1606139191.819,8.789,-13.672,-28.809,17.578,0.000
1606139191.823,109.863,-8.301,-21.484,340.332,0.000
1606139191.827,63.477,-19.531,-23.438,252.441,0.000
1606139191.830,-70.801,-35.156,-34.180,-131.836,0.000
1606139191.834,-117.188,-37.598,-37.109,-298.828,0.000
1606139191.838,-1.465,-30.273,-24.414,9.277,0.000
1606139191.842,108.398,-22.949,-12.207,351.562,0.000
1606139191.846,73.730,-19.531,-16.602,291.504,0.000
1606139191.850,-41.504,-21.484,-24.902,-104.492,0.000
1606139191.854,-100.098,-33.691,-15.625,-288.086,0.000
1606139191.858,-24.414,-30.273,-17.090,-47.363,0.000
1606139191.862,107.422,-12.207,-22.461,298.340,0.000
1606139191.866,116.211,-14.160,-16.602,332.520,0.000
1606139191.870,-27.344,-23.926,-16.113,-31.250,0.000
1606139191.873,-125.000,1.465,-24.414,-303.223,0.000
1606139191.877,-45.410,9.766,-24.414,-126.953,0.000
1606139191.881,97.168,-15.625,-12.695,266.113,0.000
1606139191.885,91.797,-22.461,-10.254,353.516,0.000
1606139191.889,-38.086,-31.250,-20.508,-14.648,0.000
1606139191.893,-104.980,-33.203,-33.691,-332.520,0.000
1606139191.897,-63.965,-27.832,-37.598,-199.707,0.000
1606139191.901,53.223,-26.367,-28.809,217.285,0.000
1606139191.905,93.262,-26.367,-20.020,348.145,0.000
1606139191.909,-23.926,-32.715,-17.578,-8.789,0.000
1606139191.913,-130.371,-35.645,-20.020,-349.609,0.000
1606139191.916,-98.145,-40.527,-24.414,-266.602,0.000
1606139191.920,38.086,-36.133,-19.531,155.273,0.000
1606139191.924,109.375,-25.879,-18.555,323.242,0.000
1606139191.928,2.441,-37.109,-27.344,18.066,0.000
1606139191.932,-152.832,-49.316,-35.156,-368.652,0.000
1606139191.936,-131.836,-42.480,-35.156,-366.699,0.000
1606139191.940,26.855,-36.133,-24.414,81.055,0.000
1606139191.944,90.332,-27.832,-25.879,338.379,0.000
1606139191.948,-12.207,-28.809,-30.273,74.707,0.000
1606139191.952,-166.992,-49.316,-30.273,-362.793,0.000
1606139191.955,-155.762,-47.363,-36.133,-418.457,0.000
1606139191.959,17.578,-25.879,-38.086,37.109,0.000
1606139191.963,119.629,-20.508,-32.715,382.324,0.000
1606139191.967,8.789,-34.180,-24.902,162.109,0.000
1606139191.971,-171.875,-51.270,-31.250,-328.613,0.000
1606139191.975,-166.992,-61.035,-31.738,-440.918,0.000
1606139191.979,-16.113,-44.922,-23.438,0.977,0.000
1606139191.983,93.262,-27.344,-25.879,376.465,0.000
1606139191.987,25.391,-33.691,-25.879,231.445,0.000
1606139191.991,-138.672,-44.434,-29.785,-271.973,0.000
1606139191.995,-154.297,-38.086,-33.203,-460.938,0.000
1606139191.998,-23.926,-30.762,-33.203,-72.754,0.000
1606139192.002,74.219,-36.133,-31.738,361.328,0.000
1606139192.006,51.270,-36.133,-26.855,293.457,0.000
1606139192.010,-105.957,-41.992,-30.762,-224.609,0.000
1606139192.014,-168.457,-51.270,-42.480,-487.305,0.000
1606139192.018,-41.504,-42.480,-39.551,-149.902,0.000
1606139192.022,92.773,-28.809,-30.273,328.613,0.000
1606139192.026,82.520,-21.484,-23.438,350.098,0.000
1606139192.030,-98.145,-30.762,-29.297,-156.250,0.000
1606139192.034,-183.594,-37.109,-34.668,-476.074,0.000
1606139192.038,-73.242,-33.691,-30.273,-199.707,0.000
1606139192.041,69.336,-31.250,-24.414,305.176,0.000
1606139192.045,83.008,-32.715,-22.461,410.156,0.000
1606139192.049,-57.617,-37.598,-24.902,-71.289,0.000
1606139192.053,-160.156,-41.504,-29.297,-434.570,0.000
1606139192.057,-88.379,-37.598,-32.227,-227.539,0.000
1606139192.061,57.617,-28.320,-27.344,268.066,0.000
1606139192.065,98.145,-28.320,-26.855,405.762,0.000
1606139192.069,-64.453,-36.133,-31.250,-25.391,0.000
1606139192.073,-208.496,-42.480,-34.668,-446.289,0.000
1606139192.077,-142.090,-46.875,-32.227,-339.355,0.000
1606139192.080,33.691,-30.762,-30.762,180.176,0.000
1606139192.084,91.797,-24.902,-28.809,406.738,0.000
1606139192.088,-18.555,-41.016,-22.949,42.480,0.000
1606139192.092,-177.246,-45.410,-22.949,-435.059,0.000
1606139192.096,-166.992,-39.062,-26.855,-416.992,0.000
1606139192.100,21.973,-30.762,-20.020,125.488,0.000
1606139192.104,99.609,-21.973,-18.555,437.500,0.000
1606139192.108,-0.488,-29.785,-25.879,98.145,0.000
1606139192.112,-163.574,-14.160,-34.668,-440.430,0.000
1606139192.116,-186.523,-16.602,-37.598,-494.141,0.000
1606139192.120,-3.418,-38.086,-21.973,59.082,0.000
1606139192.123,137.695,-28.320,-8.789,469.238,0.000
1606139192.127,44.922,-32.715,-20.508,217.773,0.000
1606139192.131,-159.180,-39.551,-35.645,-344.727,0.000
1606139192.135,-179.688,-41.016,-32.715,-488.281,0.000
1606139192.139,-6.836,-31.738,-26.367,10.742,0.000
1606139192.143,123.535,-20.508,-18.066,502.441,0.000
1606139192.147,63.965,-27.832,-11.230,353.027,0.000
1606139192.151,-124.023,-25.391,-23.438,-264.160,0.000
1606139192.155,-180.176,-0.488,-32.715,-508.789,0.000
1606139192.159,-26.855,-13.184,-22.461,-49.316,0.000
1606139192.163,112.305,-35.645,-12.695,492.676,0.000
1606139192.166,69.336,-38.574,-12.207,431.641,0.000
1606139192.170,-115.723,-36.133,-24.902,-194.824,0.000
1606139192.174,-199.219,-40.527,-29.297,-524.902,0.000
1606139192.178,-65.918,-36.621,-22.949,-120.605,0.000
1606139192.182,113.281,-25.391,-15.137,486.816,0.000
1606139192.186,93.750,-28.320,-10.742,506.348,0.000
1606139192.190,-109.863,-34.180,-23.438,-138.184,0.000
1606139192.194,-196.289,-37.598,-24.902,-549.805,0.000
1606139192.198,-72.266,-30.762,-20.508,-211.914,0.000
1606139192.202,95.703,-28.320,-20.996,411.133,0.000
1606139192.205,102.051,-29.297,-18.066,530.273,0.000
1606139192.209,-64.453,-22.949,-26.855,-62.988,0.000
1606139192.213,-190.430,-20.020,-29.297,-570.312,0.000
1606139192.217,-117.676,-26.855,-24.414,-340.820,0.000
1606139192.221,108.887,-24.902,-18.555,339.844,0.000
1606139192.225,183.594,-23.926,-10.742,563.965,0.000
1606139192.229,-19.043,-32.227,-14.160,8.301,0.000
1606139192.233,-189.941,-33.691,-23.926,-561.523,0.000
1606139192.237,-109.375,-31.738,-24.414,-416.504,0.000
1606139192.241,98.145,-23.438,-15.625,289.551,0.000
1606139192.245,163.086,-24.414,-13.672,628.418,0.000
1606139192.248,3.906,-39.062,-26.367,119.141,0.000
1606139192.252,-185.059,-41.016,-37.109,-522.949,0.000
1606139192.256,-150.391,-32.715,-32.715,-474.609,0.000
1606139192.260,56.641,-24.414,-17.090,225.586,0.000
1606139192.264,184.570,-23.926,-8.301,645.508,0.000
1606139192.268,41.504,-30.273,-12.207,229.004,0.000
1606139192.272,-151.367,-33.203,-19.043,-468.262,0.000
1606139192.276,-139.160,-34.180,-22.949,-560.547,0.000
1606139192.280,35.645,-23.926,-18.066,153.320,0.000
1606139192.284,151.855,-23.926,-10.254,675.293,0.000
1606139192.288,43.945,-31.250,-11.719,329.590,0.000
1606139192.291,-139.648,-22.949,-21.973,-405.762,0.000
1606139192.295,-187.500,-25.879,-26.367,-601.562,0.000
1606139192.299,-1.465,-29.785,-12.695,43.457,0.000
1606139192.303,193.359,-20.996,-3.418,656.738,0.000
1606139192.307,90.820,-20.020,-12.207,425.781,0.000
1606139192.311,-138.672,-31.738,-19.531,-378.906,0.000
1606139192.315,-195.312,-45.898,-26.367,-685.059,0.000
1606139192.319,-18.555,-38.574,-24.414,-105.957,0.000
1606139192.323,190.918,-19.531,-22.949,589.844,0.000
1606139192.327,147.949,-28.320,-24.414,475.098,0.000
1606139192.330,-121.582,-46.387,-25.879,-347.656,0.000
1606139192.334,-251.465,-45.410,-30.273,-751.953,0.000
1606139192.338,-68.359,-33.203,-22.461,-226.074,0.000
1606139192.342,183.594,-27.344,-17.578,560.059,0.000
1606139192.346,168.945,-28.809,-20.508,568.359,0.000
1606139192.350,-106.934,-38.086,-29.785,-249.512,0.000
1606139192.354,-241.699,-39.062,-27.832,-772.461,0.000
1606139192.358,-74.219,-27.344,-26.367,-332.520,0.000
1606139192.362,175.293,-24.414,-20.020,531.250,0.000
1606139192.366,178.223,-30.762,-7.812,684.082,0.000
1606139192.370,-57.129,-40.039,-22.949,-137.207,0.000
1606139192.373,-252.441,-53.711,-29.785,-822.754,0.000
1606139192.377,-158.691,-54.199,-17.578,-495.117,0.000
1606139192.381,145.508,-36.133,-16.113,442.871,0.000
1606139192.385,206.543,-27.344,-13.184,767.578,0.000
1606139192.389,-62.500,-47.852,-21.973,-6.836,0.000
1606139192.393,-286.133,-58.594,-36.133,-857.422,0.000
1606139192.397,-174.805,-42.969,-25.391,-677.734,0.000
1606139192.401,145.996,-26.367,-11.230,377.441,0.000
1606139192.405,272.949,-14.160,-11.230,868.164,0.000
1606139192.409,34.180,-21.484,-23.926,154.297,0.000
1606139192.413,-267.090,-41.016,-31.738,-779.297,0.000
1606139192.416,-174.316,-39.062,-25.391,-729.980,0.000
1606139192.420,96.680,-23.438,-8.301,336.914,0.000
1606139192.424,292.969,-12.695,-7.324,978.516,0.000
1606139192.428,104.004,-26.855,-19.043,385.254,0.000
1606139192.432,-201.660,7.812,-31.738,-653.809,0.000
1606139192.436,-207.031,41.992,-38.086,-770.020,0.000
1606139192.440,56.641,-4.883,-20.508,238.281,0.000
1606139192.444,285.156,-16.113,-10.742,988.770,0.000
1606139192.448,139.160,-19.043,-22.461,540.039,0.000
1606139192.452,-170.410,-28.320,-36.133,-518.555,0.000
1606139192.455,-226.562,-33.203,-33.691,-783.203,0.000
1606139192.459,59.082,-29.785,-24.414,100.586,0.000
1606139192.463,274.902,-18.066,-15.137,921.387,0.000
1606139192.467,147.949,-21.973,-20.020,620.605,0.000
1606139192.471,-145.508,-36.621,-35.156,-464.844,0.000
1606139192.475,-228.027,-41.504,-31.738,-872.559,0.000
1606139192.479,16.113,-28.809,-16.113,-86.426,0.000
1606139192.483,260.742,-11.230,-10.254,791.016,0.000
1606139192.487,199.707,-15.137,-19.043,640.625,0.000
1606139192.491,-102.539,-24.902,-35.156,-370.605,0.000
1606139192.495,-228.027,-17.090,-35.156,-874.512,0.000
1606139192.498,-15.137,-12.207,-26.367,-229.004,0.000
1606139192.502,244.629,-9.766,-17.578,698.242,0.000
1606139192.506,222.656,-9.277,-16.602,702.148,0.000
1606139192.510,-70.312,-20.020,-30.762,-271.484,0.000
1606139192.514,-237.793,-31.738,-39.551,-887.207,0.000
1606139192.518,-72.266,-29.297,-24.414,-369.141,0.000
1606139192.522,198.730,-11.719,-9.766,600.586,0.000
1606139192.526,236.816,-5.371,-9.277,763.672,0.000
1606139192.530,-25.879,-20.020,-19.531,-134.277,0.000
1606139192.534,-234.375,-19.043,-29.297,-851.562,0.000
1606139192.538,-112.793,-19.531,-23.926,-475.098,0.000
1606139192.541,185.547,-19.043,-13.184,487.793,0.000
1606139192.545,252.441,-9.766,-11.230,774.414,0.000
1606139192.549,8.789,-16.602,-19.531,-3.418,0.000
1606139192.553,-199.707,-29.297,-31.250,-787.598,0.000
1606139192.557,-116.699,-36.133,-27.832,-570.801,0.000
1606139192.561,165.039,-24.902,-14.160,383.789,0.000
1606139192.565,264.160,-15.625,-14.648,791.992,0.000
1606139192.569,47.363,-19.043,-20.020,127.441,0.000
1606139192.573,-185.547,-20.508,-25.391,-714.844,0.000
1606139192.577,-147.461,-28.809,-27.344,-660.645,0.000
1606139192.580,120.117,-21.484,-19.531,262.207,0.000
1606139192.584,258.789,-8.789,-13.184,774.902,0.000
1606139192.588,76.172,-20.508,-20.996,229.492,0.000
1606139192.592,-187.500,-18.066,-29.297,-635.742,0.000
1606139192.596,-189.453,-19.531,-30.762,-722.656,0.000
1606139192.600,76.172,-26.367,-26.855,136.230,0.000
1606139192.604,253.906,-10.742,-20.508,761.230,0.000
1606139192.608,103.027,-16.113,-25.391,343.262,0.000
1606139192.612,-172.852,-27.344,-33.203,-558.594,0.000
1606139192.616,-211.914,-27.344,-36.133,-762.207,0.000
1606139192.620,34.668,-15.625,-25.879,26.367,0.000
1606139192.623,232.422,-7.324,-20.020,710.449,0.000
1606139192.627,118.164,-17.090,-28.809,420.410,0.000
1606139192.631,-159.180,-27.344,-35.645,-486.816,0.000
1606139192.635,-235.352,-34.180,-43.457,-812.988,0.000
1606139192.639,-8.789,-27.832,-33.691,-125.000,0.000
1606139192.643,203.613,-19.043,-17.090,640.625,0.000
1606139192.647,135.254,-26.855,-20.508,507.324,0.000
1606139192.651,-129.883,-29.785,-33.203,-364.746,0.000
1606139192.655,-258.301,-33.691,-37.598,-796.875,0.000
1606139192.659,-72.266,-34.180,-29.297,-234.375,0.000
1606139192.663,169.922,-22.949,-20.508,590.820,0.000
1606139192.666,145.508,-22.949,-21.484,605.469,0.000
1606139192.670,-126.953,-31.250,-34.668,-270.020,0.000
1606139192.674,-280.762,-42.969,-45.410,-826.172,0.000
1606139192.678,-125.488,-41.992,-36.621,-357.422,0.000
1606139192.682,133.789,-23.438,-26.855,504.395,0.000
1606139192.686,159.668,-24.414,-22.949,639.160,0.000
1606139192.690,-96.191,-33.691,-31.250,-147.461,0.000
1606139192.694,-281.250,-25.879,-42.480,-789.062,0.000
1606139192.698,-157.715,-26.855,-34.668,-457.031,0.000
1606139192.702,122.070,-25.879,-17.578,433.594,0.000
1606139192.705,187.500,-20.508,-20.020,690.918,0.000
1606139192.709,-61.523,-34.180,-29.785,-13.672,0.000
1606139192.713,-270.996,-18.066,-34.180,-713.867,0.000
1606139192.717,-169.434,-21.484,-37.109,-531.738,0.000
1606139192.721,111.816,-31.250,-26.855,337.891,0.000
1606139192.725,202.637,-23.438,-16.602,721.680,0.000
1606139192.729,-39.551,-35.645,-17.578,104.492,0.000
1606139192.733,-285.156,-40.039,-27.832,-674.805,0.000
1606139192.737,-224.121,-45.898,-30.762,-617.676,0.000
1606139192.741,57.617,-33.691,-19.531,256.836,0.000
1606139192.745,187.012,-22.949,-10.254,754.395,0.000
1606139192.748,8.789,-31.250,-21.484,223.145,0.000
1606139192.752,-246.582,-41.016,-40.527,-622.070,0.000
1606139192.756,-251.465,-43.945,-35.645,-684.082,0.000
1606139192.760,26.367,-29.297,-20.020,151.367,0.000
1606139192.764,197.754,-15.625,-16.602,730.957,0.000
1606139192.768,46.387,-33.691,-20.996,330.566,0.000
1606139192.772,-229.980,-26.367,-35.156,-542.969,0.000
1606139192.776,-249.512,-15.137,-33.203,-753.906,0.000
1606139192.780,3.906,-28.320,-18.066,6.836,0.000
1606139192.784,171.387,-24.414,-13.672,701.660,0.000
1606139192.788,57.129,-35.645,-25.391,424.316,0.000
1606139192.791,-216.309,-43.945,-43.945,-493.164,0.000
1606139192.795,-286.133,-42.480,-46.875,-819.336,0.000
1606139192.799,-57.617,-35.645,-36.621,-125.977,0.000
1606139192.803,153.809,-24.414,-22.461,642.090,0.000
1606139192.807,83.008,-22.461,-29.297,497.559,0.000
1606139192.811,-206.055,-38.086,-46.387,-398.438,0.000
1606139192.815,-322.266,-52.246,-46.387,-835.449,0.000
1606139192.819,-117.188,-45.898,-37.109,-269.531,0.000
1606139192.823,140.137,-22.949,-23.926,556.641,0.000
1606139192.827,119.629,-26.855,-26.855,579.102,0.000
1606139192.830,-155.762,-40.527,-45.410,-270.996,0.000
1606139192.834,-300.781,-42.969,-48.828,-826.172,0.000
1606139192.838,-148.438,-46.875,-37.598,-374.512,0.000
1606139192.842,106.445,-35.156,-27.344,507.324,0.000
1606139192.846,141.113,-33.691,-24.902,664.062,0.000
1606139192.850,-120.605,-39.551,-34.668,-151.855,0.000
1606139192.854,-312.500,-47.363,-42.969,-806.641,0.000
1606139192.858,-179.199,-43.945,-37.109,-462.891,0.000
1606139192.862,93.750,-30.762,-21.484,430.664,0.000
1606139192.866,159.180,-27.832,-22.949,691.406,0.000
1606139192.870,-70.312,-41.504,-37.109,-20.996,0.000
1606139192.873,-310.547,-64.941,-45.898,-746.094,0.000
1606139192.877,-226.074,-58.594,-43.457,-549.805,0.000
1606139192.881,63.965,-41.016,-23.438,358.398,0.000
1606139192.885,165.039,-30.762,-18.066,738.770,0.000
1606139192.889,-43.945,-41.504,-27.344,103.516,0.000
1606139192.893,-263.672,-56.641,-39.062,-679.199,0.000
1606139192.897,-213.379,-51.270,-41.992,-624.023,0.000
1606139192.901,48.340,-37.109,-30.273,249.512,0.000
1606139192.905,179.199,-30.762,-20.020,753.906,0.000
1606139192.909,10.254,-39.062,-21.484,234.863,0.000
1606139192.913,-243.164,-41.504,-34.668,-605.957,0.000
1606139192.916,-250.488,-40.527,-29.785,-669.922,0.000
1606139192.920,32.227,-28.809,-20.508,159.668,0.000
1606139192.924,191.406,-23.438,-15.137,746.582,0.000
1606139192.928,45.898,-31.738,-17.578,351.562,0.000
1606139192.932,-204.590,-26.367,-33.691,-528.809,0.000
1606139192.936,-261.719,-20.996,-44.922,-725.098,0.000
1606139192.940,-15.137,-26.367,-32.715,36.133,0.000
1606139192.944,190.430,-23.438,-20.996,714.355,0.000
1606139192.948,70.312,-36.133,-25.879,452.637,0.000
1606139192.952,-194.824,-43.945,-35.645,-432.129,0.000
1606139192.955,-265.137,-41.504,-37.109,-756.836,0.000
1606139192.959,-49.316,-40.527,-30.762,-95.215,0.000
1606139192.963,168.945,-22.949,-21.973,656.250,0.000
1606139192.967,115.723,-23.926,-22.461,536.133,0.000
1606139192.971,-154.297,-46.387,-41.016,-343.262,0.000
1606139192.975,-278.320,-49.316,-47.363,-776.855,0.000
1606139192.979,-78.613,-32.715,-34.180,-212.891,0.000
1606139192.983,151.367,-24.902,-21.973,561.523,0.000
1606139192.987,110.352,-33.691,-22.949,551.270,0.000
1606139192.991,-133.301,-30.273,-30.273,-254.395,0.000
1606139192.995,-259.766,-28.320,-36.621,-776.367,0.000
1606139192.998,-122.070,-37.109,-30.273,-367.676,0.000
1606139193.002,120.117,-28.809,-22.461,444.336,0.000
1606139193.006,138.672,-29.297,-24.414,566.895,0.000
1606139193.010,-104.980,-33.691,-32.715,-197.754,0.000
1606139193.014,-270.996,-31.250,-41.504,-789.062,0.000
1606139193.018,-145.996,-34.668,-39.551,-465.820,0.000
1606139193.022,106.445,-23.438,-25.391,369.141,0.000
1606139193.026,157.715,-18.555,-20.020,616.211,0.000
1606139193.030,-61.523,-32.715,-28.809,-76.172,0.000
1606139193.034,-250.488,-39.551,-38.574,-752.441,0.000
1606139193.038,-159.180,-34.668,-36.621,-542.480,0.000
1606139193.041,94.727,-20.020,-23.438,309.082,0.000
1606139193.045,184.570,-18.555,-21.484,676.758,0.000
1606139193.049,-9.277,-28.809,-31.250,81.543,0.000
1606139193.053,-231.445,-34.180,-35.156,-682.129,0.000
1606139193.057,-185.059,-33.203,-34.668,-621.094,0.000
1606139193.061,78.613,-23.438,-22.949,232.422,0.000
1606139193.065,203.125,-20.996,-14.160,719.238,0.000
1606139193.069,33.691,-29.297,-21.973,214.355,0.000
1606139193.073,-211.426,-41.504,-31.738,-614.258,0.000
1606139193.077,-215.332,-49.805,-32.715,-688.477,0.000
1606139193.080,42.969,-38.086,-21.484,139.160,0.000
1606139193.084,212.891,-21.973,-14.160,747.559,0.000
1606139193.088,79.590,-26.367,-19.531,365.723,0.000
1606139193.092,-180.176,-32.227,-34.668,-514.160,0.000
1606139193.096,-224.121,-30.762,-39.551,-730.469,0.000
1606139193.100,17.578,-25.391,-20.508,31.250,0.000
1606139193.104,211.426,-12.695,-13.184,734.375,0.000
1606139193.108,105.957,-13.184,-23.438,471.191,0.000
1606139193.112,-160.645,-31.250,-36.621,-432.617,0.000
1606139193.116,-239.258,-37.598,-38.574,-763.672,0.000
1606139193.120,-19.043,-26.855,-28.809,-69.336,0.000
1606139193.123,208.984,-16.113,-21.973,723.633,0.000
1606139193.127,141.602,-20.020,-24.414,585.449,0.000
1606139193.131,-148.438,-28.809,-36.621,-348.633,0.000
1606139193.135,-273.438,-30.762,-40.039,-824.707,0.000
1606139193.139,-70.312,-29.785,-27.832,-232.910,0.000
1606139193.143,183.105,-20.020,-14.160,646.973,0.000
1606139193.147,160.645,-19.531,-17.090,656.738,0.000
1606139193.151,-114.746,-33.203,-29.297,-254.883,0.000
1606139193.155,-285.645,-45.410,-34.180,-853.516,0.000
1606139193.159,-128.418,-37.598,-30.273,-381.348,0.000
1606139193.163,151.855,-21.484,-20.996,553.711,0.000
1606139193.166,167.480,-21.484,-19.531,717.773,0.000
1606139193.170,-117.188,-34.668,-36.133,-153.320,0.000
1606139193.174,-315.430,-43.945,-46.875,-873.047,0.000
1606139193.178,-177.246,-35.156,-40.039,-510.742,0.000
1606139193.182,129.883,-17.090,-23.926,485.840,0.000
1606139193.186,193.359,-20.020,-23.926,782.715,0.000
1606139193.190,-64.941,-29.297,-28.809,-18.555,0.000
1606139193.194,-290.527,-26.855,-34.180,-827.148,0.000
1606139193.198,-198.730,-26.367,-40.527,-617.188,0.000
1606139193.202,113.770,-19.531,-29.297,379.883,0.000
1606139193.205,222.656,-15.137,-20.020,823.730,0.000
1606139193.209,-9.277,-23.438,-25.391,129.395,0.000
1606139193.213,-262.695,-33.691,-34.180,-769.043,0.000
1606139193.217,-219.238,-35.645,-35.645,-717.285,0.000
1606139193.221,83.496,-18.066,-19.531,262.207,0.000
1606139193.225,241.211,-6.836,-5.859,847.168,0.000
1606139193.229,46.875,-17.090,-16.602,277.832,0.000
1606139193.233,-238.281,-23.926,-29.785,-688.477,0.000
1606139193.237,-240.723,-24.902,-27.832,-792.480,0.000
1606139193.241,48.828,-18.555,-15.137,134.277,0.000
1606139193.245,245.605,-7.812,-5.859,836.426,0.000
1606139193.248,87.891,-9.766,-15.137,400.391,0.000
1606139193.252,-220.215,-22.949,-28.809,-603.027,0.000
1606139193.256,-268.066,-32.715,-29.785,-846.680,0.000
1606139193.260,14.160,-17.578,-21.484,19.531,0.000
1606139193.264,247.559,-6.836,-8.789,820.801,0.000
1606139193.268,121.582,-20.508,-13.184,524.414,0.000
1606139193.272,-200.195,-40.039,-30.273,-496.582,0.000
1606139193.276,-297.363,-45.898,-36.621,-893.066,0.000
1606139193.280,-50.781,-35.156,-27.344,-131.836,0.000
1606139193.284,202.148,-28.809,-14.160,759.766,0.000
1606139193.288,134.277,-29.785,-18.555,615.234,0.000
1606139193.291,-176.758,-43.945,-33.203,-411.621,0.000
1606139193.295,-322.754,-60.059,-45.410,-943.359,0.000
1606139193.299,-96.680,-40.527,-35.645,-287.109,0.000
1606139193.303,199.219,-22.949,-21.484,680.664,0.000
1606139193.307,175.781,-26.855,-20.508,705.078,0.000
1606139193.311,-135.254,-41.992,-28.320,-274.902,0.000
1606139193.315,-309.570,-48.340,-36.621,-928.711,0.000
1606139193.319,-122.070,-28.320,-27.344,-411.133,0.000
1606139193.323,185.547,-17.090,-18.066,609.375,0.000
1606139193.327,220.703,-23.926,-23.926,774.414,0.000
1606139193.330,-74.219,-36.133,-37.598,-145.508,0.000
1606139193.334,-299.316,-46.875,-49.316,-912.109,0.000
1606139193.338,-163.086,-39.062,-37.598,-547.363,0.000
1606139193.342,163.086,-23.438,-19.531,503.906,0.000
1606139193.346,242.188,-14.648,-16.602,831.055,0.000
1606139193.350,-53.223,-35.156,-29.297,-9.766,0.000
1606139193.354,-308.594,-52.734,-43.945,-865.723,0.000
1606139193.358,-209.961,-43.945,-41.016,-642.090,0.000
1606139193.362,116.699,-25.879,-21.973,410.156,0.000
1606139193.366,241.211,-11.230,-14.648,884.766,0.000
1606139193.370,8.301,-22.461,-25.879,173.828,0.000
1606139193.373,-270.508,-35.645,-35.156,-764.648,0.000
1606139193.377,-235.352,-33.691,-36.621,-735.352,0.000
1606139193.381,85.938,-30.762,-25.879,286.621,0.000
1606139193.385,255.859,-23.438,-18.066,904.297,0.000
1606139193.389,55.176,-23.438,-26.855,300.293,0.000
1606139193.393,-251.465,-39.062,-36.621,-714.355,0.000
1606139193.397,-257.812,-38.574,-37.598,-823.730,0.000
1606139193.401,56.152,-22.949,-28.320,149.902,0.000
1606139193.405,254.395,-14.648,-19.043,876.465,0.000
1606139193.409,91.309,-22.461,-23.926,427.734,0.000
1606139193.413,-220.215,-38.574,-36.133,-610.352,0.000
1606139193.416,-283.691,-39.062,-41.016,-880.859,0.000
1606139193.420,4.883,-25.879,-26.367,8.301,0.000
1606139193.424,249.512,-21.484,-16.113,851.562,0.000
1606139193.428,129.883,-26.367,-25.391,533.203,0.000
1606139193.432,-195.312,-45.898,-38.086,-533.203,0.000
1606139193.436,-295.898,-54.688,-33.203,-930.664,0.000
1606139193.440,-32.715,-37.598,-19.043,-132.812,0.000
1606139193.444,229.980,-24.414,-8.301,809.570,0.000
1606139193.448,164.551,-25.391,-9.766,674.805,0.000
1606139193.452,-165.527,-42.480,-29.297,-414.062,0.000
1606139193.455,-328.125,-50.293,-40.527,-997.559,0.000
1606139193.459,-76.660,-37.598,-31.738,-262.207,0.000
1606139193.463,232.422,-24.414,-19.531,787.598,0.000
1606139193.467,190.918,-28.809,-24.414,748.535,0.000
1606139193.471,-135.254,-41.504,-37.598,-295.410,0.000
1606139193.475,-329.590,-45.898,-41.992,-988.281,0.000
1606139193.479,-127.441,-34.668,-27.344,-423.828,0.000
1606139193.483,207.520,-16.602,-11.719,660.156,0.000
1606139193.487,220.703,-19.043,-16.113,831.055,0.000
1606139193.491,-85.938,-33.203,-26.855,-139.648,0.000
1606139193.495,-315.430,-43.945,-37.109,-958.496,0.000
1606139193.498,-167.480,-42.969,-34.668,-517.090,0.000
1606139193.502,178.711,-23.438,-20.996,597.168,0.000
1606139193.506,247.070,-14.160,-18.555,893.555,0.000
1606139193.510,-36.133,-23.926,-24.902,35.645,0.000
1606139193.514,-312.500,-39.062,-39.062,-910.645,0.000
1606139193.518,-224.609,-39.551,-39.062,-713.867,0.000
1606139193.522,121.094,-22.461,-18.555,415.527,0.000
1606139193.526,261.719,-15.625,-14.160,938.965,0.000
1606139193.530,14.160,-18.555,-21.973,166.504,0.000
1606139193.534,-294.922,-30.273,-43.457,-839.844,0.000
1606139193.538,-252.930,-35.156,-50.293,-822.266,0.000
1606139193.541,107.422,-14.648,-29.297,271.973,0.000
1606139193.545,282.715,-3.418,-29.785,955.566,0.000
1606139193.549,50.293,-20.996,-41.504,291.016,0.000
1606139193.553,-267.090,-37.598,-48.828,-755.859,0.000
1606139193.557,-273.926,-35.156,-48.828,-882.324,0.000
1606139193.561,51.758,-24.414,-34.668,111.816,0.000
1606139193.565,284.668,-13.184,-19.531,953.125,0.000
1606139193.569,112.793,-17.090,-23.926,465.332,0.000
1606139193.573,-239.746,-36.621,-41.992,-655.273,0.000
1606139193.577,-297.852,-35.156,-42.480,-944.824,0.000
1606139193.580,11.719,-18.066,-29.297,-48.340,0.000
1606139193.584,267.578,-13.184,-18.066,907.715,0.000
1606139193.588,142.090,-20.508,-18.555,602.539,0.000
1606139193.592,-213.867,-34.668,-34.668,-544.922,0.000
1606139193.596,-318.848,-36.621,-42.969,-996.094,0.000
1606139193.600,-29.785,-21.973,-30.273,-177.246,0.000
1606139193.604,273.926,-8.301,-14.160,860.352,0.000
1606139193.608,194.824,-20.508,-14.160,727.539,0.000
1606139193.612,-187.500,-21.484,-30.762,-416.016,0.000
1606139193.616,-348.633,-21.484,-44.434,-1000.000,0.000
1606139193.620,-100.098,-41.504,-35.645,-335.449,0.000
1606139193.623,218.262,-29.785,-16.602,750.977,0.000
1606139193.627,198.242,-26.855,-14.648,813.477,0.000
1606139193.631,-148.438,-41.016,-26.367,-267.090,0.000
1606139193.635,-353.027,-50.781,-32.227,-1000.000,0.000
1606139193.639,-149.902,-43.945,-27.832,-484.375,0.000
1606139193.643,202.637,-21.484,-18.066,651.855,0.000
1606139193.647,240.723,-20.996,-18.555,876.465,0.000
1606139193.651,-90.820,-20.996,-35.645,-125.977,0.000
1606139193.655,-347.656,-11.719,-54.199,-1000.000,0.000
1606139193.659,-193.848,-25.391,-43.457,-628.418,0.000
1606139193.663,175.781,-24.902,-23.926,539.551,0.000
1606139193.666,264.648,-18.555,-19.043,937.012,0.000
1606139193.670,-42.969,-32.227,-29.297,25.879,0.000
1606139193.674,-335.938,-52.246,-45.410,-961.426,0.000
1606139193.678,-230.957,-49.316,-40.039,-733.398,0.000
1606139193.682,146.973,-25.391,-24.902,418.945,0.000
1606139193.686,300.781,-20.020,-19.531,995.117,0.000
1606139193.690,33.691,-32.227,-35.645,195.312,0.000
1606139193.694,-307.617,-44.434,-44.922,-875.977,0.000
1606139193.698,-267.578,-45.898,-38.086,-827.148,0.000
1606139193.702,113.281,-27.344,-25.879,286.621,0.000
1606139193.705,312.012,-17.090,-11.719,-981.445,0.000
1606139193.709,75.195,-26.855,-19.043,350.098,0.000
1606139193.713,-283.691,-26.367,-40.527,-765.137,0.000
1606139193.717,-296.387,-34.180,-41.016,-892.578,0.000
1606139193.721,63.477,-33.203,-23.926,139.160,0.000
1606139193.725,308.105,-21.484,-12.207,-987.793,0.000
1606139193.729,126.953,-30.273,-17.578,521.484,0.000
1606139193.733,-251.953,-49.316,-36.133,-642.578,0.000
1606139193.737,-329.590,-57.617,-41.992,-964.844,0.000
1606139193.741,3.418,-37.109,-25.391,-28.809,0.000
1606139193.745,289.551,-20.020,-8.789,964.355,0.000
1606139193.748,153.809,-39.551,-18.555,634.277,0.000
1606139193.752,-230.957,-39.062,-41.016,-544.922,0.000
1606139193.756,-355.957,-28.809,-40.039,-1000.000,0.000
1606139193.760,-61.523,-38.574,-24.902,-205.078,0.000
1606139193.764,259.766,-25.391,-18.555,865.723,0.000
1606139193.768,190.918,-23.438,-22.949,735.840,0.000
1606139193.772,-194.824,-41.504,-31.738,-421.387,0.000
1606139193.776,-370.117,-49.316,-35.645,-1000.000,0.000
1606139193.780,-106.934,-39.551,-27.832,-351.562,0.000
1606139193.784,246.094,-26.367,-22.461,762.695,0.000
1606139193.788,241.211,-23.438,-22.949,832.031,0.000
1606139193.791,-136.719,-30.273,-35.645,-262.695,0.000
1606139193.795,-373.047,-37.598,-48.340,-1000.000,0.000
1606139193.799,-156.250,-37.109,-35.156,-501.465,0.000
1606139193.803,217.773,-22.461,-17.578,649.414,0.000
1606139193.807,267.578,-14.648,-12.695,896.484,0.000
1606139193.811,-68.848,-27.832,-28.320,-85.938,0.000
1606139193.815,-336.426,-50.781,-40.527,-1000.000,0.000
1606139193.819,-185.547,-47.852,-33.203,-623.535,0.000
1606139193.823,187.012,-25.391,-15.625,545.898,0.000
1606139193.827,282.715,-22.461,-10.254,955.078,0.000
1606139193.830,-11.230,-35.156,-29.785,101.562,0.000
1606139193.834,-311.523,-44.922,-48.828,-911.621,0.000
1606139193.838,-228.027,-37.598,-43.457,-716.797,0.000
1606139193.842,144.531,-14.160,-20.020,428.711,0.000
1606139193.846,286.133,-8.789,-8.789,989.258,0.000
1606139193.850,22.461,-24.414,-20.508,259.277,0.000
1606139193.854,-288.086,-49.805,-33.203,-804.688,0.000
1606139193.858,-250.977,-49.316,-32.227,-791.504,0.000
1606139193.862,98.633,-24.902,-18.555,298.828,0.000
1606139193.866,286.621,-10.742,-5.859,991.211,0.000
1606139193.870,71.289,-22.461,-16.113,379.395,0.000
1606139193.873,-266.602,-43.945,-32.715,-714.844,0.000
1606139193.877,-291.992,-43.457,-30.762,-892.090,0.000
1606139193.881,39.551,-22.461,-18.555,96.191,0.000
1606139193.885,266.602,-11.719,-14.160,934.570,0.000
1606139193.889,100.586,-20.020,-19.043,464.355,0.000
1606139193.893,-245.117,-32.227,-32.715,-636.230,0.000
1606139193.897,-314.453,-35.156,-41.016,-953.125,0.000
1606139193.901,0.000,-18.555,-31.250,-83.008,0.000
1606139193.905,273.438,-6.836,-21.484,878.418,0.000
1606139193.909,160.156,-11.719,-20.020,612.305,0.000
1606139193.913,-193.359,-31.738,-32.715,-519.531,0.000
1606139193.916,-306.152,-36.133,-39.062,-986.328,0.000
1606139193.920,-30.762,-25.391,-27.832,-202.637,0.000
1606139193.924,263.672,-18.555,-15.137,818.359,0.000
1606139193.928,209.961,-20.508,-15.137,755.859,0.000
1606139193.932,-141.602,-21.973,-37.598,-356.445,0.000
1606139193.936,-327.148,-20.996,-52.734,-1000.000,0.000
1606139193.940,-90.332,-30.762,-39.062,-339.844,0.000
1606139193.944,245.605,-26.855,-24.902,728.027,0.000
1606139193.948,244.141,-23.438,-23.926,849.609,0.000
1606139193.952,-101.562,-40.039,-39.551,-187.012,0.000
1606139193.955,-332.520,-54.199,-53.711,-1000.000,0.000
1606139193.959,-147.949,-41.992,-40.527,-493.652,0.000
1606139193.963,208.496,-26.855,-21.973,636.719,0.000
1606139193.967,261.719,-24.414,-19.531,901.367,0.000
1606139193.971,-68.848,-37.598,-29.297,-48.828,0.000
1606139193.975,-341.309,-52.734,-38.574,-988.770,0.000
1606139193.979,-206.543,-43.457,-31.250,-646.973,0.000
1606139193.983,160.156,-22.949,-15.137,516.113,0.000
1606139193.987,261.719,-26.855,-14.160,947.266,0.000
1606139193.991,-37.109,-27.832,-30.273,82.031,0.000
1606139193.995,-334.473,-23.926,-43.457,-921.875,0.000
1606139193.998,-249.512,-41.504,-37.598,-766.113,0.000
1606139194.002,123.535,-25.879,-20.996,371.094,0.000
1606139194.006,290.039,-15.625,-17.090,981.934,0.000
1606139194.010,30.273,-26.367,-25.391,232.910,0.000
1606139194.014,-297.363,-38.574,-38.086,-820.801,0.000
1606139194.018,-273.926,-44.922,-39.551,-857.910,0.000
1606139194.022,75.684,-27.344,-25.879,208.984,0.000
1606139194.026,293.457,-9.277,-17.090,994.629,0.000
1606139194.030,80.078,-18.555,-26.367,387.207,0.000
1606139194.034,-270.996,-11.719,-42.969,-720.703,0.000
1606139194.038,-298.340,-23.926,-43.457,-919.922,0.000
1606139194.041,36.621,-39.062,-24.414,50.781,0.000
1606139194.045,284.180,-23.438,-17.090,962.402,0.000
1606139194.049,118.652,-28.809,-28.320,542.480,0.000
1606139194.053,-249.023,-49.805,-41.504,-606.445,0.000
1606139194.057,-323.242,-50.781,-43.457,-960.449,0.000
1606139194.061,-5.371,-27.344,-26.855,-71.777,0.000
1606139194.065,277.344,-17.578,-17.090,913.574,0.000
1606139194.069,165.527,-29.297,-33.203,679.688,0.000
1606139194.073,-205.566,-33.203,-53.223,-473.633,0.000
1606139194.077,-346.680,-41.992,-54.688,-1000.000,0.000
1606139194.080,-74.707,-41.504,-36.621,-242.188,0.000
1606139194.084,245.605,-22.949,-16.602,820.312,0.000
1606139194.088,199.219,-22.949,-19.043,773.926,0.000
1606139194.092,-163.574,-37.598,-37.598,-338.867,0.000
1606139194.096,-354.004,-51.270,-41.016,-1000.000,0.000
1606139194.100,-123.047,-42.969,-28.320,-391.113,0.000
1606139194.104,218.262,-26.367,-19.043,716.797,0.000
1606139194.108,223.145,-26.367,-14.648,858.398,0.000
1606139194.112,-119.629,-36.133,-26.855,-180.176,0.000
1606139194.116,-347.168,-46.387,-41.016,-1000.000,0.000
1606139194.120,-161.133,-35.645,-32.227,-525.391,0.000
1606139194.123,199.707,-15.625,-16.602,618.652,0.000
1606139194.127,261.230,-15.137,-13.184,907.715,0.000
1606139194.131,-66.406,-38.574,-28.809,-40.039,0.000
1606139194.135,-345.215,-53.711,-41.992,-988.281,0.000
1606139194.139,-207.520,-40.039,-31.738,-671.387,0.000
1606139194.143,170.898,-21.484,-15.137,491.211,0.000
1606139194.147,292.480,-9.766,-10.742,958.496,0.000
1606139194.151,0.488,-19.531,-31.250,123.047,0.000
1606139194.155,-306.641,-35.645,-44.922,-898.926,0.000
1606139194.159,-229.980,-33.691,-34.180,-771.484,0.000
1606139194.163,130.371,-20.508,-15.137,369.629,0.000
1606139194.166,292.480,-10.254,-7.324,-991.211,0.000
1606139194.170,36.621,-23.926,-22.949,282.227,0.000
1606139194.174,-308.105,-41.992,-44.434,-808.105,0.000
1606139194.178,-293.457,-40.527,-42.969,-859.863,0.000
1606139194.182,71.777,-22.949,-22.461,215.332,0.000
1606139194.186,296.387,-7.324,-16.113,-989.746,0.000
1606139194.190,90.820,-19.531,-26.367,444.336,0.000
1606139194.194,-270.020,-38.086,-35.156,-687.012,0.000
1606139194.198,-307.129,-39.551,-34.180,-916.992,0.000
1606139194.202,32.715,-23.926,-19.531,80.078,0.000
1606139194.205,285.156,-8.789,-6.836,988.770,0.000
1606139194.209,123.535,-17.090,-11.719,587.891,0.000
1606139194.213,-243.164,-40.527,-29.785,-572.754,0.000
1606139194.217,-332.520,-42.480,-33.691,-967.773,0.000
1606139194.221,-30.762,-31.250,-17.090,-77.637,0.000
1606139194.225,262.207,-22.461,-7.812,913.086,0.000
1606139194.229,171.387,-21.973,-14.648,701.660,0.000
1606139194.233,-199.219,-43.457,-28.809,-450.195,0.000
1606139194.237,-346.680,-49.316,-36.621,-1000.000,0.000
1606139194.241,-73.730,-31.738,-30.273,-262.207,0.000
1606139194.245,252.441,-20.996,-14.648,813.965,0.000
1606139194.248,211.426,-25.391,-13.672,788.574,0.000
1606139194.252,-163.086,-41.992,-30.273,-327.637,0.000
1606139194.256,-362.305,-45.898,-37.109,-1000.000,0.000
1606139194.260,-129.883,-34.180,-25.879,-412.109,0.000
1606139194.264,216.797,-21.484,-10.254,688.477,0.000
1606139194.268,230.469,-20.508,-12.695,823.730,0.000
1606139194.272,-113.281,-44.434,-33.203,-204.102,0.000
1606139194.276,-351.074,-54.688,-36.133,-1000.000,0.000
1606139194.280,-174.316,-40.039,-26.855,-569.336,0.000
1606139194.284,194.336,-22.949,-17.090,583.984,0.000
1606139194.288,275.391,-14.160,-12.207,919.434,0.000
1606139194.291,-56.152,-37.109,-26.367,-37.598,0.000
1606139194.295,-342.773,-53.223,-40.527,-997.070,0.000
1606139194.299,-210.449,-39.551,-33.691,-689.941,0.000
1606139194.303,168.457,-18.066,-17.090,471.680,0.000
1606139194.307,289.062,-10.254,-11.230,977.539,0.000
1606139194.311,-15.625,-31.250,-27.344,128.418,0.000
1606139194.315,-337.891,-47.363,-44.434,-916.016,0.000
1606139194.319,-271.484,-45.410,-35.156,-798.828,0.000
1606139194.323,111.328,-29.785,-16.602,337.891,0.000
1606139194.327,292.480,-17.578,-11.230,-990.234,0.000
1606139194.330,41.016,-30.273,-24.414,288.086,0.000
1606139194.334,-298.340,-49.316,-38.574,-802.246,0.000
1606139194.338,-294.434,-48.340,-36.621,-872.559,0.000
1606139194.342,62.988,-34.668,-20.996,194.824,0.000
1606139194.346,284.668,-23.438,-6.348,-991.211,0.000
1606139194.350,87.891,-30.273,-19.531,438.965,0.000
1606139194.354,-265.625,-53.711,-35.645,-687.988,0.000
1606139194.358,-312.988,-51.270,-37.109,-933.594,0.000
1606139194.362,34.668,-25.879,-21.973,37.598,0.000
1606139194.366,305.664,-13.184,-2.930,975.098,0.000
1606139194.370,155.762,-21.484,-11.719,576.172,0.000
1606139194.373,-217.773,-35.156,-32.227,-583.008,0.000
1606139194.377,-322.754,-41.016,-38.574,-990.723,0.000
1606139194.381,-11.719,-25.879,-21.973,-133.301,0.000
1606139194.385,292.480,-6.836,-4.395,899.902,0.000
1606139194.389,197.266,-13.672,-12.207,693.848,0.000
1606139194.393,-183.105,-37.109,-36.133,-479.004,0.000
1606139194.397,-338.379,-41.992,-40.039,-1000.000,0.000
1606139194.401,-64.453,-25.879,-20.508,-259.277,0.000
1606139194.405,260.742,-16.113,-7.812,804.688,0.000
1606139194.409,222.168,-23.438,-11.230,791.992,0.000
1606139194.413,-133.789,-38.086,-28.320,-324.707,0.000
1606139194.416,-336.914,-43.457,-40.527,-1000.000,0.000
1606139194.420,-124.512,-33.203,-30.762,-434.082,0.000
1606139194.424,223.145,-14.648,-15.625,692.383,0.000
1606139194.428,240.234,-12.695,-11.230,861.328,0.000
1606139194.432,-114.258,-34.180,-24.414,-179.688,0.000
1606139194.436,-364.258,-48.340,-37.598,-1000.000,0.000
1606139194.440,-166.504,-36.133,-27.344,-538.086,0.000
1606139194.444,209.961,-13.672,-10.742,652.832,0.000
1606139194.448,260.742,-8.789,-6.836,915.527,0.000
1606139194.452,-50.781,-25.391,-24.902,-22.461,0.000
1606139194.455,-324.219,-40.527,-39.062,-987.793,0.000
1606139194.459,-210.449,-36.621,-31.738,-704.102,0.000
1606139194.463,154.785,-20.508,-14.648,458.984,0.000
1606139194.467,275.879,-16.602,-8.789,968.750,0.000
1606139194.471,-17.090,-31.250,-16.602,134.277,0.000
1606139194.475,-328.613,-44.434,-30.273,-899.414,0.000
1606139194.479,-266.602,-41.992,-31.250,-796.875,0.000
1606139194.483,105.469,-22.461,-14.648,336.426,0.000
1606139194.487,281.250,-17.578,-11.719,-996.582,0.000
1606139194.491,34.668,-25.391,-25.391,312.500,0.000
1606139194.495,-294.434,-30.273,-38.086,-771.484,0.000
1606139194.498,-292.969,-37.109,-38.574,-873.047,0.000
1606139194.502,57.617,-26.367,-21.484,194.336,0.000
1606139194.506,284.180,-17.578,-12.695,-989.258,0.000
1606139194.510,91.797,-16.113,-20.508,459.961,0.000
1606139194.514,-254.883,-15.137,-36.133,-669.434,0.000
1606139194.518,-300.293,-34.668,-42.969,-931.152,0.000
1606139194.522,30.762,-32.227,-24.902,41.016,0.000
1606139194.526,289.062,-16.113,-11.719,977.051,0.000
1606139194.530,143.066,-20.508,-17.578,612.793,0.000
1606139194.534,-224.609,-37.598,-35.156,-552.246,0.000
1606139194.538,-330.566,-47.363,-44.922,-984.863,0.000
1606139194.541,-26.855,-32.715,-34.668,-104.492,0.000
1606139194.545,273.926,-18.555,-22.949,909.180,0.000
1606139194.549,179.688,-25.391,-28.809,713.867,0.000
1606139194.553,-198.730,-45.410,-42.969,-442.383,0.000
1606139194.557,-347.656,-53.223,-41.992,-1000.000,0.000
1606139194.561,-76.660,-38.086,-26.367,-269.043,0.000
1606139194.565,244.629,-22.949,-9.766,803.223,0.000
1606139194.569,208.496,-23.438,-12.695,807.129,0.000
1606139194.573,-152.832,-39.062,-29.297,-294.922,0.000
1606139194.577,-356.445,-49.805,-38.574,-1000.000,0.000
1606139194.580,-134.766,-39.062,-27.832,-424.316,0.000
1606139194.584,213.379,-19.531,-7.812,695.801,0.000
1606139194.588,238.281,-15.625,-5.371,876.953,0.000
1606139194.592,-100.586,-24.414,-19.531,-138.184,0.000
1606139194.596,-345.215,-30.762,-29.785,-1000.000,0.000
1606139194.600,-175.293,-34.668,-25.391,-568.359,0.000
1606139194.604,188.477,-19.043,-15.625,588.867,0.000
1606139194.608,264.160,-13.672,-14.648,927.734,0.000
1606139194.612,-44.922,-32.227,-27.832,9.277,0.000
1606139194.616,-321.777,-44.922,-37.598,-970.215,0.000
1606139194.620,-209.473,-37.109,-30.762,-704.590,0.000
1606139194.623,162.598,-12.695,-14.648,462.402,0.000
1606139194.627,289.551,-8.301,-9.766,971.680,0.000
1606139194.631,-0.977,-16.602,-25.391,159.180,0.000
1606139194.635,-303.711,-24.902,-42.480,-874.512,0.000
1606139194.639,-245.117,-35.156,-42.480,-806.152,0.000
1606139194.643,100.586,-25.391,-25.391,315.430,0.000
1606139194.647,276.855,-19.043,-11.230,-991.699,0.000
1606139194.651,41.504,-28.809,-22.461,317.383,0.000
1606139194.655,-293.945,-46.387,-43.457,-779.785,0.000
1606139194.659,-289.551,-48.340,-42.969,-875.488,0.000
1606139194.663,67.383,-25.391,-26.367,174.316,0.000
1606139194.666,292.969,-13.184,-17.090,998.535,0.000
1606139194.670,94.238,-25.879,-20.508,457.520,0.000
1606139194.674,-251.465,-43.457,-32.227,-674.316,0.000
1606139194.678,-297.852,-40.527,-36.133,-927.246,0.000
1606139194.682,21.484,-22.461,-20.996,38.574,0.000
1606139194.686,273.438,-14.648,-9.277,971.191,0.000
1606139194.690,128.906,-23.438,-18.555,600.098,0.000
1606139194.694,-229.492,-17.578,-35.645,-562.988,0.000
1606139194.698,-326.172,-27.344,-38.086,-987.305,0.000
1606139194.702,-30.762,-36.133,-23.438,-132.324,0.000
1606139194.705,245.605,-19.043,-10.742,887.695,0.000
1606139194.709,150.879,-21.973,-16.602,708.496,0.000
1606139194.713,-189.941,-36.621,-27.832,-440.430,0.000
1606139194.717,-328.125,-44.922,-34.180,-1000.000,0.000
1606139194.721,-80.566,-33.203,-25.391,-278.320,0.000
1606139194.725,232.910,-18.066,-7.812,783.691,0.000
1606139194.729,206.055,-26.367,-12.695,804.199,0.000
1606139194.733,-135.742,-27.832,-27.344,-290.527,0.000
1606139194.737,-320.801,-28.809,-28.320,-1000.000,0.000
1606139194.741,-108.398,-36.621,-17.578,-416.016,0.000
1606139194.745,229.492,-23.438,-2.441,692.383,0.000
1606139194.748,256.348,-12.695,-0.977,871.094,0.000
1606139194.752,-69.336,-25.391,-20.020,-133.789,0.000
1606139194.756,-300.781,-42.969,-36.133,-1000.000,0.000
1606139194.760,-131.836,-36.621,-24.902,-542.480,0.000
1606139194.764,211.426,-24.414,-12.207,595.215,0.000
1606139194.768,278.809,-21.973,-7.812,927.734,0.000
1606139194.772,-22.949,-21.973,-12.695,45.898,0.000
1606139194.776,-300.781,-38.086,-27.832,-933.105,0.000
1606139194.780,-196.777,-43.945,-28.809,-674.805,0.000
1606139194.784,157.715,-24.414,-15.137,476.074,0.000
1606139194.788,279.297,-20.020,-13.184,979.980,0.000
1606139194.791,14.160,-19.531,-21.484,195.801,0.000
1606139194.795,-295.410,-32.227,-36.621,-859.863,0.000
1606139194.799,-248.047,-41.992,-37.109,-786.621,0.000
1606139194.803,115.723,-21.484,-25.391,349.121,0.000
1606139194.807,295.410,-14.160,-18.066,-986.816,0.000
1606139194.811,52.734,-33.203,-22.461,330.566,0.000
1606139194.815,-283.203,-50.781,-37.109,-769.531,0.000
1606139194.819,-273.438,-47.363,-39.062,-871.582,0.000
1606139194.823,70.801,-29.785,-27.832,195.801,0.000
1606139194.827,281.250,-18.555,-18.066,-982.422,0.000
1606139194.830,84.961,-24.414,-20.020,475.098,0.000
1606139194.834,-264.648,-38.574,-35.645,-668.457,0.000
1606139194.838,-310.059,-44.434,-46.875,-932.129,0.000
1606139194.842,19.043,-25.391,-36.133,43.945,0.000
1606139194.846,278.320,-10.254,-22.461,978.027,0.000
1606139194.850,140.137,-15.137,-24.902,610.352,0.000
1606139194.854,-224.609,-32.227,-45.410,-553.223,0.000
1606139194.858,-331.055,-44.922,-56.152,-982.910,0.000
1606139194.862,-39.062,-37.109,-43.457,-118.652,0.000
1606139194.866,255.371,-21.484,-28.320,894.531,0.000
1606139194.870,179.688,-18.066,-26.367,728.516,0.000
1606139194.873,-175.781,-27.832,-45.898,-419.434,0.000
1606139194.877,-325.684,-41.016,-52.246,-1000.000,0.000
1606139194.881,-66.895,-40.527,-33.691,-280.762,0.000
1606139194.885,252.930,-16.113,-15.137,800.293,0.000
1606139194.889,217.773,-17.090,-15.625,805.176,0.000
1606139194.893,-142.090,-42.480,-31.738,-291.992,0.000
1606139194.897,-340.332,-53.711,-42.480,-1000.000,0.000
1606139194.901,-123.535,-40.527,-32.227,-439.453,0.000
1606139194.905,215.332,-23.926,-14.648,687.500,0.000
1606139194.909,236.816,-21.484,-13.184,867.188,0.000
1606139194.913,-99.121,-36.621,-26.367,-152.344,0.000
1606139194.916,-339.844,-49.805,-40.039,-1000.000,0.000
1606139194.920,-179.199,-45.898,-39.551,-599.121,0.000
1606139194.924,179.199,-24.414,-22.949,563.965,0.000
1606139194.928,250.000,-20.508,-20.996,923.828,0.000
1606139194.932,-59.570,-26.855,-35.156,-2.930,0.000
1606139194.936,-332.031,-39.551,-44.922,-971.680,0.000
1606139194.940,-228.027,-47.852,-37.598,-717.285,0.000
1606139194.944,142.090,-22.461,-19.531,442.871,0.000
1606139194.948,272.949,-12.207,-12.695,978.027,0.000
1606139194.952,-12.695,-25.879,-25.879,146.484,0.000
1606139194.955,-322.754,-37.598,-38.574,-897.461,0.000
1606139194.959,-257.812,-35.645,-34.668,-811.035,0.000
1606139194.963,113.770,-18.555,-19.043,311.523,0.000
1606139194.967,289.551,-12.207,-8.301,-988.770,0.000
1606139194.971,49.316,-24.414,-14.160,316.895,0.000
1606139194.975,-284.668,-37.598,-26.855,-779.297,0.000
1606139194.979,-295.410,-41.504,-27.832,-892.090,0.000
1606139194.983,54.199,-28.320,-14.160,150.879,0.000
1606139194.987,283.203,-15.137,-5.859,-994.141,0.000
1606139194.991,88.867,-20.508,-17.090,460.449,0.000
1606139194.995,-258.789,-37.598,-32.715,-677.246,0.000
1606139194.998,-312.500,-40.527,-30.762,-946.777,0.000
1606139195.002,13.184,-23.926,-21.484,-6.348,0.000
1606139195.006,284.180,-10.742,-16.602,961.426,0.000
1606139195.010,145.996,-15.625,-20.020,604.980,0.000
1606139195.014,-229.980,-40.527,-40.039,-567.383,0.000
1606139195.018,-343.750,-48.828,-52.734,-1000.000,0.000
1606139195.022,-50.293,-34.180,-41.504,-185.547,0.000
1606139195.026,252.441,-20.996,-23.438,872.559,0.000
1606139195.030,164.551,-23.926,-28.809,694.336,0.000
1606139195.034,-207.031,-36.133,-46.875,-464.844,0.000
1606139195.038,-358.398,-44.922,-54.199,-1000.000,0.000
1606139195.041,-99.121,-35.645,-31.250,-348.145,0.000
1606139195.045,234.863,-14.648,-12.207,764.648,0.000
1606139195.049,208.008,-15.137,-24.414,789.062,0.000
1606139195.053,-156.738,-31.738,-36.133,-326.660,0.000
1606139195.057,-357.910,-37.598,-38.574,-1000.000,0.000
1606139195.061,-149.414,-36.133,-34.180,-490.234,0.000
1606139195.065,195.312,-24.902,-20.020,652.344,0.000
1606139195.069,223.145,-24.414,-18.555,861.816,0.000
1606139195.073,-121.094,-40.527,-40.527,-193.848,0.000
1606139195.077,-369.629,-51.270,-52.246,-1000.000,0.000
1606139195.080,-203.125,-49.805,-41.504,-628.418,0.000
1606139195.084,171.387,-27.344,-23.438,530.273,0.000
1606139195.088,262.695,-14.648,-14.648,926.758,0.000
1606139195.092,-58.105,-31.250,-29.785,-13.184,0.000
1606139195.096,-346.191,-48.828,-42.969,-981.934,0.000
1606139195.100,-229.004,-42.480,-37.109,-722.168,0.000
1606139195.104,148.926,-21.973,-18.555,436.523,0.000
1606139195.108,282.715,-17.090,-11.230,980.469,0.000
1606139195.112,-4.395,-30.273,-28.809,151.855,0.000
1606139195.116,-321.289,-41.504,-41.504,-892.090,0.000
1606139195.120,-259.766,-37.598,-32.227,-823.730,0.000
1606139195.123,111.328,-17.578,-17.578,291.504,0.000
1606139195.127,296.875,-10.742,-13.672,-989.258,0.000
1606139195.131,51.758,-26.855,-25.879,316.895,0.000
1606139195.135,-296.875,-45.410,-44.434,-781.250,0.000
1606139195.139,-302.246,-48.828,-44.922,-893.066,0.000
1606139195.143,49.316,-31.250,-24.902,139.160,0.000
1606139195.147,286.133,-17.578,-11.230,-995.117,0.000
1606139195.151,108.398,-18.066,-20.508,490.234,0.000
1606139195.155,-257.324,-24.414,-44.434,-657.715,0.000
1606139195.159,-330.566,-36.621,-52.246,-956.055,0.000
1606139195.163,3.418,-26.367,-32.227,-26.367,0.000
1606139195.166,282.715,-10.254,-20.508,952.148,0.000
1606139195.170,143.066,-18.555,-27.344,615.723,0.000
1606139195.174,-236.816,-36.133,-43.945,-553.223,0.000
1606139195.178,-352.539,-48.828,-52.734,-1000.000,0.000
1606139195.182,-46.387,-32.715,-34.180,-167.969,0.000
1606139195.186,268.066,-17.578,-20.508,876.953,0.000
1606139195.190,183.105,-25.391,-26.855,719.238,0.000
1606139195.194,-193.359,-43.457,-39.551,-433.105,0.000
1606139195.198,-357.422,-51.270,-47.363,-1000.000,0.000
1606139195.202,-103.516,-38.574,-36.133,-330.078,0.000
1606139195.205,232.422,-22.461,-14.648,769.043,0.000
1606139195.209,214.844,-17.090,-11.230,818.848,0.000
1606139195.213,-146.484,-20.996,-29.785,-273.438,0.000
1606139195.217,-360.840,-35.645,-44.922,-1000.000,0.000
1606139195.221,-152.832,-36.133,-40.039,-476.074,0.000
1606139195.225,204.590,-16.602,-21.973,659.180,0.000
1606139195.229,245.605,-13.184,-18.555,879.883,0.000
1606139195.233,-100.586,-34.668,-30.762,-130.859,0.000
1606139195.237,-357.422,-49.316,-39.551,-1000.000,0.000
1606139195.241,-199.707,-39.551,-34.180,-610.840,0.000
1606139195.245,165.039,-20.020,-23.438,553.711,0.000
1606139195.248,251.465,-20.508,-16.602,935.059,0.000
1606139195.252,-63.477,-33.691,-27.832,20.508,0.000
1606139195.256,-353.027,-42.480,-44.922,-964.355,0.000
1606139195.260,-246.094,-41.992,-36.133,-730.469,0.000
1606139195.264,134.277,-23.438,-13.184,426.270,0.000
1606139195.268,275.391,-15.137,-13.184,981.445,0.000
1606139195.272,-6.348,-30.273,-29.785,184.570,0.000
1606139195.276,-320.801,-43.457,-40.527,-866.211,0.000
1606139195.280,-273.438,-39.551,-37.598,-821.289,0.000
1606139195.284,88.379,-24.902,-21.973,285.156,0.000
1606139195.288,282.227,-11.230,-11.230,-988.770,0.000
1606139195.291,50.293,-8.301,-23.438,351.562,0.000
1606139195.295,-301.758,-28.809,-40.527,-759.766,0.000
1606139195.299,-313.477,-41.016,-41.504,-895.508,0.000
1606139195.303,33.203,-29.785,-25.879,132.812,0.000
1606139195.307,268.555,-24.902,-15.625,999.512,0.000
1606139195.311,91.309,-27.832,-26.855,492.188,0.000
1606139195.315,-263.672,-41.016,-38.086,-653.809,0.000
1606139195.319,-324.707,-47.852,-34.180,-953.125,0.000
1606139195.323,7.812,-33.691,-23.438,-2.930,0.000
1606139195.327,281.738,-15.137,-23.926,970.703,0.000
1606139195.330,142.090,-12.207,-31.250,625.000,0.000
1606139195.334,-233.398,-33.691,-42.480,-542.480,0.000
1606139195.338,-351.074,-41.504,-43.457,-1000.000,0.000
1606139195.342,-67.871,-25.879,-33.203,-191.895,0.000
1606139195.346,231.445,-19.531,-23.438,855.957,0.000
1606139195.350,166.504,-23.926,-23.926,723.145,0.000
1606139195.354,-192.871,-35.645,-41.992,-426.270,0.000
1606139195.358,-355.957,-41.504,-52.246,-1000.000,0.000
1606139195.362,-107.422,-32.227,-41.504,-346.191,0.000
1606139195.366,222.656,-17.090,-21.973,758.789,0.000
1606139195.370,207.031,-13.672,-19.043,815.918,0.000
1606139195.373,-149.902,-34.668,-42.480,-289.062,0.000
1606139195.377,-366.699,-45.410,-55.176,-1000.000,0.000
1606139195.381,-161.621,-29.785,-35.156,-502.930,0.000
1606139195.385,193.359,-15.137,-20.996,647.461,0.000
1606139195.389,229.980,-16.113,-20.996,877.930,0.000
1606139195.393,-111.816,-24.414,-37.109,-155.273,0.000
1606139195.397,-369.141,-37.109,-46.387,-1000.000,0.000
1606139195.401,-209.961,-35.645,-37.109,-628.418,0.000
1606139195.405,167.480,-15.137,-23.438,536.621,0.000
1606139195.409,257.324,-10.254,-20.020,937.500,0.000
1606139195.413,-54.199,-24.902,-33.691,21.484,0.000
1606139195.416,-330.078,-32.715,-36.621,-961.426,0.000
1606139195.420,-229.980,-29.297,-33.203,-738.281,0.000
1606139195.424,133.301,-18.555,-28.809,414.062,0.000
1606139195.428,280.273,-12.695,-21.973,995.605,0.000
1606139195.432,9.766,-21.484,-35.645,198.730,0.000
1606139195.436,-313.965,-39.551,-51.270,-872.070,0.000
1606139195.440,-273.438,-43.457,-42.480,-833.984,0.000
1606139195.444,92.773,-27.344,-26.367,276.855,0.000
1606139195.448,288.086,-17.090,-17.578,-986.328,0.000
1606139195.452,56.152,-26.367,-29.297,348.633,0.000
1606139195.455,-287.598,-43.945,-46.875,-759.766,0.000
1606139195.459,-297.363,-44.434,-43.457,-894.043,0.000
1606139195.463,47.852,-25.879,-33.691,136.719,0.000
1606139195.467,288.086,-15.137,-32.227,-998.047,0.000
1606139195.471,105.957,-23.438,-34.180,505.371,0.000
1606139195.475,-253.418,-36.621,-45.410,-640.625,0.000
1606139195.479,-322.266,-44.434,-50.781,-956.543,0.000
1606139195.483,-5.859,-34.668,-32.227,-31.738,0.000
1606139195.487,270.020,-23.438,-19.531,944.824,0.000
1606139195.491,144.043,-21.973,-25.391,634.277,0.000
1606139195.495,-221.191,-31.250,-40.527,-528.320,0.000
1606139195.498,-340.332,-49.316,-48.340,-1000.000,0.000
1606139195.502,-53.711,-39.062,-36.133,-200.684,0.000
1606139195.506,253.906,-15.625,-27.832,847.168,0.000
1606139195.510,192.871,-12.207,-28.809,745.117,0.000
1606139195.514,-162.109,-29.297,-38.086,-398.926,0.000
1606139195.518,-330.566,-37.598,-46.875,-1000.000,0.000
1606139195.522,-93.750,-27.344,-38.574,-338.379,0.000
1606139195.526,231.934,-12.207,-24.902,757.324,0.000
1606139195.530,220.703,-13.672,-26.367,825.684,0.000
1606139195.534,-127.930,-5.371,-44.922,-254.395,0.000
1606139195.538,-333.984,-14.648,-49.316,-1000.000,0.000
1606139195.541,-130.859,-33.691,-38.086,-485.352,0.000
1606139195.545,201.172,-19.531,-24.902,640.625,0.000
1606139195.549,238.281,-18.555,-20.996,884.277,0.000
1606139195.553,-79.102,-36.621,-36.133,-96.680,0.000
1606139195.557,-335.449,-54.688,-43.945,-1000.000,0.000
1606139195.561,-192.383,-50.781,-34.668,-629.395,0.000
1606139195.565,165.039,-29.785,-22.461,531.738,0.000
1606139195.569,250.977,-23.926,-21.973,934.082,0.000
1606139195.573,-47.852,-32.227,-32.715,43.457,0.000
1606139195.577,-325.195,-42.969,-42.480,-937.988,0.000
1606139195.580,-237.793,-45.410,-41.992,-758.301,0.000
1606139195.584,113.281,-26.855,-27.832,382.812,0.000
1606139195.588,257.324,-14.648,-19.531,975.098,0.000
1606139195.592,-4.395,-30.273,-34.180,189.453,0.000
1606139195.596,-306.152,-48.340,-45.898,-853.516,0.000
1606139195.600,-267.578,-45.898,-34.668,-832.031,0.000
1606139195.604,69.824,-29.297,-21.484,247.070,0.000
1606139195.608,263.184,-14.160,-14.160,987.305,0.000
1606139195.612,47.852,-22.949,-18.066,345.215,0.000
1606139195.616,-287.109,-42.480,-37.598,-750.000,0.000
1606139195.620,-299.316,-39.551,-41.992,-899.414,0.000
1606139195.623,37.598,-21.484,-25.391,100.586,0.000
1606139195.627,270.020,-14.160,-14.160,972.656,0.000
1606139195.631,101.562,-7.812,-16.113,496.094,0.000
1606139195.635,-236.816,-4.883,-36.133,-639.648,0.000
1606139195.639,-298.340,-29.785,-44.434,-951.172,0.000
1606139195.643,10.254,-26.855,-24.902,-40.527,0.000
1606139195.647,272.949,-9.766,-9.766,929.199,0.000
1606139195.651,152.832,-18.555,-16.113,650.879,0.000
1606139195.655,-200.684,-40.527,-36.621,-503.418,0.000
1606139195.659,-327.148,-49.316,-41.992,-1000.000,0.000
1606139195.663,-57.617,-30.762,-21.973,-191.406,0.000
1606139195.666,239.746,-12.695,-6.348,851.562,0.000
1606139195.670,172.852,-16.602,-15.137,738.281,0.000
1606139195.674,-181.641,-28.320,-33.691,-399.902,0.000
1606139195.678,-344.238,-39.062,-39.062,-1000.000,0.000
1606139195.682,-110.352,-33.691,-25.391,-352.051,0.000
1606139195.686,200.684,-18.555,-14.160,742.188,0.000
1606139195.690,190.918,-17.090,-13.672,812.012,0.000
1606139195.694,-136.719,-33.203,-28.320,-262.207,0.000
1606139195.698,-346.680,-42.480,-41.992,-1000.000,0.000
1606139195.702,-166.016,-32.227,-31.250,-515.625,0.000
1606139195.705,172.363,-19.531,-13.672,620.117,0.000
1606139195.709,223.633,-18.066,-10.254,888.184,0.000
1606139195.713,-93.750,-27.344,-26.855,-90.332,0.000
1606139195.717,-349.121,-46.387,-38.086,-1000.000,0.000
1606139195.721,-207.520,-44.434,-26.855,-661.621,0.000
1606139195.725,146.973,-22.461,-17.578,497.070,0.000
1606139195.729,245.605,-17.090,-20.508,921.387,0.000
1606139195.733,-40.527,-26.855,-34.180,25.879,0.000
1606139195.737,-318.848,-43.457,-45.410,-941.406,0.000
1606139195.741,-231.934,-44.922,-35.156,-755.371,0.000
1606139195.745,119.141,-28.320,-19.043,382.812,0.000
1606139195.748,264.160,-20.996,-12.207,972.656,0.000
1606139195.752,12.207,-29.297,-24.902,199.707,0.000
1606139195.756,-289.551,-37.598,-39.551,-841.797,0.000
1606139195.760,-256.348,-34.668,-35.156,-837.891,0.000
1606139195.764,86.426,-23.438,-15.625,241.211,0.000
1606139195.768,272.949,-18.066,-8.789,986.328,0.000
1606139195.772,49.805,-36.621,-24.414,353.516,0.000
1606139195.776,-277.832,-49.805,-41.992,-737.305,0.000
1606139195.780,-292.969,-42.969,-44.434,-900.391,0.000
1606139195.784,33.203,-26.367,-28.320,96.680,0.000
1606139195.788,266.602,-12.207,-15.625,978.027,0.000
1606139195.791,109.863,-19.043,-19.043,517.090,0.000
1606139195.795,-233.398,-35.645,-34.668,-628.418,0.000
1606139195.799,-308.105,-37.109,-35.645,-954.590,0.000
1606139195.803,-6.348,-23.926,-20.996,-61.035,0.000
1606139195.807,265.625,-10.742,-6.836,918.457,0.000
1606139195.811,145.996,-20.020,-17.090,636.230,0.000
1606139195.815,-214.844,-42.969,-39.062,-525.391,0.000
1606139195.819,-336.426,-47.852,-41.016,-1000.000,0.000
1606139195.823,-64.453,-33.691,-27.832,-243.652,0.000
1606139195.827,242.676,-21.484,-18.555,816.895,0.000
1606139195.830,183.105,-12.207,-21.484,733.398,0.000
1606139195.834,-170.410,-27.832,-30.273,-396.973,0.000
1606139195.838,-338.379,-51.758,-39.551,-1000.000,0.000
1606139195.842,-109.863,-37.598,-38.574,-381.836,0.000
1606139195.846,218.750,-20.508,-25.879,718.750,0.000
1606139195.850,216.309,-18.555,-21.484,830.078,0.000
1606139195.854,-125.977,-38.086,-34.668,-243.164,0.000
1606139195.858,-335.938,-50.293,-38.086,-1000.000,0.000
1606139195.862,-156.250,-42.480,-28.809,-522.949,0.000
1606139195.866,180.176,-30.273,-15.625,608.887,0.000
1606139195.870,237.793,-21.973,-14.160,877.930,0.000
1606139195.873,-89.355,-37.598,-32.715,-106.934,0.000
1606139195.877,-351.074,-52.246,-43.457,-1000.000,0.000
1606139195.881,-201.660,-44.434,-38.086,-659.668,0.000
1606139195.885,155.762,-24.414,-27.344,495.605,0.000
1606139195.889,243.652,-20.508,-27.832,933.105,0.000
1606139195.893,-53.223,-35.156,-41.504,52.246,0.000
1606139195.897,-342.773,-46.387,-48.340,-934.082,0.000
1606139195.901,-256.836,-38.574,-42.969,-756.348,0.000
1606139195.905,104.980,-20.508,-28.320,383.789,0.000
1606139195.909,255.371,-18.555,-23.926,981.445,0.000
1606139195.913,-1.953,-16.113,-39.062,210.938,0.000
1606139195.916,-319.824,-21.484,-57.617,-838.379,0.000
1606139195.920,-290.527,-46.387,-56.641,-848.633,0.000
1606139195.924,62.012,-34.180,-32.227,226.074,0.000
1606139195.928,268.066,-17.578,-19.531,999.512,0.000
1606139195.932,57.129,-29.297,-30.762,388.184,0.000
1606139195.936,-290.039,-46.875,-50.293,-724.121,0.000
1606139195.940,-315.430,-52.246,-51.270,-907.715,0.000
1606139195.944,24.902,-35.156,-33.203,89.844,0.000
1606139195.948,273.926,-20.996,-20.020,986.816,0.000
1606139195.952,112.305,-14.160,-25.391,540.527,0.000
1606139195.955,-248.535,-24.902,-40.039,-613.281,0.000
1606139195.959,-323.730,-48.340,-41.992,-958.984,0.000
1606139195.963,-13.184,-33.203,-28.809,-61.523,0.000
1606139195.967,258.301,-15.137,-20.508,923.828,0.000
1606139195.971,149.902,-22.949,-23.926,664.551,0.000
1606139195.975,-210.449,-42.480,-38.574,-498.535,0.000
1606139195.979,-345.703,-49.805,-50.781,-1000.000,0.000
1606139195.983,-72.266,-37.109,-37.109,-232.910,0.000
1606139195.987,241.699,-23.926,-20.020,823.730,0.000
1606139195.991,188.477,-3.906,-22.461,761.230,0.000
1606139195.995,-168.945,-0.488,-37.598,-362.305,0.000
1606139195.998,-347.168,-30.762,-45.898,-1000.000,0.000
1606139196.002,-116.699,-31.250,-35.645,-395.020,0.000
1606139196.006,219.238,-18.066,-16.602,716.309,0.000
1606139196.010,222.168,-13.184,-15.137,832.031,0.000
1606139196.014,-128.906,-21.973,-30.762,-236.328,0.000
1606139196.018,-356.934,-46.875,-43.457,-1000.000,0.000
1606139196.022,-168.457,-42.969,-32.227,-540.039,0.000
1606139196.026,186.523,-19.043,-14.648,611.328,0.000
1606139196.030,239.258,-13.672,-16.602,892.090,0.000
1606139196.034,-86.426,-28.320,-33.203,-87.891,0.000
1606139196.038,-349.609,-45.898,-44.922,-1000.000,0.000
1606139196.041,-215.332,-44.922,-36.621,-663.574,0.000
1606139196.045,150.879,-24.902,-20.996,493.652,0.000
1606139196.049,259.766,-20.020,-20.508,941.406,0.000
1606139196.053,-40.527,-27.344,-32.715,58.105,0.000
1606139196.057,-341.309,-42.969,-43.945,-936.523,0.000
1606139196.061,-257.324,-45.410,-41.016,-772.461,0.000
1606139196.065,116.699,-22.949,-21.484,366.211,0.000
1606139196.069,271.973,-17.090,-8.789,989.746,0.000
1606139196.073,18.066,-26.367,-17.578,237.793,0.000
1606139196.077,-306.152,-43.457,-36.621,-824.707,0.000
1606139196.080,-285.645,-53.223,-36.621,-845.703,0.000
1606139196.084,74.219,-26.855,-11.230,243.164,0.000
1606139196.088,283.203,-15.625,-2.930,-985.352,0.000
1606139196.092,76.172,-0.977,-14.648,428.711,0.000
1606139196.096,-267.578,-0.488,-29.785,-695.801,0.000
1606139196.100,-300.293,-41.504,-29.785,-905.273,0.000
1606139196.104,38.574,-34.668,-10.254,109.375,0.000
1606139196.108,296.875,-10.742,0.977,998.535,0.000
1606139196.112,128.418,-18.066,-16.113,555.664,0.000
1606139196.116,-235.840,-38.574,-42.480,-604.004,0.000
1606139196.120,-315.918,-45.898,-38.574,-964.355,0.000
1606139196.123,-16.113,-37.598,-20.996,-61.035,0.000
1606139196.127,262.695,-22.949,-13.672,924.316,0.000
1606139196.131,155.273,-9.766,-17.578,676.758,0.000
1606139196.135,-208.496,-22.461,-37.109,-476.562,0.000
1606139196.139,-342.285,-45.898,-44.922,-1000.000,0.000
1606139196.143,-66.406,-34.180,-27.344,-229.492,0.000
1606139196.147,245.117,-22.461,-15.625,825.684,0.000
1606139196.151,192.871,-16.602,-18.555,773.438,0.000
1606139196.155,-166.504,-30.273,-29.297,-347.168,0.000
1606139196.159,-347.168,-52.734,-42.480,-1000.000,0.000
1606139196.163,-112.305,-40.527,-29.785,-381.836,0.000
1606139196.166,224.609,-22.461,-13.184,724.121,0.000
1606139196.170,229.492,-20.996,-19.043,842.285,0.000
1606139196.174,-114.746,-34.180,-33.691,-206.055,0.000
1606139196.178,-339.844,-47.852,-43.457,-1000.000,0.000
1606139196.182,-151.855,-40.039,-36.133,-530.273,0.000
1606139196.186,197.266,-28.809,-22.949,614.746,0.000
1606139196.190,255.371,-27.832,-24.902,896.484,0.000
1606139196.194,-62.012,-14.160,-38.574,-65.918,0.000
1606139196.198,-324.219,-21.484,-46.875,-994.629,0.000
1606139196.202,-187.988,-37.109,-32.715,-660.156,0.000
1606139196.205,171.387,-21.484,-19.531,499.023,0.000
1606139196.209,284.180,-15.137,-17.090,959.473,0.000
1606139196.213,-5.371,-31.738,-26.367,113.281,0.000
1606139196.217,-309.082,-48.340,-41.992,-909.180,0.000
1606139196.221,-233.887,-48.340,-41.992,-774.414,0.000
1606139196.225,126.953,-30.762,-25.391,364.746,0.000
1606139196.229,290.039,-16.113,-11.719,999.023,0.000
1606139196.233,46.387,-20.996,-16.113,273.438,0.000
1606139196.237,-280.762,-39.062,-26.367,-803.223,0.000
1606139196.241,-266.113,-41.016,-28.320,-849.609,0.000
1606139196.245,81.055,-25.879,-18.555,226.562,0.000
1606139196.248,283.691,-18.066,-12.695,-995.605,0.000
1606139196.252,82.520,-21.484,-18.555,415.039,0.000
1606139196.256,-260.254,-39.551,-30.762,-707.031,0.000
1606139196.260,-293.457,-41.016,-33.203,-915.039,0.000
1606139196.264,42.969,-26.367,-14.648,70.801,0.000
1606139196.268,295.898,-16.113,-6.348,977.051,0.000
1606139196.272,143.555,-19.531,-19.043,572.266,0.000
1606139196.276,-213.379,-41.504,-31.250,-583.984,0.000
1606139196.280,-299.316,-49.316,-30.762,-967.285,0.000
1606139196.284,-4.883,-34.668,-21.973,-97.168,0.000
1606139196.288,270.996,-20.020,-17.090,898.926,0.000
1606139196.291,171.875,-19.043,-21.973,678.223,0.000
1606139196.295,-194.336,-34.668,-37.109,-480.957,0.000
1606139196.299,-336.914,-48.340,-45.410,-1000.000,0.000
1606139196.303,-69.336,-38.086,-32.715,-268.555,0.000
1606139196.307,250.000,-17.090,-18.066,803.711,0.000
1606139196.311,207.031,-18.066,-20.996,773.438,0.000
1606139196.315,-150.391,-39.062,-35.156,-347.168,0.000
1606139196.319,-336.426,-47.363,-38.574,-1000.000,0.000
1606139196.323,-108.398,-33.691,-28.809,-403.809,0.000
1606139196.327,229.004,-16.113,-20.020,704.590,0.000
1606139196.330,235.352,-6.348,-14.160,852.539,0.000
1606139196.334,-114.746,-20.996,-27.344,-193.359,0.000
1606139196.338,-347.656,-45.410,-41.992,-1000.000,0.000
1606139196.342,-167.480,-42.969,-28.809,-545.898,0.000
1606139196.346,175.781,-24.414,-13.184,595.703,0.000
1606139196.350,233.887,-18.555,-15.625,901.855,0.000
1606139196.354,-74.219,-37.598,-27.832,-45.410,0.000
1606139196.358,-334.473,-53.223,-39.551,-984.375,0.000
1606139196.362,-208.984,-45.898,-35.156,-668.945,0.000
1606139196.366,155.273,-26.855,-14.160,490.234,0.000
1606139196.370,268.555,-22.949,-12.207,958.008,0.000
1606139196.373,-16.602,-19.531,-38.574,121.094,0.000
1606139196.377,-318.359,-29.297,-50.293,-912.109,0.000
1606139196.381,-238.770,-49.316,-41.992,-754.395,0.000
1606139196.385,125.000,-33.691,-31.738,389.648,0.000
1606139196.389,276.367,-18.555,-24.414,985.840,0.000
1606139196.393,37.598,-30.273,-27.832,268.555,0.000
1606139196.397,-283.691,-46.387,-36.621,-806.152,0.000
1606139196.401,-263.184,-43.457,-34.668,-854.492,0.000
1606139196.405,81.543,-25.391,-20.508,208.984,0.000
1606139196.409,286.133,-10.742,-9.277,996.582,0.000
1606139196.413,86.914,-14.648,-24.414,434.082,0.000
1606139196.416,-256.836,-34.668,-44.922,-683.594,0.000
1606139196.420,-302.246,-41.016,-42.480,-922.363,0.000
1606139196.424,11.230,-25.879,-29.297,41.992,0.000
1606139196.428,257.324,-16.602,-18.066,959.961,0.000
1606139196.432,106.934,-25.879,-23.438,569.824,0.000
1606139196.436,-247.070,-43.945,-33.203,-580.078,0.000
1606139196.440,-334.473,-46.387,-35.645,-972.168,0.000
1606139196.444,-38.574,-32.715,-25.391,-112.793,0.000
1606139196.448,251.953,-16.602,-11.230,889.160,0.000
1606139196.452,166.016,-17.578,-13.672,697.754,0.000
1606139196.455,-202.148,-40.039,-29.297,-489.258,0.000
1606139196.459,-318.359,-47.363,-32.227,-947.266,0.000
1606139196.463,-43.457,-34.180,-19.531,-132.812,0.000
1606139196.467,233.398,-20.508,-6.836,798.340,0.000
1606139196.471,196.777,-19.043,-7.324,778.809,0.000
1606139196.475,-152.344,-41.504,-29.785,-322.754,0.000
1606139196.479,-336.426,-46.387,-33.691,-1000.000,0.000
1606139196.483,-114.258,-34.668,-24.414,-392.090,0.000
1606139196.487,212.891,-24.902,-20.020,697.754,0.000
1606139196.491,222.656,-20.508,-20.996,849.609,0.000
1606139196.495,-109.375,-35.156,-35.645,-176.270,0.000
1606139196.498,-335.938,-43.945,-43.457,-1000.000,0.000
1606139196.502,-161.133,-34.668,-28.320,-564.941,0.000
1606139196.506,189.453,-11.719,-8.301,581.055,0.000
1606139196.510,252.441,-6.836,-11.719,905.762,0.000
1606139196.514,-64.941,-35.156,-30.273,-35.645,0.000
1606139196.518,-337.891,-52.734,-39.062,-976.562,0.000
1606139196.522,-219.727,-45.410,-37.598,-697.754,0.000
1606139196.526,131.348,-26.855,-27.344,451.660,0.000
1606139196.530,248.535,-15.625,-21.484,933.105,0.000
1606139196.534,-13.672,-17.090,-32.715,101.074,0.000
1606139196.538,-300.293,-30.273,-44.434,-889.160,0.000
1606139196.541,-244.629,-34.668,-33.203,-785.645,0.000
1606139196.545,96.191,-20.508,-7.812,328.125,0.000
1606139196.549,259.766,-14.160,0.488,973.633,0.000
1606139196.553,25.879,-24.902,-12.695,273.926,0.000
1606139196.557,-293.457,-39.551,-31.250,-783.203,0.000
1606139196.561,-285.156,-42.969,-33.203,-867.676,0.000
1606139196.565,51.270,-25.879,-13.672,173.828,0.000
1606139196.569,266.602,-11.719,-1.953,969.238,0.000
1606139196.573,78.613,-30.273,-13.672,421.875,0.000
1606139196.577,-259.766,-47.852,-27.832,-679.688,0.000
1606139196.580,-299.805,-39.551,-28.320,-912.109,0.000
1606139196.584,18.555,-22.461,-15.625,38.086,0.000
1606139196.588,269.043,-12.207,-4.395,949.219,0.000
1606139196.592,125.488,-21.484,-15.625,580.078,0.000
1606139196.596,-213.379,-39.551,-34.180,-536.621,0.000
1606139196.600,-298.828,-49.316,-39.551,-914.062,0.000
1606139196.604,-19.531,-33.203,-26.855,-101.562,0.000
1606139196.608,255.371,-19.531,-16.602,871.582,0.000
1606139196.612,166.016,-19.043,-21.973,692.871,0.000
1606139196.616,-176.270,-32.227,-34.668,-437.012,0.000
1606139196.620,-311.035,-48.340,-41.016,-983.398,0.000
1606139196.623,-62.988,-36.621,-29.297,-238.770,0.000
1606139196.627,235.352,-19.531,-11.719,784.180,0.000
1606139196.631,197.266,-19.531,-10.742,769.043,0.000
1606139196.635,-138.672,-35.156,-23.926,-311.035,0.000
1606139196.639,-323.242,-46.387,-33.203,-996.094,0.000
1606139196.643,-120.117,-38.574,-26.855,-404.297,0.000
1606139196.647,202.637,-20.996,-7.812,666.504,0.000
1606139196.651,226.074,-10.254,-6.348,850.098,0.000
1606139196.655,-85.938,-10.742,-20.996,-140.137,0.000
1606139196.659,-307.129,-37.109,-29.785,-958.984,0.000
1606139196.663,-153.320,-47.363,-25.391,-532.227,0.000
1606139196.666,172.363,-26.855,-20.508,565.918,0.000
1606139196.670,236.816,-16.602,-19.043,881.836,0.000
1606139196.674,-53.711,-29.785,-25.391,-21.973,0.000
1606139196.678,-305.664,-46.875,-39.551,-919.434,0.000
1606139196.682,-200.684,-38.574,-38.086,-650.879,0.000
1606139196.686,130.371,-21.484,-20.996,453.613,0.000
1606139196.690,249.023,-14.160,-13.184,921.387,0.000
1606139196.694,0.977,-24.902,-25.879,149.414,0.000
1606139196.698,-279.785,-41.504,-41.992,-824.707,0.000
1606139196.702,-229.492,-43.945,-40.039,-747.070,0.000
1606139196.705,98.633,-34.180,-20.020,320.312,0.000
1606139196.709,253.906,-25.391,-11.230,922.852,0.000
1606139196.713,39.062,-24.414,-26.367,280.762,0.000
1606139196.717,-256.836,-36.133,-41.016,-741.699,0.000
1606139196.721,-250.488,-41.504,-34.180,-818.848,0.000
1606139196.725,60.059,-26.367,-19.043,196.289,0.000
1606139196.729,255.859,-17.090,-12.207,927.246,0.000
1606139196.733,85.449,-30.273,-19.531,431.641,0.000
1606139196.737,-228.027,-46.387,-38.086,-634.766,0.000
1606139196.741,-269.043,-47.363,-41.504,-867.676,0.000
1606139196.745,22.949,-30.762,-27.832,67.871,0.000
1606139196.748,244.629,-18.066,-18.555,892.578,0.000
1606139196.752,110.840,-14.648,-24.414,551.758,0.000
1606139196.756,-211.426,-24.902,-38.086,-533.691,0.000
1606139196.760,-297.363,-40.527,-34.180,-913.086,0.000
1606139196.764,-28.809,-30.273,-21.484,-82.520,0.000
1606139196.768,234.863,-18.555,-18.066,833.008,0.000
1606139196.772,152.832,-27.832,-19.043,666.504,0.000
1606139196.776,-175.293,-40.039,-30.273,-402.344,0.000
1606139196.780,-314.453,-42.969,-38.574,-937.988,0.000
1606139196.784,-87.891,-35.645,-27.344,-247.559,0.000
1606139196.788,206.055,-19.043,-12.207,747.070,0.000
1606139196.791,181.152,-7.324,-11.719,739.746,0.000
1606139196.795,-144.531,-19.043,-28.320,-316.406,0.000
1606139196.799,-327.148,-38.086,-39.551,-977.539,0.000
1606139196.803,-139.160,-35.156,-35.645,-425.781,0.000
1606139196.807,169.922,-20.996,-23.926,613.770,0.000
1606139196.811,194.824,-19.043,-19.531,783.691,0.000
1606139196.815,-104.004,-33.203,-31.250,-184.082,0.000
1606139196.819,-317.871,-40.527,-42.480,-971.191,0.000
1606139196.823,-171.875,-32.227,-35.156,-570.801,0.000
1606139196.827,143.555,-21.973,-22.461,505.371,0.000
1606139196.830,206.055,-21.973,-19.531,816.895,0.000
1606139196.834,-72.266,-31.738,-27.832,-57.617,0.000
1606139196.838,-319.336,-45.898,-42.480,-929.199,0.000
1606139196.842,-218.262,-44.434,-36.621,-697.266,0.000
1606139196.846,110.840,-28.320,-20.996,380.859,0.000
1606139196.850,228.516,-19.531,-20.508,853.516,0.000
1606139196.854,-16.602,-30.762,-32.227,93.750,0.000
1606139196.858,-287.598,-42.969,-40.527,-850.586,0.000
1606139196.862,-232.910,-42.969,-33.691,-774.902,0.000
1606139196.866,94.727,-27.344,-17.090,291.016,0.000
1606139196.870,259.766,-15.625,-13.184,918.457,0.000
1606139196.873,50.293,-29.297,-19.531,280.762,0.000
1606139196.877,-250.488,-44.922,-26.855,-744.141,0.000
1606139196.881,-249.023,-42.969,-27.344,-833.008,0.000
1606139196.885,66.895,-25.391,-13.672,177.246,0.000
1606139196.889,260.254,-14.648,-5.859,906.250,0.000
1606139196.893,85.938,-17.578,-11.719,415.527,0.000
1606139196.897,-229.492,-38.086,-26.367,-647.461,0.000
1606139196.901,-273.438,-44.434,-32.227,-896.973,0.000
1606139196.905,20.508,-28.320,-23.926,28.809,0.000
1606139196.909,257.324,-17.090,-18.555,878.906,0.000
1606139196.913,129.883,-20.996,-24.414,545.410,0.000
1606139196.916,-200.195,-36.133,-33.691,-535.645,0.000
1606139196.920,-296.875,-40.039,-40.527,-943.359,0.000
1606139196.924,-32.227,-26.367,-27.344,-137.207,0.000
1606139196.928,241.211,-13.672,-4.395,816.406,0.000
1606139196.932,163.086,-10.254,-9.766,657.227,0.000
1606139196.936,-175.293,-17.578,-30.273,-433.105,0.000
1606139196.940,-327.637,-45.898,-37.598,-989.746,0.000
1606139196.944,-103.027,-49.316,-29.785,-310.059,0.000
1606139196.948,196.289,-32.227,-18.066,711.914,0.000
1606139196.952,172.852,-26.367,-19.531,725.098,0.000
1606139196.955,-149.902,-39.062,-33.691,-322.754,0.000
1606139196.959,-341.309,-50.293,-41.016,-1000.000,0.000
1606139196.963,-155.273,-44.922,-35.645,-461.914,0.000
1606139196.967,169.922,-31.738,-18.066,617.188,0.000
1606139196.971,206.543,-23.926,-10.254,807.129,0.000
1606139196.975,-95.703,-31.738,-26.367,-169.922,0.000
1606139196.979,-315.430,-39.551,-37.598,-965.820,0.000
1606139196.983,-177.734,-40.039,-35.156,-573.730,0.000
1606139196.987,150.391,-29.297,-22.461,514.160,0.000
1606139196.991,236.328,-20.508,-17.578,850.586,0.000
1606139196.995,-51.270,-34.180,-34.668,-35.645,0.000
1606139196.998,-302.246,-41.992,-42.969,-924.805,0.000
1606139197.002,-202.148,-32.715,-36.621,-700.195,0.000
1606139197.006,121.094,-18.555,-27.832,395.020,0.000
1606139197.010,242.676,-12.695,-20.996,897.461,0.000
1606139197.014,-5.859,-28.320,-31.250,127.930,0.000
1606139197.018,-291.016,-43.945,-47.363,-845.703,0.000
1606139197.022,-241.211,-41.016,-41.016,-774.414,0.000
1606139197.026,99.121,-21.484,-23.926,313.477,0.000
1606139197.030,265.137,-15.625,-16.113,949.219,0.000
1606139197.034,49.316,-22.461,-29.785,302.734,0.000
1606139197.038,-255.371,-34.180,-39.062,-741.211,0.000
1606139197.041,-264.160,-43.457,-33.203,-853.516,0.000
1606139197.045,50.293,-29.297,-27.344,158.203,0.000
1606139197.049,255.371,-15.625,-13.672,927.734,0.000
1606139197.053,84.961,-20.996,-16.113,434.570,0.000
1606139197.057,-239.258,-38.574,-39.551,-647.461,0.000
1606139197.061,-290.527,-41.992,-43.945,-908.203,0.000
1606139197.065,17.090,-26.855,-28.320,19.043,0.000
1606139197.069,266.602,-15.137,-18.555,906.738,0.000
1606139197.073,148.438,-8.789,-17.090,586.426,0.000
1606139197.077,-184.570,-23.926,-31.250,-531.738,0.000
1606139197.080,-296.875,-43.945,-41.504,-958.496,0.000
1606139197.084,-36.621,-32.715,-26.855,-149.414,0.000
1606139197.088,242.676,-13.184,-12.695,831.543,0.000
1606139197.092,170.410,-17.090,-17.090,685.547,0.000
1606139197.096,-173.828,-38.086,-35.156,-429.199,0.000
1606139197.100,-323.730,-49.805,-44.922,-1000.000,0.000
1606139197.104,-87.891,-34.668,-29.785,-317.871,0.000
1606139197.108,223.145,-16.602,-11.719,738.770,0.000
1606139197.112,201.172,-21.973,-12.695,768.066,0.000
1606139197.116,-135.254,-36.621,-28.809,-306.152,0.000
1606139197.120,-317.871,-40.039,-33.691,-1000.000,0.000
1606139197.123,-127.441,-32.227,-19.531,-448.242,0.000
1606139197.127,189.453,-21.973,-8.789,643.066,0.000
1606139197.131,217.773,-9.766,-16.602,841.797,0.000
1606139197.135,-99.609,-3.906,-32.227,-147.461,0.000
1606139197.139,-328.613,-26.855,-38.086,-975.586,0.000
1606139197.143,-183.594,-37.109,-31.738,-578.125,0.000
1606139197.147,156.738,-15.625,-15.625,536.621,0.000
1606139197.151,235.352,-9.766,-16.602,899.414,0.000
1606139197.155,-57.617,-29.785,-35.156,3.418,0.000
1606139197.159,-321.777,-46.875,-47.363,-940.430,0.000
1606139197.163,-221.191,-41.016,-41.504,-717.285,0.000
1606139197.166,120.605,-22.949,-28.320,415.527,0.000
1606139197.170,245.117,-8.789,-27.344,929.688,0.000
1606139197.174,-10.742,-11.719,-40.527,134.277,0.000
1606139197.178,-308.105,-40.527,-52.246,-861.816,0.000
1606139197.182,-256.836,-43.457,-45.410,-810.059,0.000
1606139197.186,90.332,-21.484,-24.414,281.250,0.000
1606139197.190,266.602,-11.230,-15.625,959.473,0.000
1606139197.194,44.434,-23.438,-30.762,302.734,0.000
1606139197.198,-271.484,-37.109,-46.875,-750.977,0.000
1606139197.202,-272.949,-37.109,-43.457,-873.535,0.000
1606139197.205,50.781,-29.297,-30.762,141.113,0.000
1606139197.209,266.602,-18.555,-24.414,964.844,0.000
1606139197.213,96.191,-11.719,-30.762,488.770,0.000
1606139197.217,-240.723,-27.832,-43.457,-629.395,0.000
1606139197.221,-299.316,-41.504,-41.016,-928.223,0.000
1606139197.225,7.812,-31.250,-26.367,-6.836,0.000
1606139197.229,270.020,-18.066,-17.090,923.828,0.000
1606139197.233,148.926,-20.020,-20.020,615.234,0.000
1606139197.237,-207.031,-33.691,-32.227,-529.785,0.000
1606139197.241,-318.359,-42.480,-39.551,-967.285,0.000
1606139197.245,-40.039,-29.297,-26.855,-138.184,0.000
1606139197.248,251.465,-8.301,-7.812,859.375,0.000
1606139197.252,178.711,-14.160,-6.836,728.516,0.000
1606139197.256,-175.293,-37.109,-26.367,-403.809,0.000
1606139197.260,-327.637,-46.387,-35.156,-1000.000,0.000
1606139197.264,-84.473,-32.715,-18.555,-312.012,0.000
1606139197.268,229.004,-21.484,-3.906,750.977,0.000
1606139197.272,213.379,-6.836,-9.277,808.594,0.000
1606139197.276,-125.000,-14.648,-17.578,-264.160,0.000
1606139197.280,-331.543,-45.898,-30.273,-1000.000,0.000
1606139197.284,-139.648,-46.387,-34.180,-453.125,0.000
1606139197.288,190.430,-31.250,-17.578,652.344,0.000
1606139197.291,224.121,-23.926,-16.113,872.559,0.000
1606139197.295,-96.680,-41.016,-30.273,-113.770,0.000
1606139197.299,-338.867,-56.152,-36.133,-995.605,0.000
1606139197.303,-191.406,-46.875,-31.738,-602.539,0.000
1606139197.307,160.645,-26.367,-19.043,541.504,0.000
1606139197.311,248.047,-12.207,-18.066,913.574,0.000
1606139197.315,-51.270,-8.789,-35.645,14.648,0.000
1606139197.319,-327.637,-36.133,-44.922,-943.359,0.000
1606139197.323,-226.074,-45.898,-44.434,-723.145,0.000
1606139197.327,136.719,-25.391,-26.367,420.898,0.000
1606139197.330,272.949,-20.020,-18.555,967.773,0.000
1606139197.334,10.254,-35.645,-37.598,195.312,0.000
1606139197.338,-291.504,-46.875,-48.340,-837.891,0.000
1606139197.342,-251.465,-39.062,-41.992,-811.035,0.000
1606139197.346,92.773,-23.926,-23.926,278.809,0.000
1606139197.350,263.184,-13.672,-14.648,974.121,0.000
1606139197.354,39.062,-11.719,-25.391,333.496,0.000
1606139197.358,-284.180,-35.156,-35.645,-740.723,0.000
1606139197.362,-291.504,-47.363,-38.574,-876.953,0.000
1606139197.366,37.109,-29.297,-32.227,129.395,0.000
1606139197.370,259.766,-12.207,-24.902,951.172,0.000
1606139197.373,97.656,-19.043,-29.785,476.074,0.000
1606139197.377,-232.910,-38.086,-41.016,-632.324,0.000
1606139197.381,-291.016,-39.551,-45.410,-926.270,0.000
1606139197.385,14.648,-23.926,-31.250,-10.254,0.000
1606139197.389,268.066,-17.578,-15.137,917.480,0.000
1606139197.393,142.090,-27.344,-21.973,604.004,0.000
1606139197.397,-202.637,-41.016,-38.574,-533.203,0.000
1606139197.401,-311.035,-41.504,-35.645,-966.309,0.000
1606139197.405,-43.945,-28.809,-22.461,-167.969,0.000
1606139197.409,240.723,-17.090,-11.230,825.195,0.000
1606139197.413,174.805,-6.348,-13.672,704.590,0.000
1606139197.416,-165.039,-16.113,-29.297,-407.715,0.000
1606139197.420,-323.730,-44.922,-34.668,-1000.000,0.000
1606139197.424,-92.773,-39.062,-21.484,-326.172,0.000
1606139197.428,216.309,-24.414,-5.371,729.980,0.000
1606139197.432,202.637,-23.438,-3.906,789.062,0.000
1606139197.436,-125.488,-39.551,-20.020,-277.832,0.000
1606139197.440,-326.172,-53.223,-27.832,-1000.000,0.000
1606139197.444,-140.137,-38.574,-17.090,-486.816,0.000
1606139197.448,191.406,-24.414,-5.371,629.883,0.000
1606139197.452,222.656,-14.648,-12.695,853.516,0.000
1606139197.455,-95.215,-20.020,-30.762,-137.207,0.000
1606139197.459,-327.148,-46.387,-42.480,-994.141,0.000
1606139197.463,-180.176,-42.480,-30.273,-620.117,0.000
1606139197.467,163.086,-24.414,-8.789,520.020,0.000
1606139197.471,249.512,-22.461,-9.277,900.879,0.000
1606139197.475,-41.504,-37.598,-24.902,14.160,0.000
1606139197.479,-311.523,-50.781,-32.715,-925.781,0.000
1606139197.483,-220.703,-48.340,-33.203,-735.840,0.000
1606139197.487,118.164,-35.645,-25.879,385.254,0.000
1606139197.491,255.859,-19.531,-16.602,936.035,0.000
1606139197.495,10.742,-17.090,-26.855,183.594,0.000
1606139197.498,-289.062,-44.434,-41.016,-823.730,0.000
1606139197.502,-258.789,-51.270,-39.551,-826.660,0.000
1606139197.506,83.008,-31.738,-30.762,242.188,0.000
1606139197.510,270.996,-17.090,-24.414,950.684,0.000
1606139197.514,59.570,-20.996,-29.297,325.684,0.000
1606139197.518,-264.160,-41.016,-42.969,-733.398,0.000
1606139197.522,-281.250,-43.945,-48.340,-887.695,0.000
1606139197.526,49.805,-26.367,-30.762,115.234,0.000
1606139197.530,278.320,-14.648,-17.578,962.891,0.000
1606139197.534,109.375,-23.438,-25.879,502.930,0.000
1606139197.538,-232.422,-38.574,-40.527,-619.141,0.000
1606139197.541,-297.363,-41.016,-40.527,-929.199,0.000
1606139197.545,3.906,-27.344,-24.414,-26.367,0.000
1606139197.549,265.137,-13.184,-17.090,905.273,0.000
1606139197.553,150.879,-16.113,-21.973,630.859,0.000
1606139197.557,-195.801,-35.645,-33.203,-502.441,0.000
1606139197.561,-309.082,-42.480,-37.598,-972.656,0.000
1606139197.565,-37.109,-30.762,-26.367,-177.734,0.000
1606139197.569,256.348,-22.461,-15.625,826.660,0.000
1606139197.573,192.383,-22.949,-20.020,734.375,0.000
1606139197.577,-156.250,-37.109,-36.133,-379.395,0.000
1606139197.580,-320.312,-44.434,-38.574,-1000.000,0.000
1606139197.584,-87.402,-32.227,-20.508,-333.008,0.000
1606139197.588,224.121,-15.137,-11.719,735.352,0.000
1606139197.592,210.449,-8.301,-19.531,812.012,0.000
1606139197.596,-126.953,-22.949,-27.344,-252.441,0.000
1606139197.600,-335.938,-42.969,-31.250,-1000.000,0.000
1606139197.604,-147.949,-39.551,-24.902,-499.023,0.000
1606139197.608,181.152,-25.391,-13.672,617.676,0.000
1606139197.612,228.027,-20.508,-14.648,872.559,0.000
1606139197.616,-81.055,-31.738,-30.273,-102.539,0.000
1606139197.620,-332.520,-45.410,-41.504,-986.816,0.000
