timestamps,TP9,AF7,AF8,TP10,Right AUX,Marker0
1606136340.480,-0.488,0.000,0.000,-0.488,0.000,0
1606136340.484,0.000,0.000,0.000,0.000,0.000,0
1606136340.488,4.395,-0.977,-0.977,12.695,0.000,0
1606136340.492,-14.160,0.977,1.465,-37.109,0.000,0
1606136340.495,60.059,-7.324,-10.254,162.109,0.000,0
1606136340.499,104.980,-19.043,-28.320,334.961,0.000,0
1606136340.503,-63.965,-23.438,-30.273,-72.266,0.000,0
1606136340.507,-179.199,-28.809,-24.414,-398.926,0.000,0
1606136340.511,-86.914,-21.973,-19.043,-220.703,0.000,0
1606136340.515,89.844,-12.695,-24.902,215.332,0.000,0
1606136340.519,112.793,-16.602,-24.902,346.680,0.000,0
1606136340.523,-44.922,-29.785,-22.949,-23.438,0.000,0
1606136340.527,-168.945,-29.785,-24.902,-372.559,0.000,0
1606136340.531,-109.863,-22.949,-25.391,-267.578,0.000,0
1606136340.535,55.176,-27.832,-26.855,168.457,0.000,0
1606136340.538,104.004,-28.809,-28.320,350.098,0.000,0
1606136340.542,-41.504,-34.668,-26.855,27.344,0.000,0
1606136340.546,-180.176,-45.898,-32.715,-359.863,0.000,0
1606136340.550,-126.465,-28.320,-33.691,-320.801,0.000,0
1606136340.554,49.805,-17.578,-20.508,117.676,0.000,0
1606136340.558,119.629,-21.484,-16.113,346.191,0.000,0
1606136340.562,-5.859,-26.855,-19.531,66.406,0.000,0
1606136340.566,-172.363,-39.062,-28.320,-351.562,0.000,0
1606136340.570,-154.785,-33.691,-35.156,-388.672,0.000,0
1606136340.574,31.738,-19.531,-26.367,40.039,0.000,0
1606136340.578,119.141,-22.949,-24.414,333.496,0.000,0
1606136340.581,8.789,-31.250,-29.785,126.465,0.000,0
1606136340.585,-150.391,-32.715,-26.367,-297.852,0.000,0
1606136340.589,-158.691,-35.645,-22.949,-394.531,0.000,0
1606136340.593,0.977,-28.320,-31.738,5.859,0.000,0
1606136340.597,107.422,-25.391,-37.598,350.098,0.000,0
1606136340.601,24.902,-34.180,-31.250,197.266,0.000,0
1606136340.605,-151.855,-40.527,-33.203,-264.160,0.000,0
1606136340.609,-187.500,-37.598,-36.621,-423.340,0.000,0
1606136340.613,-23.438,-20.508,-27.832,-59.082,0.000,0
1606136340.617,115.723,-17.090,-24.902,312.500,0.000,0
1606136340.620,62.500,-21.484,-28.809,232.910,0.000,0
1606136340.624,-119.141,-22.949,-27.832,-214.844,0.000,0
1606136340.628,-186.523,-28.320,-32.715,-422.852,0.000,0
1606136340.632,-46.387,-24.902,-29.297,-116.699,0.000,0
1606136340.636,105.957,-21.484,-21.973,288.086,0.000,0
1606136340.640,82.031,-24.902,-31.738,294.434,0.000,0
1606136340.644,-96.680,-36.621,-33.691,-139.160,0.000,0
1606136340.648,-189.453,-49.316,-35.156,-422.363,0.000,0
1606136340.652,-75.195,-37.598,-36.621,-178.711,0.000,0
1606136340.656,85.449,-20.020,-27.344,251.465,0.000,0
1606136340.660,88.867,-17.090,-22.949,321.289,0.000,0
1606136340.663,-89.844,-27.344,-28.320,-89.844,0.000,0
1606136340.667,-190.918,-37.109,-26.855,-396.973,0.000,0
1606136340.671,-94.727,-33.203,-20.996,-214.844,0.000,0
1606136340.675,70.801,-19.043,-23.438,215.332,0.000,0
1606136340.679,109.863,-12.207,-20.508,342.285,0.000,0
1606136340.683,-47.852,-23.438,-20.508,-29.785,0.000,0
1606136340.687,-187.012,-31.250,-31.738,-379.883,0.000,0
1606136340.691,-130.859,-21.973,-34.180,-272.949,0.000,0
1606136340.695,54.199,-12.695,-30.762,171.387,0.000,0
1606136340.699,107.910,-20.020,-34.180,335.449,0.000,0
1606136340.703,-40.039,-30.273,-34.180,-6.348,0.000,0
1606136340.706,-172.852,-31.250,-33.691,-369.141,0.000,0
1606136340.710,-129.883,-28.320,-36.133,-324.219,0.000,0
1606136340.714,56.152,-20.508,-31.250,111.328,0.000,0
1606136340.718,137.207,-17.578,-24.902,358.887,0.000,0
1606136340.722,10.742,-29.297,-23.438,90.332,0.000,0
1606136340.726,-142.578,-36.621,-26.855,-326.172,0.000,0
1606136340.730,-130.859,-30.273,-35.156,-367.676,0.000,0
1606136340.734,52.246,-17.578,-33.203,61.035,0.000,0
1606136340.738,152.832,-17.090,-22.461,356.934,0.000,0
1606136340.742,39.062,-20.996,-28.809,126.465,0.000,0
1606136340.745,-132.812,-28.809,-41.016,-310.059,0.000,0
1606136340.749,-143.555,-30.273,-46.387,-404.297,0.000,0
1606136340.753,28.809,-13.184,-38.574,-1.465,0.000,0
1606136340.757,135.742,-2.441,-23.926,329.102,0.000,0
1606136340.761,54.199,-9.766,-20.020,177.734,0.000,0
1606136340.765,-124.023,-32.715,-31.250,-262.207,0.000,0
1606136340.769,-165.527,-37.598,-35.156,-412.598,0.000,0
1606136340.773,9.277,-19.531,-30.762,-53.711,0.000,0
1606136340.777,139.648,-22.949,-29.297,310.547,0.000,0
1606136340.781,52.734,-34.180,-32.715,209.961,0.000,0
1606136340.785,-123.047,-34.668,-35.645,-232.910,0.000,0
1606136340.788,-177.734,-31.738,-41.504,-414.551,0.000,0
1606136340.792,-52.246,-21.484,-38.086,-109.375,0.000,0
1606136340.796,103.516,-43.945,-24.414,270.508,0.000,0
1606136340.800,77.637,-52.734,-22.949,251.953,0.000,0
1606136340.804,-104.492,-30.273,-35.645,-177.734,0.000,0
1606136340.808,-192.383,-31.738,-34.180,-421.875,0.000,0
1606136340.812,-79.102,-39.551,-28.809,-168.945,0.000,0
1606136340.816,89.844,-31.738,-33.203,249.023,0.000,0
1606136340.820,83.008,-30.273,-35.156,311.035,0.000,0
1606136340.824,-116.211,-42.480,-38.574,-110.840,0.000,0
1606136340.828,-228.027,-41.504,-40.527,-420.898,0.000,0
1606136340.831,-120.117,-37.109,-36.621,-226.074,0.000,0
1606136340.835,57.617,-30.762,-29.297,211.426,0.000,0
1606136340.839,83.984,-22.949,-25.391,331.543,0.000,0
1606136340.843,-69.824,-29.297,-30.762,-40.527,0.000,0
1606136340.847,-192.383,-32.715,-36.621,-379.395,0.000,0
1606136340.851,-114.746,-34.180,-30.273,-263.184,0.000,0
1606136340.855,67.871,-33.203,-16.602,174.805,0.000,0
1606136340.859,111.328,-23.926,-22.949,345.703,0.000,0
1606136340.863,-29.297,-27.344,-36.621,15.137,0.000,0
1606136340.867,-167.480,-37.598,-34.668,-354.492,0.000,0
1606136340.870,-134.766,-34.668,-30.762,-309.082,0.000,0
1606136340.874,33.691,-24.902,-32.227,117.676,0.000,0
1606136340.878,104.492,-20.996,-27.344,353.027,0.000,0
1606136340.882,-24.902,-30.762,-36.621,67.871,0.000,0
1606136340.886,-182.617,-39.551,-41.016,-346.191,0.000,0
1606136340.890,-162.109,-26.855,-29.785,-354.492,0.000,0
1606136340.894,25.391,-14.160,-20.996,84.473,0.000,0
1606136340.898,103.516,-19.043,-11.719,351.074,0.000,0
1606136340.902,-24.414,-36.621,-9.766,124.023,0.000,0
1606136340.906,-187.500,-14.648,-20.020,-291.504,0.000,0
1606136340.910,-202.148,-0.977,-21.973,-391.113,0.000,0
1606136340.913,-41.992,-34.668,-8.789,-2.930,0.000,0
1606136340.917,68.848,-34.668,-10.254,315.918,0.000,0
1606136340.921,-9.766,-37.109,-18.066,163.086,0.000,0
1606136340.925,-174.805,-28.809,-17.578,-266.113,0.000,0
1606136340.929,-211.914,-30.762,-21.973,-417.480,0.000,0
1606136340.933,-55.176,-43.945,-20.996,-54.199,0.000,0
1606136340.937,86.914,-26.855,-14.160,311.035,0.000,0
1606136340.941,36.133,-29.297,-16.113,226.562,0.000,0
1606136340.945,-150.879,-46.875,-26.855,-220.215,0.000,0
1606136340.949,-216.309,-43.945,-30.273,-425.781,0.000,0
1606136340.953,-72.266,-26.367,-24.902,-116.699,0.000,0
1606136340.956,76.660,-20.508,-22.949,275.879,0.000,0
1606136340.960,43.457,-33.203,-19.043,256.348,0.000,0
1606136340.964,-135.254,-37.598,-19.531,-183.594,0.000,0
1606136340.968,-214.355,-29.785,-27.344,-427.734,0.000,0
1606136340.972,-93.262,-28.809,-28.809,-166.992,0.000,0
1606136340.976,72.266,-23.926,-25.391,247.559,0.000,0
1606136340.980,81.543,-24.902,-18.555,291.992,0.000,0
1606136340.984,-92.773,-33.203,-27.344,-128.906,0.000,0
1606136340.988,-204.102,-11.230,-39.062,-430.176,0.000,0
1606136340.992,-107.422,-15.137,-23.926,-230.957,0.000,0
1606136340.995,66.895,-33.203,-13.184,216.309,0.000,0
1606136340.999,85.449,-28.809,-13.672,321.777,0.000,0
1606136341.003,-71.777,-36.133,-13.672,-60.547,0.000,0
1606136341.007,-186.523,-49.805,-16.113,-387.207,0.000,0
1606136341.011,-114.746,-50.293,-19.531,-261.230,0.000,0
1606136341.015,69.824,-47.363,-19.043,191.895,0.000,0
1606136341.019,123.535,-51.758,-10.254,367.676,0.000,0
1606136341.023,-24.902,-46.875,-20.508,21.973,0.000,0
1606136341.027,-164.551,-35.645,-36.133,-355.469,0.000,0
1606136341.031,-117.188,-39.551,-33.203,-302.734,0.000,0
1606136341.035,57.129,-39.551,-26.367,144.531,0.000,0
1606136341.038,117.676,-33.691,-25.391,369.141,0.000,0
1606136341.042,-9.766,-37.598,-27.832,83.496,0.000,0
1606136341.046,-162.598,-48.340,-27.344,-319.824,0.000,0
1606136341.050,-145.996,-45.410,-20.996,-336.914,0.000,0
1606136341.054,31.250,-31.738,-14.648,93.262,0.000,0
1606136341.058,115.234,-29.297,-14.160,356.934,0.000,0
1606136341.062,-1.953,-42.969,-17.090,136.719,0.000,0
1606136341.066,-154.785,-19.531,-19.043,-257.324,0.000,0
1606136341.070,-159.180,-2.441,-20.996,-354.492,0.000,0
1606136341.074,6.348,-28.809,-20.508,28.809,0.000,0
1606136341.078,124.023,-27.832,-12.695,355.469,0.000,0
1606136341.081,36.133,-33.203,-16.602,194.824,0.000,0
1606136341.085,-134.277,-52.734,-27.344,-242.676,0.000,0
1606136341.089,-157.715,-51.270,-26.855,-385.742,0.000,0
1606136341.093,-1.953,-36.133,-20.020,-34.668,0.000,0
1606136341.097,123.535,-27.344,-18.066,312.012,0.000,0
1606136341.101,64.941,-30.273,-25.391,227.051,0.000,0
1606136341.105,-107.422,-40.527,-31.250,-216.309,0.000,0
1606136341.109,-158.203,-31.738,-28.809,-416.992,0.000,0
1606136341.113,-21.484,-21.484,-26.855,-92.773,0.000,0
1606136341.117,114.746,-17.090,-26.855,286.133,0.000,0
1606136341.120,83.984,-23.438,-22.949,254.395,0.000,0
1606136341.124,-92.773,-19.043,-34.668,-179.688,0.000,0
1606136341.128,-176.758,-10.254,-44.434,-434.082,0.000,0
1606136341.132,-55.176,-27.344,-38.086,-170.898,0.000,0
1606136341.136,97.168,-27.832,-31.738,253.418,0.000,0
1606136341.140,91.797,-23.438,-30.762,298.340,0.000,0
1606136341.144,-76.172,-27.344,-28.809,-126.465,0.000,0
1606136341.148,-179.688,-34.668,-28.320,-422.363,0.000,0
1606136341.152,-87.891,-42.480,-33.691,-225.098,0.000,0
1606136341.156,91.309,-32.227,-30.762,208.008,0.000,0
1606136341.160,111.328,-19.043,-20.996,327.637,0.000,0
1606136341.163,-66.895,-20.996,-28.320,-61.523,0.000,0
1606136341.167,-181.152,0.977,-38.086,-401.855,0.000,0
1606136341.171,-113.770,-5.859,-31.250,-273.926,0.000,0
1606136341.175,62.012,-29.785,-25.879,179.199,0.000,0
1606136341.179,108.398,-27.832,-28.809,354.492,0.000,0
1606136341.183,-36.133,-24.414,-22.461,6.348,0.000,0
1606136341.187,-166.992,-28.320,-21.973,-365.234,0.000,0
1606136341.191,-122.070,-33.691,-38.086,-306.641,0.000,0
1606136341.195,63.477,-21.973,-28.809,139.648,0.000,0
1606136341.199,136.230,-18.066,-20.020,367.188,0.000,0
1606136341.203,2.441,-29.785,-30.762,81.543,0.000,0
1606136341.206,-143.066,-23.438,-35.156,-320.801,0.000,0
1606136341.210,-116.699,-25.879,-36.621,-332.031,0.000,0
1606136341.214,55.664,-31.738,-30.762,100.586,0.000,0
1606136341.218,148.438,-18.555,-22.461,368.164,0.000,0
1606136341.222,42.480,-15.137,-22.461,132.324,0.000,0
1606136341.226,-125.000,-24.414,-27.344,-288.574,0.000,0
1606136341.230,-134.277,-26.367,-27.344,-364.746,0.000,0
1606136341.234,26.855,-25.879,-22.461,37.598,0.000,0
1606136341.238,132.812,-20.508,-18.066,355.957,0.000,0
1606136341.242,50.293,-9.277,-16.602,189.941,0.000,0
1606136341.245,-124.512,-17.578,-24.902,-247.559,0.000,0
1606136341.249,-162.598,-29.785,-29.297,-380.371,0.000,0
1606136341.253,-1.465,-26.367,-23.926,-8.301,0.000,0
1606136341.257,123.535,-20.508,-26.855,340.332,0.000,0
1606136341.261,49.316,-32.227,-33.203,233.398,0.000,0
1606136341.265,-125.000,-38.086,-31.250,-213.867,0.000,0
1606136341.269,-177.246,-33.203,-36.621,-409.180,0.000,0
1606136341.273,-39.062,-31.250,-35.645,-91.309,0.000,0
1606136341.277,102.051,-26.855,-31.738,291.504,0.000,0
1606136341.281,69.336,-29.785,-33.203,260.742,0.000,0
1606136341.285,-103.516,-39.062,-28.320,-164.551,0.000,0
1606136341.288,-187.012,-49.316,-37.109,-413.086,0.000,0
1606136341.292,-64.453,-43.945,-40.039,-156.250,0.000,0
1606136341.296,88.379,-25.879,-28.320,259.766,0.000,0
1606136341.300,75.195,-23.438,-20.020,302.246,0.000,0
1606136341.304,-94.727,-20.020,-29.297,-126.953,0.000,0
1606136341.308,-189.453,-19.531,-41.504,-423.828,0.000,0
1606136341.312,-83.008,-28.320,-38.086,-221.680,0.000,0
1606136341.316,87.891,-17.090,-24.902,225.586,0.000,0
1606136341.320,104.004,-15.137,-23.438,336.426,0.000,0
1606136341.324,-64.941,-26.855,-33.203,-66.895,0.000,0
1606136341.328,-181.641,-40.039,-32.227,-404.297,0.000,0
1606136341.331,-104.980,-33.203,-28.809,-270.996,0.000,0
1606136341.335,68.848,-19.043,-27.832,181.641,0.000,0
1606136341.339,107.910,-22.949,-27.832,353.516,0.000,0
1606136341.343,-44.434,-25.879,-30.273,5.859,0.000,0
1606136341.347,-175.293,-26.367,-30.762,-356.934,0.000,0
1606136341.351,-129.883,-33.691,-29.785,-296.387,0.000,0
1606136341.355,44.922,-32.227,-15.137,145.020,0.000,0
1606136341.359,117.188,-26.367,-3.418,371.582,0.000,0
1606136341.363,-8.789,-29.297,-13.184,74.707,0.000,0
1606136341.367,-159.180,-33.203,-23.926,-337.891,0.000,0
1606136341.370,-147.949,-39.062,-24.902,-352.051,0.000,0
1606136341.374,23.438,-32.715,-19.531,89.355,0.000,0
1606136341.378,114.746,-19.531,-24.414,364.258,0.000,0
1606136341.382,4.883,-26.855,-26.367,131.348,0.000,0
1606136341.386,-156.738,-39.062,-26.855,-303.711,0.000,0
1606136341.390,-155.762,-35.156,-29.785,-369.629,0.000,0
1606136341.394,11.719,-25.879,-33.203,42.969,0.000,0
1606136341.398,116.211,-20.996,-28.809,339.355,0.000,0
1606136341.402,28.809,-22.949,-24.902,166.992,0.000,0
1606136341.406,-140.625,-33.691,-29.297,-271.973,0.000,0
1606136341.410,-154.297,-25.879,-27.344,-389.648,0.000,0
1606136341.413,5.859,-14.648,-19.043,-10.742,0.000,0
1606136341.417,128.906,-11.719,-18.555,336.914,0.000,0
1606136341.421,62.988,-12.207,-25.879,233.398,0.000,0
1606136341.425,-121.094,-29.785,-28.320,-208.496,0.000,0
1606136341.429,-176.270,-41.992,-41.016,-403.809,0.000,0
1606136341.433,-35.156,-31.250,-38.574,-90.332,0.000,0
1606136341.437,109.375,-16.113,-20.020,303.711,0.000,0
1606136341.441,74.707,-14.648,-19.043,276.367,0.000,0
1606136341.445,-104.980,-30.762,-33.691,-166.504,0.000,0
1606136341.449,-187.988,-42.480,-43.945,-419.922,0.000,0
1606136341.453,-70.312,-31.250,-38.086,-163.574,0.000,0
1606136341.456,82.520,-22.949,-25.391,241.699,0.000,0
1606136341.460,68.359,-23.438,-22.949,272.949,0.000,0
1606136341.464,-104.004,-30.762,-33.203,-144.043,0.000,0
1606136341.468,-194.824,-38.574,-41.504,-422.852,0.000,0
1606136341.472,-85.449,-34.668,-39.551,-210.449,0.000,0
1606136341.476,82.520,-19.043,-30.273,212.402,0.000,0
1606136341.480,95.703,-19.531,-28.320,310.547,0.000,0
1606136341.484,-73.242,-31.250,-34.180,-69.824,0.000,0
1606136341.488,-194.824,-38.086,-30.273,-398.438,0.000,0
1606136341.492,-120.605,-35.645,-30.762,-271.973,0.000,0
1606136341.495,65.918,-21.484,-30.273,171.387,0.000,0
1606136341.499,111.816,-22.949,-31.250,333.008,0.000,0
1606136341.503,-48.340,-28.320,-41.504,-23.926,0.000,0
1606136341.507,-181.641,-32.715,-46.387,-393.066,0.000,0
1606136341.511,-130.371,-36.621,-32.715,-314.941,0.000,0
1606136341.515,45.410,-24.902,-16.602,129.395,0.000,0
1606136341.519,118.652,-15.137,-27.832,348.633,0.000,0
1606136341.523,-17.578,-24.902,-33.691,52.246,0.000,0
1606136341.527,-168.457,-37.598,-32.715,-346.191,0.000,0
1606136341.531,-143.066,-45.410,-35.645,-344.727,0.000,0
1606136341.535,40.527,-38.574,-35.645,98.145,0.000,0
1606136341.538,136.719,-22.461,-34.180,374.512,0.000,0
1606136341.542,20.508,-26.367,-25.879,127.930,0.000,0
1606136341.546,-143.066,-34.668,-21.973,-300.293,0.000,0
1606136341.550,-143.066,-35.156,-17.578,-352.539,0.000,0
1606136341.554,23.438,-28.809,-15.137,67.871,0.000,0
1606136341.558,127.930,-16.602,-20.508,376.465,0.000,0
1606136341.562,38.574,-16.113,-20.508,195.801,0.000,0
1606136341.566,-130.371,-27.344,-20.020,-246.094,0.000,0
1606136341.570,-168.945,-33.691,-16.602,-380.859,0.000,0
1606136341.574,-7.324,-22.949,-14.160,0.488,0.000,0
1606136341.578,125.977,-15.625,-24.414,347.656,0.000,0
1606136341.581,56.152,-20.996,-17.090,229.980,0.000,0
1606136341.585,-120.117,-29.297,-15.625,-215.820,0.000,0
1606136341.589,-166.016,-29.785,-29.297,-401.855,0.000,0
1606136341.593,-17.090,-21.484,-27.344,-64.941,0.000,0
1606136341.597,107.910,-20.020,-15.625,306.152,0.000,0
1606136341.601,45.898,-28.809,-20.020,243.164,0.000,0
1606136341.605,-129.883,-36.133,-21.973,-187.988,0.000,0
1606136341.609,-200.195,-44.434,-20.020,-410.645,0.000,0
1606136341.613,-73.242,-37.109,-20.020,-140.625,0.000,0
1606136341.617,90.820,-21.973,-10.254,258.301,0.000,0
1606136341.620,78.125,-25.879,-16.602,275.879,0.000,0
1606136341.624,-93.750,-33.691,-24.414,-129.883,0.000,0
1606136341.628,-182.129,-29.297,-20.508,-397.461,0.000,0
1606136341.632,-81.055,-22.461,-28.320,-206.055,0.000,0
1606136341.636,75.684,-21.484,-30.762,206.543,0.000,0
1606136341.640,88.867,-22.461,-17.578,301.758,0.000,0
1606136341.644,-73.730,-30.273,-19.531,-79.590,0.000,0
1606136341.648,-190.430,-35.645,-30.273,-396.973,0.000,0
1606136341.652,-109.375,-32.715,-30.762,-257.812,0.000,0
1606136341.656,66.406,-22.461,-26.367,172.852,0.000,0
1606136341.660,105.957,-17.578,-18.555,328.125,0.000,0
1606136341.663,-45.410,-31.250,-21.973,-20.996,0.000,0
1606136341.667,-187.500,-43.945,-33.691,-379.395,0.000,0
1606136341.671,-141.113,-40.527,-23.926,-296.875,0.000,0
1606136341.675,38.574,-32.715,-10.742,141.602,0.000,0
1606136341.679,100.586,-20.996,-16.602,336.914,0.000,0
1606136341.683,-34.180,-24.414,-20.020,32.715,0.000,0
1606136341.687,-180.176,-47.363,-28.809,-363.770,0.000,0
1606136341.691,-148.438,-46.875,-32.715,-359.375,0.000,0
1606136341.695,34.180,-23.926,-20.020,93.750,0.000,0
1606136341.699,123.535,-14.648,-13.672,366.211,0.000,0
1606136341.703,5.371,-26.855,-20.020,112.793,0.000,0
1606136341.706,-158.203,-31.250,-17.578,-301.758,0.000,0
1606136341.710,-156.250,-35.645,-25.391,-365.723,0.000,0
1606136341.714,12.207,-28.320,-33.691,32.227,0.000,0
1606136341.718,126.465,-17.090,-24.414,339.844,0.000,0
1606136341.722,41.016,-16.113,-21.973,177.734,0.000,0
1606136341.726,-132.812,-33.691,-27.344,-246.582,0.000,0
1606136341.730,-166.016,-46.875,-41.016,-387.695,0.000,0
1606136341.734,-7.324,-31.738,-37.109,-22.949,0.000,0
1606136341.738,123.535,-13.672,-17.578,334.473,0.000,0
1606136341.742,52.246,-18.066,-18.555,226.074,0.000,0
1606136341.745,-130.859,-29.297,-24.414,-221.680,0.000,0
1606136341.749,-185.547,-30.273,-34.668,-415.039,0.000,0
1606136341.753,-45.410,-24.414,-42.969,-87.402,0.000,0
1606136341.757,100.586,-10.254,-28.809,298.828,0.000,0
1606136341.761,60.059,-11.719,-16.602,257.324,0.000,0
1606136341.765,-121.094,-25.879,-23.438,-184.570,0.000,0
1606136341.769,-190.918,-32.715,-29.297,-407.227,0.000,0
1606136341.773,-60.059,-24.414,-24.414,-128.906,0.000,0
1606136341.777,100.586,-8.789,-15.625,277.832,0.000,0
1606136341.781,89.355,-4.883,-15.625,303.711,0.000,0
1606136341.785,-86.426,-23.438,-21.484,-118.164,0.000,0
1606136341.788,-180.664,-37.598,-28.320,-403.320,0.000,0
1606136341.792,-65.430,-29.297,-26.367,-193.359,0.000,0
1606136341.796,110.352,-12.695,-19.531,230.957,0.000,0
1606136341.800,121.582,-17.578,-21.484,326.172,0.000,0
1606136341.804,-56.152,-31.738,-26.367,-66.895,0.000,0
1606136341.808,-177.734,-32.227,-38.086,-398.438,0.000,0
1606136341.812,-92.773,-25.391,-35.645,-248.535,0.000,0
1606136341.816,80.566,-9.277,-23.926,193.359,0.000,0
1606136341.820,106.445,-7.812,-24.414,337.402,0.000,0
1606136341.824,-54.199,-32.715,-25.879,-30.273,0.000,0
1606136341.828,-188.965,-51.758,-32.715,-388.672,0.000,0
1606136341.831,-133.301,-36.621,-30.273,-308.105,0.000,0
1606136341.835,44.922,-12.695,-25.391,130.371,0.000,0
1606136341.839,103.027,-11.719,-20.508,326.660,0.000,0
1606136341.843,-29.785,-23.438,-17.578,19.043,0.000,0
1606136341.847,-174.316,-26.855,-33.203,-367.676,0.000,0
1606136341.851,-147.461,-22.461,-28.320,-365.723,0.000,0
1606136341.855,28.809,-15.625,-13.672,68.848,0.000,0
1606136341.859,116.699,-5.859,-23.926,342.285,0.000,0
1606136341.863,12.207,-10.254,-26.855,101.562,0.000,0
1606136341.867,-157.227,-36.621,-33.203,-339.844,0.000,0
1606136341.870,-168.457,-35.156,-41.016,-405.762,0.000,0
1606136341.874,12.695,-15.137,-25.391,28.809,0.000,0
1606136341.878,119.629,-8.301,-20.020,337.891,0.000,0
1606136341.882,27.344,-8.789,-31.250,139.160,0.000,0
1606136341.886,-140.137,-21.484,-34.180,-301.270,0.000,0
1606136341.890,-172.852,-20.020,-20.508,-408.691,0.000,0
1606136341.894,-8.789,-8.789,-13.184,-11.230,0.000,0
1606136341.898,125.000,-9.277,-20.996,331.055,0.000,0
1606136341.902,69.824,-17.090,-19.531,214.355,0.000,0
1606136341.906,-118.164,-24.902,-25.879,-225.098,0.000,0
1606136341.910,-187.500,-26.367,-37.598,-403.320,0.000,0
1606136341.913,-39.062,-25.391,-25.391,-61.523,0.000,0
1606136341.917,112.793,-20.020,-10.254,329.102,0.000,0
1606136341.921,76.172,-16.113,-10.254,274.414,0.000,0
1606136341.925,-107.910,-16.113,-20.020,-182.617,0.000,0
1606136341.929,-179.688,-13.672,-29.297,-420.898,0.000,0
1606136341.933,-42.480,-15.137,-30.762,-138.672,0.000,0
1606136341.937,94.727,-15.625,-36.133,253.418,0.000,0
1606136341.941,75.684,-13.184,-30.273,294.922,0.000,0
1606136341.945,-79.102,-22.461,-23.926,-115.723,0.000,0
1606136341.949,-181.152,-30.762,-29.785,-414.551,0.000,0
1606136341.953,-77.148,-24.414,-24.414,-190.430,0.000,0
1606136341.956,91.309,-21.484,-22.949,236.328,0.000,0
1606136341.960,98.145,-21.484,-27.344,315.918,0.000,0
1606136341.964,-75.195,-31.250,-31.250,-75.195,0.000,0
1606136341.968,-199.707,-45.410,-36.621,-413.086,0.000,0
1606136341.972,-107.910,-36.621,-23.438,-268.555,0.000,0
1606136341.976,74.219,-20.996,-16.602,188.965,0.000,0
1606136341.980,91.309,-23.926,-27.344,331.543,0.000,0
1606136341.984,-68.359,-35.645,-38.086,-49.316,0.000,0
1606136341.988,-188.965,-41.016,-43.945,-397.949,0.000,0
1606136341.992,-128.906,-40.527,-37.109,-308.594,0.000,0
1606136341.995,47.363,-31.250,-26.855,115.723,0.000,0
1606136341.999,104.492,-20.508,-35.645,325.684,0.000,0
1606136342.003,-33.203,-17.578,-44.434,31.250,0.000,0
1606136342.007,-173.340,-17.578,-42.969,-359.863,0.000,0
1606136342.011,-134.766,-24.902,-43.457,-349.609,0.000,0
1606136342.015,39.551,-25.391,-34.180,69.824,0.000,0
1606136342.019,118.652,-10.742,-21.484,332.031,0.000,0
1606136342.023,1.953,-15.137,-28.320,96.191,0.000,0
1606136342.027,-163.574,-29.785,-41.016,-326.660,0.000,0
1606136342.031,-166.016,-34.180,-41.504,-378.418,0.000,0
1606136342.035,9.766,-26.855,-36.621,38.086,0.000,0
1606136342.038,128.418,-25.879,-33.691,336.914,0.000,0
1606136342.042,34.180,-28.320,-27.344,157.715,0.000,0
1606136342.046,-136.230,-32.227,-29.297,-262.207,0.000,0
1606136342.050,-154.297,-37.598,-32.715,-379.883,0.000,0
1606136342.054,12.207,-32.227,-20.996,-12.207,0.000,0
1606136342.058,144.043,-26.855,-14.160,320.312,0.000,0
1606136342.062,65.430,-28.809,-20.020,207.031,0.000,0
1606136342.066,-122.070,-31.738,-27.344,-229.980,0.000,0
1606136342.070,-161.133,-28.809,-31.250,-411.133,0.000,0
1606136342.074,-15.137,-22.949,-32.227,-67.871,0.000,0
1606136342.078,123.047,-16.602,-21.973,312.988,0.000,0
1606136342.081,81.055,-21.484,-20.996,266.113,0.000,0
1606136342.085,-96.191,-31.738,-26.855,-177.734,0.000,0
1606136342.089,-166.504,-34.180,-25.391,-402.832,0.000,0
1606136342.093,-51.270,-25.879,-30.762,-123.047,0.000,0
1606136342.097,107.910,-4.883,-23.926,296.875,0.000,0
1606136342.101,97.656,-3.906,-19.043,317.871,0.000,0
1606136342.105,-88.379,-30.762,-24.902,-130.859,0.000,0
1606136342.109,-184.082,-45.898,-28.809,-405.762,0.000,0
1606136342.113,-80.078,-34.668,-31.250,-183.105,0.000,0
1606136342.117,82.031,-15.137,-28.320,232.910,0.000,0
1606136342.120,93.262,-9.766,-23.926,316.895,0.000,0
1606136342.124,-78.613,-19.043,-33.691,-83.008,0.000,0
1606136342.128,-190.918,-25.879,-38.086,-397.461,0.000,0
1606136342.132,-104.492,-24.902,-23.438,-238.281,0.000,0
1606136342.136,64.941,-20.996,-21.973,196.777,0.000,0
1606136342.140,103.516,-15.137,-29.297,342.773,0.000,0
1606136342.144,-44.434,-20.508,-31.738,-15.137,0.000,0
1606136342.148,-183.105,-36.133,-31.250,-374.023,0.000,0
1606136342.152,-128.906,-32.227,-27.832,-294.434,0.000,0
1606136342.156,34.668,-19.531,-31.738,127.441,0.000,0
1606136342.160,91.797,-12.695,-33.691,325.195,0.000,0
1606136342.163,-32.715,-22.949,-38.574,23.926,0.000,0
1606136342.167,-185.547,-30.273,-44.922,-362.793,0.000,0
1606136342.171,-155.762,-28.320,-36.133,-333.984,0.000,0
1606136342.175,28.809,-24.414,-22.949,109.375,0.000,0
1606136342.179,111.816,-28.320,-18.066,356.934,0.000,0
1606136342.183,-5.371,-27.832,-25.879,108.887,0.000,0
1606136342.187,-162.109,-24.902,-33.691,-304.688,0.000,0
1606136342.191,-150.391,-22.461,-26.855,-344.727,0.000,0
1606136342.195,10.742,-17.578,-23.438,62.012,0.000,0
1606136342.199,96.680,-24.414,-31.250,324.707,0.000,0
1606136342.203,1.953,-36.621,-30.762,134.277,0.000,0
1606136342.206,-174.805,-46.387,-30.762,-290.039,0.000,0
1606136342.210,-191.406,-38.086,-29.297,-397.461,0.000,0
1606136342.214,-17.090,-27.344,-30.273,-8.301,0.000,0
1606136342.218,103.516,-28.809,-28.320,324.219,0.000,0
1606136342.222,38.086,-26.367,-24.414,202.148,0.000,0
1606136342.226,-132.324,-34.668,-21.973,-225.098,0.000,0
1606136342.230,-181.152,-42.480,-16.602,-391.113,0.000,0
1606136342.234,-35.645,-26.855,-14.160,-50.293,0.000,0
1606136342.238,109.375,-16.602,-9.766,328.613,0.000,0
1606136342.242,68.848,-19.043,-1.953,256.348,0.000,0
1606136342.245,-120.117,-35.156,-20.020,-206.055,0.000,0
1606136342.249,-195.312,-42.969,-44.434,-435.547,0.000,0
1606136342.253,-60.547,-39.062,-37.598,-136.230,0.000,0
1606136342.257,98.145,-32.227,-18.066,281.250,0.000,0
1606136342.261,78.125,-26.367,-13.184,292.969,0.000,0
1606136342.265,-97.656,-41.504,-19.043,-143.555,0.000,0
1606136342.269,-183.594,-41.016,-12.695,-410.645,0.000,0
1606136342.273,-67.871,-22.461,-13.184,-184.082,0.000,0
1606136342.277,96.191,-15.625,-15.625,235.352,0.000,0
1606136342.281,99.121,-15.137,-19.043,319.336,0.000,0
1606136342.285,-74.707,-24.902,-24.902,-71.777,0.000,0
1606136342.288,-187.500,-40.527,-25.879,-394.043,0.000,0
1606136342.292,-102.051,-41.504,-18.555,-247.559,0.000,0
1606136342.296,66.895,-25.391,-5.371,198.242,0.000,0
1606136342.300,102.051,-18.555,4.883,345.703,0.000,0
1606136342.304,-44.434,-31.738,-7.812,-21.484,0.000,0
1606136342.308,-186.035,-38.086,-33.691,-390.625,0.000,0
1606136342.312,-145.020,-36.621,-28.320,-299.805,0.000,0
1606136342.316,36.133,-27.344,-9.277,160.645,0.000,0
1606136342.320,104.492,-23.438,-1.465,367.676,0.000,0
1606136342.324,-33.691,-36.621,-7.324,45.410,0.000,0
1606136342.328,-180.176,-41.992,-15.625,-347.168,0.000,0
1606136342.331,-146.973,-39.551,-20.996,-327.148,0.000,0
1606136342.335,30.273,-31.250,-20.996,104.492,0.000,0
1606136342.339,114.258,-30.273,-16.113,350.098,0.000,0
1606136342.343,0.488,-38.086,-11.719,90.332,0.000,0
1606136342.347,-154.785,-33.203,-21.973,-311.523,0.000,0
1606136342.351,-155.273,-32.227,-29.785,-354.492,0.000,0
1606136342.355,18.555,-30.273,-26.855,54.199,0.000,0
1606136342.359,128.906,-16.113,-21.973,340.820,0.000,0
1606136342.363,26.367,-16.113,-22.949,147.949,0.000,0
1606136342.367,-149.902,-31.250,-32.227,-268.066,0.000,0
1606136342.370,-154.785,-31.738,-36.133,-383.301,0.000,0
1606136342.374,11.230,-21.484,-30.762,-8.301,0.000,0
1606136342.378,124.023,-10.254,-17.090,329.590,0.000,0
1606136342.382,52.734,-15.137,-20.996,201.172,0.000,0
1606136342.386,-116.211,-40.039,-26.855,-234.375,0.000,0
1606136342.390,-157.715,-40.527,-21.484,-403.320,0.000,0
1606136342.394,-14.648,-26.367,-22.461,-70.801,0.000,0
1606136342.398,116.699,-22.461,-31.250,294.434,0.000,0
1606136342.402,66.406,-24.902,-35.645,235.352,0.000,0
1606136342.406,-107.910,-35.645,-28.320,-199.707,0.000,0
1606136342.410,-163.086,-30.273,-30.273,-413.086,0.000,0
1606136342.413,-29.785,-20.020,-36.133,-120.605,0.000,0
1606136342.417,113.281,-17.578,-24.414,274.414,0.000,0
1606136342.421,91.309,-20.508,-18.555,286.621,0.000,0
1606136342.425,-77.637,-25.391,-27.832,-129.395,0.000,0
1606136342.429,-175.293,-27.832,-31.738,-415.527,0.000,0
1606136342.433,-72.266,-22.949,-24.902,-184.570,0.000,0
1606136342.437,88.867,-15.625,-25.879,235.352,0.000,0
1606136342.441,85.449,-23.438,-26.367,295.898,0.000,0
1606136342.445,-82.520,-32.715,-22.461,-99.609,0.000,0
1606136342.449,-190.430,-41.016,-25.879,-414.062,0.000,0
1606136342.453,-103.027,-41.504,-20.020,-241.699,0.000,0
1606136342.456,79.102,-31.738,-10.742,210.938,0.000,0
1606136342.460,110.840,-26.855,-24.414,327.148,0.000,0
1606136342.464,-59.082,-34.668,-32.227,-49.805,0.000,0
1606136342.468,-189.941,-43.945,-30.273,-396.484,0.000,0
1606136342.472,-127.930,-33.203,-30.762,-293.457,0.000,0
1606136342.476,50.293,-21.484,-23.438,158.203,0.000,0
1606136342.480,108.887,-20.020,-12.207,349.121,0.000,0
1606136342.484,-30.273,-23.926,-7.324,30.273,0.000,0
1606136342.488,-180.664,-27.344,-23.926,-361.328,0.000,0
1606136342.492,-152.344,-28.320,-41.992,-333.984,0.000,0
1606136342.495,27.344,-26.855,-38.574,106.445,0.000,0
1606136342.499,105.469,-32.227,-34.180,341.797,0.000,0
1606136342.503,-9.766,-34.668,-29.785,89.355,0.000,0
1606136342.507,-156.738,-32.227,-40.039,-327.148,0.000,0
1606136342.511,-145.996,-37.598,-42.969,-368.164,0.000,0
1606136342.515,26.367,-33.203,-36.133,60.547,0.000,0
1606136342.519,131.348,-21.484,-38.574,346.191,0.000,0
1606136342.523,31.738,-26.855,-37.598,141.602,0.000,0
1606136342.527,-131.836,-38.086,-35.156,-287.109,0.000,0
1606136342.531,-146.973,-42.969,-37.109,-388.672,0.000,0
1606136342.535,3.418,-33.203,-38.574,-7.812,0.000,0
1606136342.538,120.605,-21.973,-34.180,325.684,0.000,0
1606136342.542,51.758,-30.762,-26.855,203.125,0.000,0
1606136342.546,-127.441,-38.086,-31.250,-235.840,0.000,0
1606136342.550,-167.480,-31.738,-28.320,-385.742,0.000,0
1606136342.554,-19.043,-31.250,-25.879,-47.363,0.000,0
1606136342.558,105.469,-31.738,-33.691,303.223,0.000,0
1606136342.562,55.664,-28.809,-34.668,249.023,0.000,0
1606136342.566,-113.281,-26.855,-38.574,-180.664,0.000,0
1606136342.570,-167.480,-24.414,-35.645,-404.785,0.000,0
1606136342.574,-46.387,-31.738,-21.484,-123.535,0.000,0
1606136342.578,83.496,-35.156,-10.254,269.043,0.000,0
1606136342.581,70.312,-36.621,-10.254,286.133,0.000,0
1606136342.585,-100.586,-39.551,-19.043,-131.836,0.000,0
1606136342.589,-192.871,-38.086,-24.414,-409.180,0.000,0
1606136342.593,-77.637,-28.809,-28.809,-195.312,0.000,0
1606136342.597,83.496,-25.391,-27.832,226.074,0.000,0
1606136342.601,80.078,-37.109,-21.973,302.246,0.000,0
1606136342.605,-84.473,-39.551,-24.902,-103.027,0.000,0
1606136342.609,-183.105,-39.062,-33.203,-406.250,0.000,0
1606136342.613,-87.402,-40.527,-28.320,-232.910,0.000,0
1606136342.617,83.496,-30.273,-17.578,201.660,0.000,0
1606136342.620,116.699,-26.855,-9.277,347.168,0.000,0
1606136342.624,-44.922,-38.574,-27.344,-23.438,0.000,0
1606136342.628,-182.129,-42.969,-47.363,-396.484,0.000,0
1606136342.632,-112.305,-38.574,-38.086,-305.176,0.000,0
1606136342.636,63.965,-36.133,-30.762,140.137,0.000,0
1606136342.640,117.676,-33.203,-26.367,343.262,0.000,0
1606136342.644,-20.020,-24.902,-20.996,36.133,0.000,0
1606136342.648,-161.133,-30.762,-32.227,-351.562,0.000,0
1606136342.652,-119.629,-30.273,-34.668,-325.684,0.000,0
1606136342.656,53.711,-20.996,-21.973,108.398,0.000,0
1606136342.660,117.188,-19.531,-25.879,351.562,0.000,0
1606136342.663,-9.766,-19.043,-35.645,80.566,0.000,0
1606136342.667,-169.922,-22.949,-40.039,-336.914,0.000,0
1606136342.671,-164.062,-31.738,-39.062,-375.977,0.000,0
1606136342.675,5.859,-34.180,-36.133,40.527,0.000,0
1606136342.679,106.445,-27.344,-33.691,339.844,0.000,0
1606136342.683,17.578,-28.809,-34.180,136.230,0.000,0
1606136342.687,-151.367,-36.621,-41.016,-292.969,0.000,0
1606136342.691,-174.316,-35.156,-46.875,-389.160,0.000,0
1606136342.695,-4.395,-20.020,-44.922,-4.395,0.000,0
1606136342.699,112.305,-10.254,-31.250,325.195,0.000,0
1606136342.703,41.016,-20.020,-24.902,209.473,0.000,0
1606136342.706,-126.465,-36.133,-33.203,-223.145,0.000,0
1606136342.710,-172.363,-37.109,-32.715,-402.344,0.000,0
1606136342.714,-25.391,-23.438,-26.855,-59.082,0.000,0
1606136342.718,115.234,-7.812,-23.926,307.129,0.000,0
1606136342.722,75.684,-7.324,-27.832,243.652,0.000,0
1606136342.726,-94.727,-20.020,-33.203,-182.617,0.000,0
1606136342.730,-160.645,-18.555,-32.227,-400.391,0.000,0
1606136342.734,-29.297,-6.836,-27.344,-117.676,0.000,0
1606136342.738,119.141,-3.418,-21.973,279.785,0.000,0
1606136342.742,95.703,-5.859,-21.484,293.457,0.000,0
1606136342.745,-68.848,-13.672,-21.973,-130.371,0.000,0
1606136342.749,-159.668,-24.414,-15.625,-391.113,0.000,0
1606136342.753,-56.152,-23.926,-15.137,-147.461,0.000,0
1606136342.757,100.098,-20.020,-18.555,253.418,0.000,0
1606136342.761,99.121,-21.484,-15.625,302.734,0.000,0
1606136342.765,-62.012,-25.391,-14.648,-99.121,0.000,0
1606136342.769,-170.410,-35.156,-15.137,-406.250,0.000,0
1606136342.773,-92.285,-37.109,-24.902,-251.953,0.000,0
1606136342.777,76.660,-26.367,-27.832,178.223,0.000,0
1606136342.781,107.422,-20.996,-20.996,320.312,0.000,0
1606136342.785,-52.246,-24.414,-19.531,-39.551,0.000,0
1606136342.788,-183.105,-39.062,-21.484,-386.719,0.000,0
1606136342.792,-118.652,-39.551,-22.949,-289.062,0.000,0
1606136342.796,55.664,-25.879,-13.184,159.180,0.000,0
1606136342.800,105.957,-29.297,-17.090,355.469,0.000,0
1606136342.804,-27.832,-33.691,-28.809,21.973,0.000,0
1606136342.808,-168.945,-32.715,-31.738,-356.445,0.000,0
1606136342.812,-149.414,-36.621,-36.621,-329.102,0.000,0
1606136342.816,18.066,-34.180,-32.715,91.797,0.000,0
1606136342.820,92.773,-38.086,-22.949,333.984,0.000,0
1606136342.824,-35.156,-43.457,-20.508,68.359,0.000,0
1606136342.828,-188.477,-49.805,-23.438,-336.914,0.000,0
1606136342.831,-172.852,-48.828,-24.414,-375.000,0.000,0
1606136342.835,-6.836,-36.621,-20.020,43.457,0.000,0
1606136342.839,96.191,-27.832,-13.184,341.797,0.000,0
1606136342.843,8.789,-23.438,-13.672,142.090,0.000,0
1606136342.847,-159.668,-17.578,-19.043,-283.203,0.000,0
1606136342.851,-170.410,-18.555,-19.043,-378.906,0.000,0
1606136342.855,-4.883,-23.926,-25.879,-4.883,0.000,0
1606136342.859,117.676,-25.391,-30.762,309.570,0.000,0
1606136342.863,43.457,-23.438,-28.320,184.570,0.000,0
1606136342.867,-139.648,-28.809,-34.668,-243.164,0.000,0
1606136342.870,-181.152,-44.434,-40.039,-423.828,0.000,0
1606136342.874,-34.668,-51.270,-37.598,-93.262,0.000,0
1606136342.878,100.098,-32.227,-26.367,295.898,0.000,0
1606136342.882,60.059,-21.484,-15.137,252.930,0.000,0
1606136342.886,-106.934,-27.344,-23.438,-187.988,0.000,0
1606136342.890,-165.527,-30.273,-32.715,-402.344,0.000,0
1606136342.894,-30.273,-26.367,-29.297,-94.727,0.000,0
1606136342.898,102.539,-20.996,-23.926,274.902,0.000,0
1606136342.902,75.684,-23.926,-24.902,276.367,0.000,0
1606136342.906,-86.914,-26.367,-33.203,-124.512,0.000,0
1606136342.910,-176.758,-29.785,-41.016,-388.184,0.000,0
1606136342.913,-60.059,-31.738,-34.180,-156.738,0.000,0
1606136342.917,102.539,-22.949,-23.438,257.324,0.000,0
1606136342.921,104.004,-18.066,-10.742,340.820,0.000,0
1606136342.925,-51.758,-18.555,-15.137,-55.176,0.000,0
1606136342.929,-157.227,-30.762,-28.809,-375.488,0.000,0
1606136342.933,-76.660,-40.527,-23.438,-214.844,0.000,0
1606136342.937,95.215,-20.996,-12.207,220.215,0.000,0
1606136342.941,131.836,-11.719,-17.090,358.887,0.000,0
1606136342.945,-22.949,-15.625,-26.855,-9.766,0.000,0
1606136342.949,-156.738,-10.742,-20.996,-371.094,0.000,0
1606136342.953,-100.586,-22.461,-19.531,-285.156,0.000,0
1606136342.956,68.359,-25.879,-27.344,148.438,0.000,0
1606136342.960,118.164,-17.578,-23.438,320.312,0.000,0
1606136342.964,-20.508,-22.461,-30.762,-5.371,0.000,0
1606136342.968,-161.621,-39.551,-35.156,-383.301,0.000,0
1606136342.972,-133.789,-46.387,-32.715,-362.305,0.000,0
1606136342.976,34.180,-34.180,-30.762,75.195,0.000,0
1606136342.980,100.098,-36.621,-19.531,316.895,0.000,0
1606136342.984,-14.648,-37.109,-19.043,54.688,0.000,0
1606136342.988,-167.969,-34.180,-30.273,-351.562,0.000,0
1606136342.992,-171.875,-51.270,-35.156,-398.926,0.000,0
1606136342.995,0.488,-48.828,-31.250,20.020,0.000,0
1606136342.999,106.445,-33.203,-27.344,315.430,0.000,0
1606136343.003,6.348,-30.762,-29.785,121.094,0.000,0
1606136343.007,-160.645,-39.062,-33.691,-310.547,0.000,0
1606136343.011,-175.781,-48.828,-35.645,-411.621,0.000,0
1606136343.015,-10.742,-37.598,-40.039,-19.531,0.000,0
1606136343.019,113.770,-20.020,-28.809,304.688,0.000,0
1606136343.023,34.180,-26.855,-20.020,176.270,0.000,0
1606136343.027,-149.414,-46.387,-37.598,-259.277,0.000,0
1606136343.031,-189.453,-47.852,-42.969,-414.062,0.000,0
1606136343.035,-37.109,-39.062,-30.273,-43.945,0.000,0
1606136343.038,99.609,-29.297,-30.273,319.336,0.000,0
1606136343.042,54.199,-26.855,-36.133,238.770,0.000,0
1606136343.046,-120.117,-14.160,-34.668,-193.359,0.000,0
1606136343.050,-179.199,-9.766,-42.480,-393.555,0.000,0
1606136343.054,-47.852,-29.785,-47.363,-107.910,0.000,0
1606136343.058,97.656,-22.461,-31.250,278.320,0.000,0
1606136343.062,77.148,-16.602,-23.438,281.250,0.000,0
1606136343.066,-90.820,-24.902,-37.598,-134.766,0.000,0
1606136343.070,-177.734,-29.297,-34.180,-395.996,0.000,0
1606136343.074,-57.617,-27.832,-27.344,-140.137,0.000,0
1606136343.078,104.980,-25.391,-30.273,286.133,0.000,0
1606136343.081,104.980,-17.578,-24.902,337.402,0.000,0
1606136343.085,-55.176,-12.695,-25.879,-62.500,0.000,0
1606136343.089,-164.062,-18.066,-37.598,-388.184,0.000,0
1606136343.093,-78.125,-25.879,-32.715,-219.238,0.000,0
1606136343.097,96.191,-16.602,-20.508,215.820,0.000,0
1606136343.101,126.465,-12.207,-20.996,350.586,0.000,0
1606136343.105,-26.367,-25.879,-27.832,-14.648,0.000,0
1606136343.109,-155.273,-31.250,-38.574,-367.676,0.000,0
1606136343.113,-106.445,-26.367,-38.574,-270.996,0.000,0
1606136343.117,57.129,-18.555,-28.320,155.273,0.000,0
1606136343.120,115.723,-18.066,-25.391,334.961,0.000,0
1606136343.124,-21.484,-22.949,-27.344,27.344,0.000,0
1606136343.128,-163.574,-31.738,-27.832,-349.609,0.000,0
1606136343.132,-126.465,-31.738,-30.762,-328.613,0.000,0
1606136343.136,41.992,-19.043,-30.762,99.609,0.000,0
1606136343.140,112.305,-23.926,-20.020,333.984,0.000,0
1606136343.144,-11.230,-24.902,-17.578,74.219,0.000,0
1606136343.148,-169.434,-22.949,-27.832,-326.660,0.000,0
1606136343.152,-156.250,-37.109,-28.809,-365.234,0.000,0
1606136343.156,21.973,-33.691,-14.160,55.176,0.000,0
1606136343.160,111.328,-33.203,-16.602,340.332,0.000,0
1606136343.163,5.859,-45.410,-23.438,133.789,0.000,0
1606136343.167,-158.203,-50.293,-25.879,-291.016,0.000,0
1606136343.171,-179.199,-48.828,-35.156,-399.414,0.000,0
1606136343.175,-14.160,-43.457,-30.762,-8.789,0.000,0
1606136343.179,107.910,-32.227,-14.648,324.219,0.000,0
1606136343.183,28.320,-32.715,-15.137,173.340,0.000,0
1606136343.187,-155.762,-41.504,-29.297,-266.602,0.000,0
1606136343.191,-196.289,-45.898,-35.156,-419.922,0.000,0
1606136343.195,-38.086,-49.316,-22.949,-68.848,0.000,0
1606136343.199,103.516,-37.598,-14.160,309.082,0.000,0
1606136343.203,54.688,-34.180,-16.602,232.422,0.000,0
1606136343.206,-123.047,-40.527,-20.020,-211.426,0.000,0
1606136343.210,-187.012,-41.992,-32.227,-421.387,0.000,0
1606136343.214,-53.223,-40.039,-31.738,-125.977,0.000,0
1606136343.218,101.074,-31.738,-25.391,270.020,0.000,0
1606136343.222,86.426,-30.762,-28.809,274.902,0.000,0
1606136343.226,-84.473,-11.230,-33.691,-137.207,0.000,0
1606136343.230,-173.828,-5.859,-33.691,-410.156,0.000,0
1606136343.234,-62.988,-37.109,-16.113,-187.500,0.000,0
1606136343.238,111.816,-36.133,-7.324,243.652,0.000,0
1606136343.242,115.723,-33.691,-15.137,319.824,0.000,0
1606136343.245,-65.430,-43.457,-18.066,-83.008,0.000,0
1606136343.249,-172.852,-41.992,-12.695,-389.160,0.000,0
1606136343.253,-80.078,-26.367,-16.602,-209.961,0.000,0
1606136343.257,96.191,-17.090,-16.602,225.098,0.000,0
1606136343.261,117.188,-22.461,-18.555,340.332,0.000,0
1606136343.265,-36.621,-14.160,-15.625,-23.926,0.000,0
1606136343.269,-162.109,-12.695,-18.066,-366.211,0.000,0
1606136343.273,-111.816,-29.785,-27.832,-272.949,0.000,0
1606136343.277,59.570,-31.250,-17.578,158.203,0.000,0
1606136343.281,106.934,-25.879,-7.812,330.566,0.000,0
1606136343.285,-25.391,-21.484,-11.719,26.367,0.000,0
1606136343.288,-156.250,-23.926,-19.043,-341.797,0.000,0
1606136343.292,-124.512,-30.762,-17.578,-310.547,0.000,0
1606136343.296,47.852,-25.879,-14.160,118.164,0.000,0
1606136343.300,116.211,-29.297,-16.602,354.980,0.000,0
1606136343.304,-14.648,-38.574,-20.996,92.285,0.000,0
1606136343.308,-166.016,-45.410,-25.391,-314.453,0.000,0
1606136343.312,-152.832,-55.176,-27.832,-346.191,0.000,0
1606136343.316,20.508,-40.527,-24.902,80.078,0.000,0
1606136343.320,111.328,-28.320,-20.020,366.211,0.000,0
1606136343.324,2.930,-36.133,-17.578,145.020,0.000,0
1606136343.328,-166.992,-27.832,-19.043,-289.551,0.000,0
1606136343.331,-178.223,-30.762,-24.414,-381.348,0.000,0
1606136343.335,-5.371,-39.551,-20.996,8.301,0.000,0
1606136343.339,109.863,-26.367,-21.973,328.125,0.000,0
1606136343.343,35.645,-25.879,-27.344,186.523,0.000,0
1606136343.347,-136.719,-42.969,-33.691,-248.535,0.000,0
1606136343.351,-180.176,-44.922,-38.086,-414.062,0.000,0
1606136343.355,-31.250,-38.574,-30.273,-72.754,0.000,0
1606136343.359,102.539,-36.621,-25.879,302.734,0.000,0
1606136343.363,61.035,-34.180,-25.879,242.676,0.000,0
1606136343.367,-110.352,-18.066,-29.785,-199.219,0.000,0
1606136343.370,-174.805,-25.879,-36.621,-419.922,0.000,0
1606136343.374,-32.227,-37.109,-39.551,-123.535,0.000,0
1606136343.378,111.328,-29.297,-39.062,279.785,0.000,0
1606136343.382,75.684,-35.645,-32.715,277.832,0.000,0
1606136343.386,-96.191,-41.016,-40.039,-159.180,0.000,0
1606136343.390,-182.617,-46.875,-40.039,-429.688,0.000,0
1606136343.394,-66.895,-39.062,-34.668,-189.453,0.000,0
1606136343.398,103.516,-21.484,-31.250,236.816,0.000,0
1606136343.402,99.609,-18.555,-26.367,306.152,0.000,0
1606136343.406,-73.730,-34.668,-34.668,-93.262,0.000,0
1606136343.410,-164.551,-41.016,-39.551,-370.605,0.000,0
1606136343.413,-81.543,-33.203,-34.180,-202.637,0.000,0
1606136343.417,67.383,-20.996,-32.715,194.824,0.000,0
1606136343.421,104.492,-11.719,-25.391,318.848,0.000,0
1606136343.425,-46.875,-18.555,-28.809,-39.551,0.000,0
1606136343.429,-178.711,-23.926,-37.109,-382.812,0.000,0
1606136343.433,-117.676,-31.738,-31.738,-270.508,0.000,0
1606136343.437,51.270,-27.344,-27.344,178.223,0.000,0
1606136343.441,101.562,-21.973,-22.461,345.703,0.000,0
1606136343.445,-36.621,-28.809,-28.320,8.789,0.000,0
1606136343.449,-177.246,-35.645,-40.039,-357.422,0.000,0
1606136343.453,-134.766,-35.156,-38.574,-309.082,0.000,0
1606136343.456,53.223,-26.855,-36.621,127.441,0.000,0
1606136343.460,131.348,-24.902,-30.273,348.145,0.000,0
1606136343.464,7.324,-21.484,-29.297,72.754,0.000,0
1606136343.468,-154.297,-22.461,-34.180,-316.895,0.000,0
1606136343.472,-147.461,-37.109,-26.367,-350.098,0.000,0
1606136343.476,19.531,-36.133,-25.879,46.875,0.000,0
1606136343.480,110.352,-33.691,-26.855,328.125,0.000,0
1606136343.484,14.648,-34.180,-29.785,127.441,0.000,0
1606136343.488,-144.043,-34.668,-33.691,-297.363,0.000,0
1606136343.492,-156.738,-34.668,-37.109,-383.301,0.000,0
1606136343.495,7.324,-31.738,-35.156,14.160,0.000,0
1606136343.499,120.605,-33.203,-28.809,326.172,0.000,0
1606136343.503,41.992,-28.320,-23.926,193.359,0.000,0
1606136343.507,-130.859,-24.902,-24.902,-242.188,0.000,0
1606136343.511,-174.805,-31.738,-30.762,-413.086,0.000,0
1606136343.515,-21.484,-31.250,-32.227,-63.477,0.000,0
1606136343.519,127.930,-20.020,-20.508,315.918,0.000,0
1606136343.523,78.613,-13.672,-14.648,243.652,0.000,0
1606136343.527,-110.840,-27.832,-25.391,-211.426,0.000,0
1606136343.531,-181.152,-37.109,-22.949,-414.062,0.000,0
1606136343.535,-55.176,-30.273,-24.902,-111.816,0.000,0
1606136343.538,94.238,-28.809,-29.297,278.320,0.000,0
1606136343.542,77.148,-28.320,-30.273,274.414,0.000,0
1606136343.546,-97.656,-31.738,-37.598,-158.691,0.000,0
1606136343.550,-187.012,-40.527,-34.668,-419.434,0.000,0
1606136343.554,-74.707,-39.062,-30.273,-179.688,0.000,0
1606136343.558,95.215,-25.879,-23.926,250.000,0.000,0
1606136343.562,98.633,-21.484,-22.949,310.547,0.000,0
1606136343.566,-68.359,-28.809,-21.973,-100.586,0.000,0
1606136343.570,-174.316,-39.551,-20.020,-401.855,0.000,0
1606136343.574,-90.820,-42.969,-35.645,-229.492,0.000,0
1606136343.578,82.520,-30.273,-44.922,210.449,0.000,0
1606136343.581,108.887,-23.438,-33.691,338.867,0.000,0
1606136343.585,-44.434,-31.738,-21.484,-36.621,0.000,0
1606136343.589,-173.828,-35.156,-23.438,-381.348,0.000,0
1606136343.593,-116.211,-30.273,-23.438,-267.578,0.000,0
1606136343.597,67.871,-20.020,-16.113,171.875,0.000,0
1606136343.601,123.047,-15.625,-21.484,353.027,0.000,0
1606136343.605,-25.879,-25.391,-33.691,14.160,0.000,0
1606136343.609,-167.480,-27.344,-32.227,-368.652,0.000,0
1606136343.613,-125.488,-26.855,-24.414,-319.824,0.000,0
1606136343.617,60.059,-27.832,-11.719,119.141,0.000,0
1606136343.620,131.836,-18.066,-15.137,354.492,0.000,0
1606136343.624,-0.977,-24.902,-29.297,84.473,0.000,0
1606136343.628,-160.156,-31.738,-27.832,-314.453,0.000,0
1606136343.632,-151.855,-31.738,-28.809,-346.680,0.000,0
1606136343.636,24.414,-31.250,-25.391,57.617,0.000,0
1606136343.640,113.281,-23.926,-23.926,340.820,0.000,0
1606136343.644,13.184,-27.344,-38.574,150.879,0.000,0
1606136343.648,-149.414,-41.992,-47.852,-276.855,0.000,0
1606136343.652,-172.363,-42.969,-28.809,-377.441,0.000,0
1606136343.656,-7.812,-30.762,-10.254,21.973,0.000,0
1606136343.660,109.863,-27.344,-18.066,337.891,0.000,0
1606136343.663,32.227,-36.621,-20.508,185.547,0.000,0
1606136343.667,-136.719,-44.434,-19.043,-231.445,0.000,0
1606136343.671,-183.105,-45.898,-24.902,-390.137,0.000,0
1606136343.675,-37.109,-42.969,-20.996,-63.965,0.000,0
1606136343.679,101.562,-30.762,-25.879,286.133,0.000,0
1606136343.683,55.664,-33.203,-32.715,208.008,0.000,0
1606136343.687,-120.605,-41.016,-32.715,-221.680,0.000,0
1606136343.691,-180.664,-38.086,-33.203,-428.711,0.000,0
1606136343.695,-43.457,-29.785,-30.273,-129.395,0.000,0
1606136343.699,97.168,-20.508,-26.855,277.344,0.000,0
1606136343.703,72.266,-24.902,-24.414,263.672,0.000,0
1606136343.706,-96.680,-22.949,-28.809,-177.246,0.000,0
1606136343.710,-184.570,-23.438,-31.738,-432.129,0.000,0
1606136343.714,-73.730,-35.156,-26.855,-183.594,0.000,0
1606136343.718,96.680,-24.414,-17.578,239.258,0.000,0
1606136343.722,106.934,-27.832,-11.719,319.824,0.000,0
1606136343.726,-67.383,-30.273,-17.090,-84.473,0.000,0
1606136343.730,-180.664,-27.832,-27.832,-413.086,0.000,0
1606136343.734,-90.332,-30.762,-40.527,-249.512,0.000,0
1606136343.738,70.801,-25.391,-40.039,193.848,0.000,0
1606136343.742,96.191,-26.855,-29.297,323.730,0.000,0
1606136343.745,-52.246,-14.648,-31.738,-58.594,0.000,0
1606136343.749,-178.711,-22.461,-37.598,-402.832,0.000,0
1606136343.753,-114.258,-39.551,-34.668,-283.203,0.000,0
1606136343.757,61.523,-30.762,-24.414,167.969,0.000,0
1606136343.761,120.605,-35.156,-11.230,367.188,0.000,0
1606136343.765,-3.906,-36.621,-20.996,57.129,0.000,0
1606136343.769,-149.902,-35.156,-26.367,-328.125,0.000,0
1606136343.773,-133.301,-31.250,-23.926,-312.500,0.000,0
1606136343.777,24.902,-26.855,-30.273,106.934,0.000,0
1606136343.781,102.539,-25.879,-29.785,349.609,0.000,0
1606136343.785,-3.906,-16.602,-31.738,90.820,0.000,0
1606136343.788,-158.691,-3.418,-41.016,-321.289,0.000,0
1606136343.792,-154.297,-19.531,-43.457,-366.699,0.000,0
1606136343.796,20.508,-29.297,-28.809,53.711,0.000,0
1606136343.800,123.535,-13.672,-16.113,357.422,0.000,0
1606136343.804,27.832,-15.625,-19.043,155.273,0.000,0
1606136343.808,-143.066,-37.598,-36.621,-280.273,0.000,0
1606136343.812,-158.691,-45.410,-41.992,-377.441,0.000,0
1606136343.816,11.719,-29.785,-25.879,28.809,0.000,0
1606136343.820,128.418,-20.996,-20.020,361.328,0.000,0
1606136343.824,52.246,-27.832,-32.227,204.590,0.000,0
1606136343.828,-111.328,-36.133,-38.086,-244.629,0.000,0
1606136343.831,-151.367,-36.621,-41.992,-403.809,0.000,0
1606136343.835,-13.672,-27.832,-40.039,-62.012,0.000,0
1606136343.839,115.723,-19.043,-24.902,304.688,0.000,0
1606136343.843,69.336,-12.207,-21.484,232.422,0.000,0
1606136343.847,-98.633,-11.719,-40.039,-206.055,0.000,0
1606136343.851,-164.551,-23.438,-50.781,-421.387,0.000,0
1606136343.855,-37.109,-26.855,-46.875,-129.883,0.000,0
1606136343.859,111.328,-19.043,-37.598,275.391,0.000,0
1606136343.863,87.402,-13.184,-37.598,274.414,0.000,0
1606136343.867,-82.031,-20.996,-35.645,-176.758,0.000,0
1606136343.870,-167.969,-32.227,-32.715,-449.707,0.000,0
1606136343.874,-57.129,-29.785,-36.621,-191.895,0.000,0
1606136343.878,103.516,-23.438,-32.715,267.090,0.000,0
1606136343.882,99.121,-34.668,-31.738,316.406,0.000,0
1606136343.886,-71.289,-8.301,-27.832,-122.070,0.000,0
1606136343.890,-172.852,10.254,-26.367,-422.363,0.000,0
1606136343.894,-83.496,-19.531,-26.855,-225.098,0.000,0
1606136343.898,89.355,-20.020,-21.484,235.352,0.000,0
1606136343.902,124.512,-19.531,-24.414,365.723,0.000,0
1606136343.906,-47.363,-29.297,-27.832,-26.367,0.000,0
1606136343.910,-182.617,-39.551,-35.156,-403.320,0.000,0
1606136343.913,-112.305,-35.645,-36.621,-293.945,0.000,0
1606136343.917,59.082,-22.461,-23.438,179.199,0.000,0
1606136343.921,114.258,-25.391,-20.020,379.395,0.000,0
1606136343.925,-18.066,-26.855,-29.785,45.898,0.000,0
1606136343.929,-156.250,-32.227,-36.621,-375.488,0.000,0
1606136343.933,-120.605,-41.016,-30.762,-340.332,0.000,0
1606136343.937,46.875,-35.156,-28.320,123.535,0.000,0
1606136343.941,110.840,-34.668,-28.809,363.281,0.000,0
1606136343.945,-18.066,-37.109,-32.715,87.891,0.000,0
1606136343.949,-167.969,-42.969,-40.039,-339.844,0.000,0
1606136343.953,-151.367,-48.828,-34.180,-376.953,0.000,0
1606136343.956,23.438,-35.156,-28.320,63.965,0.000,0
1606136343.960,121.582,-25.391,-17.090,371.582,0.000,0
1606136343.964,24.414,-28.809,-19.043,151.367,0.000,0
1606136343.968,-136.230,-35.156,-39.551,-314.453,0.000,0
1606136343.972,-152.832,-35.156,-39.062,-404.785,0.000,0
1606136343.976,12.207,-25.879,-33.203,20.996,0.000,0
1606136343.980,120.117,-35.156,-35.645,353.516,0.000,0
1606136343.984,44.922,-34.668,-41.992,185.547,0.000,0
1606136343.988,-115.723,-0.488,-42.480,-263.184,0.000,0
1606136343.992,-160.156,-13.672,-30.762,-411.621,0.000,0
1606136343.995,-17.578,-34.180,-20.508,-42.480,0.000,0
1606136343.999,112.793,-22.461,-22.949,335.938,0.000,0
1606136344.003,66.895,-26.367,-25.879,251.465,0.000,0
1606136344.007,-99.609,-35.156,-26.855,-210.449,0.000,0
1606136344.011,-162.109,-35.645,-33.691,-422.852,0.000,0
1606136344.015,-38.086,-30.273,-35.156,-100.098,0.000,0
1606136344.019,98.633,-24.902,-30.273,313.477,0.000,0
1606136344.023,75.195,-24.414,-27.832,306.152,0.000,0
1606136344.027,-95.215,-14.160,-32.715,-160.645,0.000,0
1606136344.031,-175.781,-20.996,-24.414,-435.059,0.000,0
1606136344.035,-68.359,-35.645,-20.996,-172.852,0.000,0
1606136344.038,79.102,-23.438,-31.250,256.836,0.000,0
1606136344.042,81.543,-24.414,-28.320,315.430,0.000,0
1606136344.046,-82.031,-40.527,-31.738,-125.000,0.000,0
1606136344.050,-174.316,-46.387,-29.785,-439.941,0.000,0
1606136344.054,-79.102,-34.668,-23.438,-242.188,0.000,0
1606136344.058,77.148,-21.973,-18.555,219.238,0.000,0
1606136344.062,103.516,-20.996,-12.695,345.215,0.000,0
1606136344.066,-47.363,-28.320,-15.625,-44.922,0.000,0
1606136344.070,-166.504,-41.992,-24.902,-395.996,0.000,0
1606136344.074,-104.980,-38.086,-29.785,-286.621,0.000,0
1606136344.078,47.363,-20.996,-28.320,152.832,0.000,0
1606136344.081,103.027,-16.602,-27.832,352.051,0.000,0
1606136344.085,-16.113,-27.344,-28.320,18.555,0.000,0
1606136344.089,-145.020,-40.527,-31.250,-384.277,0.000,0
1606136344.093,-110.352,-46.875,-25.879,-326.660,0.000,0
1606136344.097,56.152,-33.203,-21.973,151.855,0.000,0
1606136344.101,132.324,-24.414,-26.855,395.020,0.000,0
1606136344.105,16.113,-36.621,-31.250,86.426,0.000,0
1606136344.109,-127.441,-39.551,-21.973,-337.891,0.000,0
1606136344.113,-112.305,-26.855,-18.555,-348.633,0.000,0
1606136344.117,51.270,-24.414,-20.020,99.121,0.000,0
1606136344.120,134.766,-34.180,-19.531,401.855,0.000,0
1606136344.124,36.133,-16.113,-20.996,177.734,0.000,0
1606136344.128,-114.258,-4.395,-14.648,-277.344,0.000,0
1606136344.132,-126.953,-29.785,-18.555,-366.699,0.000,0
1606136344.136,31.250,-36.133,-20.020,65.918,0.000,0
1606136344.140,145.020,-25.879,-14.648,416.504,0.000,0
1606136344.144,68.848,-26.855,-18.555,251.953,0.000,0
1606136344.148,-104.980,-40.039,-32.715,-231.445,0.000,0
1606136344.152,-140.137,-41.016,-30.762,-387.695,0.000,0
1606136344.156,8.301,-28.320,-10.254,8.301,0.000,0
1606136344.160,136.230,-15.137,-1.465,415.527,0.000,0
1606136344.163,85.938,-12.695,-9.766,313.965,0.000,0
1606136344.167,-90.820,-2.930,-18.066,-188.965,0.000,0
1606136344.171,-159.180,-18.555,-25.879,-416.504,0.000,0
1606136344.175,-24.414,-37.109,-29.297,-71.289,0.000,0
1606136344.179,122.559,-27.344,-16.602,368.164,0.000,0
1606136344.183,93.262,-24.902,-13.184,338.379,0.000,0
1606136344.187,-68.359,-25.391,-22.461,-136.230,0.000,0
1606136344.191,-146.484,-33.691,-27.832,-419.922,0.000,0
1606136344.195,-49.805,-36.621,-26.855,-145.996,0.000,0
1606136344.199,97.656,-30.273,-19.043,330.078,0.000,0
1606136344.203,106.934,-35.156,-18.555,382.324,0.000,0
1606136344.206,-55.176,-32.715,-27.832,-82.520,0.000,0
1606136344.210,-165.039,-35.156,-33.691,-421.387,0.000,0
1606136344.214,-75.195,-36.621,-28.809,-209.961,0.000,0
1606136344.218,97.656,-25.391,-11.230,274.414,0.000,0
1606136344.222,116.699,-24.902,-9.766,396.484,0.000,0
1606136344.226,-43.945,-38.574,-24.902,-29.297,0.000,0
1606136344.230,-162.598,-48.340,-31.738,-415.039,0.000,0
1606136344.234,-104.004,-44.434,-36.133,-288.086,0.000,0
1606136344.238,66.895,-33.691,-33.691,202.637,0.000,0
1606136344.242,123.047,-30.273,-22.461,404.785,0.000,0
1606136344.245,-13.672,-41.992,-22.461,20.020,0.000,0
1606136344.249,-153.809,-49.316,-33.691,-406.738,0.000,0
1606136344.253,-115.723,-41.504,-31.250,-333.984,0.000,0
1606136344.257,51.270,-27.832,-26.367,164.551,0.000,0
1606136344.261,118.164,-26.367,-24.414,419.434,0.000,0
1606136344.265,-2.930,-29.785,-20.020,95.215,0.000,0
1606136344.269,-147.461,-26.855,-21.484,-365.723,0.000,0
1606136344.273,-139.648,-35.156,-26.855,-377.441,0.000,0
1606136344.277,37.598,-29.297,-25.391,114.746,0.000,0
1606136344.281,129.395,-23.438,-19.531,424.316,0.000,0
1606136344.285,17.578,-27.344,-12.695,170.410,0.000,0
1606136344.288,-135.742,-39.062,-11.719,-312.500,0.000,0
1606136344.292,-145.996,-40.527,-13.184,-414.551,0.000,0
1606136344.296,9.766,-33.203,-12.207,38.086,0.000,0
1606136344.300,124.512,-26.855,-10.742,419.434,0.000,0
1606136344.304,59.570,-13.184,-14.648,231.934,0.000,0
1606136344.308,-106.445,-16.602,-25.391,-277.832,0.000,0
1606136344.312,-151.367,-30.762,-23.926,-437.988,0.000,0
1606136344.316,4.395,-24.414,-8.301,-14.160,0.000,0
1606136344.320,136.719,-24.902,-8.789,396.973,0.000,0
1606136344.324,79.590,-18.555,-20.508,279.785,0.000,0
1606136344.328,-92.773,-16.602,-24.414,-232.422,0.000,0
1606136344.331,-153.809,-28.320,-19.531,-458.984,0.000,0
1606136344.335,-17.090,-21.484,-17.090,-90.820,0.000,0
1606136344.339,127.441,-13.672,-19.043,363.770,0.000,0
1606136344.343,98.633,-10.742,-15.137,331.543,0.000,0
1606136344.347,-78.613,-19.043,-19.531,-163.574,0.000,0
1606136344.351,-169.922,-33.691,-24.902,-450.195,0.000,0
1606136344.355,-65.430,-30.273,-27.832,-176.758,0.000,0
1606136344.359,95.703,-19.531,-27.832,299.805,0.000,0
1606136344.363,105.957,-19.531,-21.484,369.141,0.000,0
1606136344.367,-62.012,-14.160,-26.367,-106.934,0.000,0
1606136344.370,-178.223,-19.531,-40.039,-471.191,0.000,0
1606136344.374,-97.168,-29.297,-35.156,-249.023,0.000,0
1606136344.378,80.078,-16.113,-17.090,279.785,0.000,0
1606136344.382,110.352,-9.766,-19.043,407.227,0.000,0
1606136344.386,-58.594,-23.438,-33.203,-48.828,0.000,0
1606136344.390,-187.988,-32.227,-32.227,-444.336,0.000,0
1606136344.394,-118.652,-31.738,-32.227,-290.527,0.000,0
1606136344.398,55.176,-30.273,-24.414,217.773,0.000,0
1606136344.402,109.375,-23.438,-15.137,415.527,0.000,0
1606136344.406,-30.273,-25.879,-27.832,30.273,0.000,0
1606136344.410,-169.434,-36.621,-44.434,-410.645,0.000,0
1606136344.413,-134.277,-41.504,-34.180,-339.844,0.000,0
1606136344.417,32.715,-32.227,-16.113,163.086,0.000,0
1606136344.421,104.492,-28.809,-12.695,422.363,0.000,0
1606136344.425,-14.648,-30.273,-16.113,110.840,0.000,0
1606136344.429,-171.387,-36.133,-25.879,-369.629,0.000,0
1606136344.433,-162.109,-36.133,-24.902,-387.695,0.000,0
1606136344.437,27.344,-23.926,-12.695,122.070,0.000,0
1606136344.441,124.023,-20.020,-2.441,449.219,0.000,0
1606136344.445,10.742,-37.598,-6.836,182.617,0.000,0
1606136344.449,-151.855,-62.988,-17.090,-323.242,0.000,0
1606136344.453,-169.922,-56.152,-22.461,-418.945,0.000,0
1606136344.456,-3.418,-37.109,-20.020,44.434,0.000,0
1606136344.460,113.770,-26.855,-20.996,426.758,0.000,0
1606136344.464,42.480,-24.902,-18.555,250.488,0.000,0
1606136344.468,-121.582,-34.180,-21.973,-265.137,0.000,0
1606136344.472,-167.969,-37.598,-32.715,-443.359,0.000,0
1606136344.476,-21.973,-29.785,-27.832,-19.531,0.000,0
1606136344.480,105.957,-21.973,-26.367,402.344,0.000,0
1606136344.484,52.246,-25.391,-28.320,295.898,0.000,0
1606136344.488,-115.723,-37.109,-29.785,-211.426,0.000,0
1606136344.492,-174.805,-40.527,-32.227,-454.102,0.000,0
1606136344.495,-36.133,-29.297,-18.066,-107.910,0.000,0
1606136344.499,111.328,-23.926,-12.207,346.680,0.000,0
1606136344.503,82.520,-29.297,-20.508,328.613,0.000,0
1606136344.507,-95.215,-36.133,-33.203,-173.828,0.000,0
1606136344.511,-182.129,-43.945,-37.598,-456.543,0.000,0
1606136344.515,-64.941,-33.203,-33.203,-162.598,0.000,0
1606136344.519,97.656,-22.461,-30.273,315.918,0.000,0
1606136344.523,104.980,-22.949,-26.855,372.559,0.000,0
1606136344.527,-61.523,-31.250,-33.203,-108.887,0.000,0
1606136344.531,-168.945,-36.133,-38.086,-450.195,0.000,0
1606136344.535,-76.660,-31.250,-34.668,-214.844,0.000,0
1606136344.538,91.797,-22.461,-31.250,288.574,0.000,0
1606136344.542,119.141,-15.625,-24.414,407.227,0.000,0
1606136344.546,-40.039,-24.902,-18.555,-34.180,0.000,0
1606136344.550,-174.805,-38.086,-26.855,-436.523,0.000,0
1606136344.554,-115.723,-38.574,-39.062,-302.734,0.000,0
1606136344.558,57.617,-30.762,-30.273,206.543,0.000,0
1606136344.562,108.887,-23.438,-21.973,412.109,0.000,0
1606136344.566,-28.809,-23.926,-30.762,31.250,0.000,0
1606136344.570,-169.434,-37.109,-39.551,-408.203,0.000,0
1606136344.574,-131.348,-43.457,-36.621,-355.469,0.000,0
1606136344.578,44.922,-28.320,-19.043,164.551,0.000,0
1606136344.581,110.840,-24.414,-15.625,431.641,0.000,0
1606136344.585,-18.555,-23.438,-32.227,82.031,0.000,0
1606136344.589,-171.387,-26.367,-39.551,-398.926,0.000,0
1606136344.593,-152.832,-31.250,-38.574,-417.480,0.000,0
1606136344.597,24.414,-28.320,-38.086,88.379,0.000,0
1606136344.601,126.953,-25.391,-30.273,430.176,0.000,0
1606136344.605,20.996,-26.855,-23.926,157.715,0.000,0
1606136344.609,-155.273,-38.574,-34.668,-350.586,0.000,0
1606136344.613,-165.039,-39.551,-49.316,-451.172,0.000,0
1606136344.617,-4.395,-30.273,-41.992,0.977,0.000,0
1606136344.620,109.375,-29.297,-30.273,379.883,0.000,0
1606136344.624,32.227,-27.832,-26.855,207.520,0.000,0
1606136344.628,-133.301,-26.367,-26.855,-288.086,0.000,0
1606136344.632,-174.316,-41.016,-36.621,-469.727,0.000,0
1606136344.636,-20.508,-40.039,-32.227,-59.082,0.000,0
1606136344.640,116.699,-24.902,-25.879,376.465,0.000,0
1606136344.644,67.383,-17.578,-25.391,273.438,0.000,0
1606136344.648,-97.656,-23.438,-28.809,-246.094,0.000,0
1606136344.652,-170.898,-34.668,-35.156,-480.469,0.000,0
1606136344.656,-47.852,-33.203,-32.227,-119.141,0.000,0
1606136344.660,107.910,-32.227,-22.461,351.074,0.000,0
1606136344.663,93.262,-29.785,-24.414,335.938,0.000,0
1606136344.667,-83.984,-20.996,-31.738,-181.152,0.000,0
1606136344.671,-175.781,-23.926,-33.203,-477.051,0.000,0
1606136344.675,-69.336,-25.391,-33.203,-192.871,0.000,0
1606136344.679,83.496,-20.508,-29.297,281.738,0.000,0
1606136344.683,80.566,-22.461,-25.391,341.797,0.000,0
1606136344.687,-87.891,-29.297,-25.879,-129.395,0.000,0
1606136344.691,-187.988,-33.691,-24.414,-472.168,0.000,0
1606136344.695,-97.168,-30.762,-20.020,-255.371,0.000,0
1606136344.699,77.148,-20.508,-25.879,251.953,0.000,0
1606136344.703,105.957,-21.973,-28.809,379.883,0.000,0
1606136344.706,-59.082,-36.133,-29.297,-65.430,0.000,0
1606136344.710,-184.082,-41.992,-35.156,-467.773,0.000,0
1606136344.714,-117.188,-39.062,-32.715,-323.242,0.000,0
1606136344.718,59.082,-23.926,-28.320,208.008,0.000,0
1606136344.722,113.770,-23.438,-28.320,416.016,0.000,0
1606136344.726,-27.832,-9.766,-36.621,22.949,0.000,0
1606136344.730,-173.828,-5.859,-41.992,-434.570,0.000,0
1606136344.734,-143.555,-40.039,-40.039,-391.113,0.000,0
1606136344.738,36.133,-38.086,-34.668,139.648,0.000,0
1606136344.742,103.516,-29.785,-28.320,416.016,0.000,0
1606136344.745,-23.438,-36.133,-22.949,80.078,0.000,0
1606136344.749,-171.875,-43.945,-27.832,-404.785,0.000,0
1606136344.753,-163.086,-36.133,-34.180,-425.781,0.000,0
1606136344.757,9.277,-28.809,-39.062,68.359,0.000,0
1606136344.761,111.816,-22.949,-31.738,397.461,0.000,0
1606136344.765,8.301,-21.484,-29.297,137.207,0.000,0
1606136344.769,-156.738,-36.133,-40.039,-366.211,0.000,0
1606136344.773,-168.457,-40.527,-35.645,-462.891,0.000,0
1606136344.777,-9.766,-26.367,-26.855,2.441,0.000,0
1606136344.781,115.234,-19.043,-21.484,392.578,0.000,0
1606136344.785,42.480,-23.926,-26.367,219.727,0.000,0
1606136344.788,-130.371,-35.156,-29.297,-296.387,0.000,0
1606136344.792,-170.898,-41.016,-32.715,-477.539,0.000,0
1606136344.796,-28.320,-32.227,-28.809,-65.430,0.000,0
1606136344.800,115.234,-29.297,-17.090,372.559,0.000,0
1606136344.804,68.848,-35.156,-22.949,272.949,0.000,0
1606136344.808,-119.629,-41.992,-35.645,-250.000,0.000,0
1606136344.812,-187.500,-43.945,-44.434,-485.352,0.000,0
1606136344.816,-49.316,-34.180,-31.250,-120.117,0.000,0
1606136344.820,104.492,-27.344,-17.090,349.121,0.000,0
1606136344.824,80.566,-22.461,-28.809,322.266,0.000,0
1606136344.828,-98.145,-6.348,-35.156,-191.406,0.000,0
1606136344.831,-178.711,-16.113,-24.414,-477.051,0.000,0
1606136344.835,-68.848,-34.180,-18.555,-172.852,0.000,0
1606136344.839,81.055,-24.414,-19.531,309.570,0.000,0
1606136344.843,80.566,-17.578,-20.508,358.398,0.000,0
1606136344.847,-83.984,-30.762,-31.738,-118.164,0.000,0
1606136344.851,-193.848,-42.480,-36.133,-480.957,0.000,0
1606136344.855,-102.539,-42.969,-32.715,-266.113,0.000,0
1606136344.859,76.172,-29.785,-31.738,258.301,0.000,0
1606136344.863,103.027,-22.949,-27.832,398.926,0.000,0
1606136344.867,-59.570,-29.785,-28.809,-41.504,0.000,0
1606136344.870,-186.035,-35.156,-32.227,-441.895,0.000,0
1606136344.874,-115.234,-40.039,-23.438,-309.082,0.000,0
1606136344.878,62.500,-33.691,-13.672,206.543,0.000,0
1606136344.882,111.328,-28.320,-23.438,413.086,0.000,0
1606136344.886,-23.926,-34.668,-26.367,39.062,0.000,0
1606136344.890,-163.574,-44.922,-27.344,-409.180,0.000,0
1606136344.894,-127.441,-38.574,-32.227,-361.328,0.000,0
1606136344.898,52.246,-32.715,-30.273,152.832,0.000,0
1606136344.902,125.488,-28.809,-21.484,420.898,0.000,0
1606136344.906,6.836,-29.297,-22.949,110.840,0.000,0
1606136344.910,-143.066,-32.227,-31.738,-366.699,0.000,0
1606136344.913,-144.531,-31.738,-27.344,-398.438,0.000,0
1606136344.917,25.391,-27.832,-22.949,91.309,0.000,0
1606136344.921,121.094,-21.484,-17.578,415.039,0.000,0
1606136344.925,21.973,-17.578,-8.301,168.457,0.000,0
1606136344.929,-136.230,-32.227,-18.066,-327.148,0.000,0
1606136344.933,-160.156,-43.945,-36.133,-435.059,0.000,0
1606136344.937,0.000,-26.855,-31.250,26.855,0.000,0
1606136344.941,118.164,-15.625,-27.832,414.062,0.000,0
1606136344.945,43.457,-18.555,-31.250,229.980,0.000,0
1606136344.949,-129.395,-33.691,-35.156,-298.828,0.000,0
1606136344.953,-173.828,-37.109,-36.621,-471.191,0.000,0
1606136344.956,-26.855,-25.391,-28.809,-55.664,0.000,0
1606136344.960,99.609,-25.391,-17.090,366.699,0.000,0
1606136344.964,48.340,-31.738,-10.254,283.691,0.000,0
1606136344.968,-118.652,-39.551,-19.531,-226.562,0.000,0
1606136344.972,-184.082,-35.645,-28.320,-474.609,0.000,0
1606136344.976,-52.734,-26.367,-25.879,-119.629,0.000,0
1606136344.980,102.051,-22.461,-25.391,340.332,0.000,0
1606136344.984,83.496,-20.508,-29.297,320.312,0.000,0
1606136344.988,-85.449,-25.391,-28.320,-168.945,0.000,0
1606136344.992,-169.922,-39.062,-29.297,-471.191,0.000,0
1606136344.995,-59.082,-40.527,-31.738,-195.312,0.000,0
1606136344.999,99.609,-27.344,-21.973,307.129,0.000,0
1606136345.003,94.727,-30.762,-25.879,379.883,0.000,0
1606136345.007,-75.684,-39.062,-39.062,-104.004,0.000,0
1606136345.011,-182.129,-39.551,-36.621,-478.516,0.000,0
1606136345.015,-85.938,-32.715,-28.809,-254.395,0.000,0
1606136345.019,90.332,-29.785,-17.578,271.484,0.000,0
1606136345.023,115.234,-27.344,-18.066,397.949,0.000,0
1606136345.027,-40.039,-33.691,-30.273,-41.016,0.000,0
1606136345.031,-166.504,-42.969,-33.691,-454.102,0.000,0
1606136345.035,-105.957,-32.715,-23.438,-320.312,0.000,0
1606136345.038,64.941,-27.832,-9.277,195.312,0.000,0
1606136345.042,114.746,-29.785,-21.973,402.344,0.000,0
1606136345.046,-20.508,-32.227,-33.691,32.715,0.000,0
1606136345.050,-169.922,-46.875,-32.227,-417.969,0.000,0
1606136345.054,-137.695,-43.945,-30.762,-382.324,0.000,0
1606136345.058,39.062,-25.391,-24.902,127.930,0.000,0
1606136345.062,113.770,-19.531,-16.113,405.273,0.000,0
1606136345.066,-5.371,-22.461,-24.414,94.238,0.000,0
1606136345.070,-157.715,-28.320,-38.574,-384.277,0.000,0
1606136345.074,-149.902,-30.273,-31.738,-423.340,0.000,0
1606136345.078,7.812,-28.320,-24.902,58.105,0.000,0
1606136345.081,104.492,-20.508,-24.414,401.855,0.000,0
1606136345.085,12.695,-24.902,-27.832,175.293,0.000,0
1606136345.089,-153.320,-41.016,-28.809,-335.938,0.000,0
1606136345.093,-161.133,-38.574,-32.715,-433.105,0.000,0
1606136345.097,10.254,-25.879,-28.809,35.645,0.000,0
1606136345.101,120.605,-22.949,-20.020,395.508,0.000,0
1606136345.105,41.016,-29.297,-15.137,225.098,0.000,0
1606136345.109,-126.953,-22.461,-19.531,-277.344,0.000,0
1606136345.113,-158.691,-18.555,-24.414,-445.312,0.000,0
1606136345.117,-16.113,-19.531,-27.344,-46.387,0.000,0
1606136345.120,112.793,-12.695,-25.879,361.816,0.000,0
1606136345.124,65.430,-16.113,-23.926,270.020,0.000,0
1606136345.128,-102.539,-30.273,-28.809,-225.098,0.000,0
1606136345.132,-163.574,-31.738,-34.180,-468.262,0.000,0
1606136345.136,-44.434,-26.367,-37.598,-140.625,0.000,0
1606136345.140,104.004,-18.555,-32.715,313.965,0.000,0
1606136345.144,95.215,-9.277,-29.297,320.801,0.000,0
1606136345.148,-74.707,-17.578,-30.273,-176.270,0.000,0
1606136345.152,-170.898,-27.344,-30.762,-493.164,0.000,0
1606136345.156,-62.988,-18.555,-14.160,-211.426,0.000,0
1606136345.160,98.633,-17.578,-14.160,279.297,0.000,0
1606136345.163,101.562,-19.531,-34.668,350.586,0.000,0
1606136345.167,-63.965,-24.414,-38.574,-112.305,0.000,0
1606136345.171,-165.527,-31.250,-38.086,-460.449,0.000,0
1606136345.175,-85.938,-25.879,-35.645,-248.047,0.000,0
1606136345.179,75.195,-18.066,-24.902,252.441,0.000,0
1606136345.183,112.793,-21.484,-15.137,389.648,0.000,0
1606136345.187,-35.156,-29.785,-21.484,-31.250,0.000,0
1606136345.191,-162.109,-33.691,-32.715,-427.246,0.000,0
1606136345.195,-106.445,-32.227,-26.367,-306.152,0.000,0
1606136345.199,60.547,-26.367,-16.113,204.102,0.000,0
1606136345.203,112.793,-23.438,-14.648,415.039,0.000,0
1606136345.206,-18.066,-9.277,-20.020,50.293,0.000,0
1606136345.210,-157.715,-11.230,-20.508,-378.906,0.000,0
1606136345.214,-128.906,-31.738,-16.602,-345.703,0.000,0
1606136345.218,44.434,-26.367,-15.137,147.461,0.000,0
1606136345.222,122.070,-19.043,-20.020,425.781,0.000,0
1606136345.226,5.859,-26.367,-36.133,111.328,0.000,0
1606136345.230,-147.949,-44.434,-43.945,-377.930,0.000,0
1606136345.234,-140.625,-40.527,-40.039,-416.504,0.000,0
1606136345.238,35.156,-17.090,-35.156,71.289,0.000,0
1606136345.242,135.742,-8.789,-27.832,397.461,0.000,0
1606136345.245,44.922,-5.371,-37.109,157.227,0.000,0
1606136345.249,-105.469,-6.348,-41.504,-325.195,0.000,0
1606136345.253,-129.883,-17.578,-32.227,-430.176,0.000,0
1606136345.257,15.625,-15.137,-24.414,16.113,0.000,0
1606136345.261,120.117,-18.066,-21.484,389.160,0.000,0
1606136345.265,40.039,-24.902,-27.344,217.285,0.000,0
1606136345.269,-121.094,-29.297,-20.996,-282.227,0.000,0
1606136345.273,-158.203,-34.668,-19.043,-453.125,0.000,0
1606136345.277,-20.996,-31.250,-29.297,-61.035,0.000,0
1606136345.281,114.746,-21.973,-20.020,370.605,0.000,0
1606136345.285,73.242,-13.672,-19.531,302.246,0.000,0
1606136345.288,-101.074,-15.625,-33.691,-212.891,0.000,0
1606136345.292,-162.598,-27.344,-32.715,-460.938,0.000,0
1606136345.296,-35.156,-22.461,-23.438,-120.117,0.000,0
1606136345.300,115.234,-11.719,-14.648,343.262,0.000,0
1606136345.304,97.168,-20.996,-20.020,346.680,0.000,0
1606136345.308,-74.219,-37.598,-31.250,-137.695,0.000,0
1606136345.312,-158.691,-39.062,-28.320,-432.129,0.000,0
1606136345.316,-53.711,-29.297,-19.531,-160.645,0.000,0
1606136345.320,104.980,-22.949,-11.719,310.059,0.000,0
1606136345.324,113.281,-21.484,-11.230,380.371,0.000,0
1606136345.328,-47.852,-26.367,-20.508,-65.918,0.000,0
1606136345.331,-164.062,-34.180,-24.902,-417.969,0.000,0
1606136345.335,-100.586,-38.086,-23.438,-240.234,0.000,0
1606136345.339,52.734,-32.227,-20.508,232.910,0.000,0
1606136345.343,84.473,-21.973,-19.531,373.535,0.000,0
1606136345.347,-56.152,-17.578,-26.367,-29.785,0.000,0
1606136345.351,-176.270,-24.902,-31.738,-431.152,0.000,0
1606136345.355,-120.605,-26.855,-22.461,-327.637,0.000,0
1606136345.359,49.805,-24.414,-14.160,161.621,0.000,0
1606136345.363,109.863,-25.879,-17.090,377.930,0.000,0
1606136345.367,-16.113,-29.785,-18.555,30.762,0.000,0
1606136345.370,-150.391,-37.598,-33.203,-409.668,0.000,0
1606136345.374,-113.770,-32.715,-43.945,-375.977,0.000,0
1606136345.378,58.594,-20.020,-35.645,120.117,0.000,0
1606136345.382,140.625,-19.531,-28.320,399.902,0.000,0
1606136345.386,31.738,-14.648,-25.879,105.957,0.000,0
1606136345.390,-126.465,-15.137,-38.086,-372.070,0.000,0
1606136345.394,-129.883,-27.832,-40.039,-415.039,0.000,0
1606136345.398,23.438,-27.832,-28.809,56.641,0.000,0
1606136345.402,113.770,-23.926,-24.902,386.719,0.000,0
1606136345.406,25.391,-23.926,-25.879,160.645,0.000,0
1606136345.410,-131.348,-29.297,-24.902,-324.219,0.000,0
1606136345.413,-158.203,-32.715,-21.484,-441.895,0.000,0
1606136345.417,-16.602,-30.762,-20.508,-24.902,0.000,0
1606136345.421,87.891,-27.344,-13.184,354.492,0.000,0
1606136345.425,18.066,-24.414,-10.254,222.168,0.000,0
1606136345.429,-151.367,-36.621,-19.043,-283.691,0.000,0
1606136345.433,-199.219,-48.340,-17.090,-471.191,0.000,0
1606136345.437,-60.547,-39.551,-14.648,-78.613,0.000,0
1606136345.441,54.688,-24.902,-20.020,324.219,0.000,0
1606136345.445,-6.348,-26.855,-24.902,228.027,0.000,0
1606136345.449,-179.199,-37.598,-33.203,-274.414,0.000,0
1606136345.453,-240.234,-32.227,-39.551,-522.461,0.000,0
1606136345.456,-113.281,-20.020,-30.273,-201.172,0.000,0
1606136345.460,28.809,-9.277,-20.020,254.883,0.000,0
1606136345.464,9.766,-7.324,-30.762,256.836,0.000,0
1606136345.468,-151.367,-16.113,-37.598,-223.633,0.000,0
1606136345.472,-235.840,-17.578,-36.621,-524.414,0.000,0
1606136345.476,-122.559,-13.184,-34.668,-265.625,0.000,0
1606136345.480,41.016,-7.324,-25.391,211.914,0.000,0
1606136345.484,48.828,-6.348,-25.391,288.086,0.000,0
1606136345.488,-95.215,-20.996,-36.133,-150.391,0.000,0
1606136345.492,-198.730,-21.973,-43.945,-504.395,0.000,0
1606136345.495,-125.488,-12.695,-43.457,-328.125,0.000,0
1606136345.499,42.480,-12.207,-39.551,168.945,0.000,0
1606136345.503,65.430,-18.066,-39.551,321.777,0.000,0
1606136345.507,-83.496,-19.531,-47.852,-84.473,0.000,0
1606136345.511,-204.102,-21.484,-47.363,-476.562,0.000,0
1606136345.515,-154.297,-26.367,-34.668,-358.398,0.000,0
1606136345.519,19.531,-20.996,-27.344,159.668,0.000,0
1606136345.523,82.031,-21.973,-24.902,379.395,0.000,0
1606136345.527,-44.922,-28.320,-23.438,28.320,0.000,0
1606136345.531,-169.922,-33.691,-28.320,-395.508,0.000,0
1606136345.535,-144.043,-31.250,-35.156,-365.723,0.000,0
1606136345.538,14.160,-27.344,-31.738,113.281,0.000,0
1606136345.542,97.656,-31.250,-28.809,387.207,0.000,0
1606136345.546,-6.348,-39.551,-32.227,91.797,0.000,0
1606136345.550,-149.414,-43.945,-43.945,-358.887,0.000,0
1606136345.554,-148.438,-43.457,-56.152,-403.809,0.000,0
1606136345.558,7.812,-37.598,-42.480,51.270,0.000,0
1606136345.562,96.191,-33.691,-30.273,386.719,0.000,0
1606136345.566,-4.883,-48.828,-31.738,171.387,0.000,0
1606136345.570,-158.691,-59.082,-33.203,-300.781,0.000,0
1606136345.574,-174.316,-52.734,-32.715,-416.992,0.000,0
1606136345.578,-23.926,-43.945,-29.785,1.953,0.000,0
1606136345.581,103.516,-43.457,-27.832,384.277,0.000,0
1606136345.585,52.734,-41.016,-26.367,248.047,0.000,0
1606136345.589,-103.027,-41.016,-34.180,-240.723,0.000,0
1606136345.593,-141.602,-43.457,-45.898,-423.828,0.000,0
1606136345.597,1.953,-34.668,-42.969,-50.293,0.000,0
1606136345.601,141.113,-25.879,-38.086,358.887,0.000,0
1606136345.605,107.422,-20.508,-43.945,293.945,0.000,0
1606136345.609,-46.387,-25.391,-51.270,-180.664,0.000,0
1606136345.613,-98.145,-22.949,-42.969,-413.574,0.000,0
1606136345.617,21.484,-18.066,-33.203,-103.516,0.000,0
1606136345.620,160.156,-20.020,-34.180,328.125,0.000,0
1606136345.624,154.785,-12.207,-38.086,343.750,0.000,0
1606136345.628,-1.953,-8.789,-36.621,-110.352,0.000,0
1606136345.632,-96.680,-18.555,-33.203,-403.320,0.000,0
1606136345.636,-5.859,-23.438,-30.273,-151.855,0.000,0
1606136345.640,132.324,-28.809,-29.785,310.059,0.000,0
1606136345.644,134.766,-20.020,-24.902,395.020,0.000,0
1606136345.648,-20.020,-32.715,-23.926,-39.551,0.000,0
1606136345.652,-131.836,-45.898,-20.020,-389.648,0.000,0
1606136345.656,-60.059,-34.180,-10.742,-209.473,0.000,0
1606136345.660,97.656,-22.461,-9.277,271.484,0.000,0
1606136345.663,122.070,-26.367,-13.184,403.320,0.000,0
1606136345.667,-31.250,-23.438,-21.973,-1.465,0.000,0
1606136345.671,-151.855,-27.344,-28.809,-391.113,0.000,0
1606136345.675,-99.609,-41.992,-26.367,-298.340,0.000,0
1606136345.679,62.988,-32.227,-16.602,180.664,0.000,0
1606136345.683,118.164,-28.809,-16.113,393.555,0.000,0
1606136345.687,-8.301,-33.691,-22.461,62.988,0.000,0
1606136345.691,-146.973,-40.039,-28.809,-356.934,0.000,0
1606136345.695,-125.000,-45.410,-24.902,-339.355,0.000,0
1606136345.699,27.832,-36.621,-20.508,121.094,0.000,0
1606136345.703,99.121,-27.832,-27.832,390.625,0.000,0
1606136345.706,2.930,-16.602,-30.762,125.977,0.000,0
1606136345.710,-143.066,-28.809,-24.414,-325.684,0.000,0
1606136345.714,-146.484,-49.805,-22.949,-392.090,0.000,0
1606136345.718,10.254,-42.480,-20.508,51.758,0.000,0
1606136345.722,110.352,-31.250,-19.531,382.324,0.000,0
1606136345.726,28.809,-31.250,-19.043,172.852,0.000,0
1606136345.730,-118.652,-42.480,-33.691,-286.621,0.000,0
1606136345.734,-138.184,-45.410,-43.945,-408.203,0.000,0
1606136345.738,8.301,-29.297,-34.180,0.000,0.000,0
1606136345.742,132.324,-19.043,-18.066,382.812,0.000,0
1606136345.745,80.078,-25.879,-22.461,255.371,0.000,0
1606136345.749,-84.473,-37.598,-44.434,-215.820,0.000,0
1606136345.753,-133.301,-39.062,-41.504,-396.973,0.000,0
1606136345.757,-10.254,-34.180,-31.250,-44.434,0.000,0
1606136345.761,107.910,-42.480,-31.250,340.332,0.000,0
1606136345.765,64.941,-32.227,-34.180,272.461,0.000,0
1606136345.769,-96.191,-16.113,-28.809,-179.688,0.000,0
1606136345.773,-160.645,-41.016,-20.020,-420.410,0.000,0
1606136345.777,-60.059,-47.363,-28.320,-136.230,0.000,0
1606136345.781,82.520,-28.809,-26.367,302.734,0.000,0
1606136345.785,81.543,-26.367,-21.484,329.102,0.000,0
1606136345.788,-82.031,-34.668,-36.133,-130.371,0.000,0
1606136345.792,-176.758,-42.480,-36.133,-438.965,0.000,0
1606136345.796,-84.961,-44.434,-28.320,-198.730,0.000,0
1606136345.800,65.430,-37.598,-30.762,263.184,0.000,0
1606136345.804,73.242,-28.809,-24.414,340.332,0.000,0
1606136345.808,-80.078,-30.762,-24.902,-83.496,0.000,0
1606136345.812,-187.500,-43.457,-27.832,-432.617,0.000,0
1606136345.816,-107.422,-39.551,-4.883,-255.371,0.000,0
1606136345.820,54.688,-33.691,-2.441,229.492,0.000,0
1606136345.824,80.078,-19.531,-32.227,353.027,0.000,0
1606136345.828,-60.547,-11.719,-42.969,-44.922,0.000,0
1606136345.831,-171.387,-28.320,-41.504,-418.945,0.000,0
1606136345.835,-114.746,-29.297,-42.480,-321.289,0.000,0
1606136345.839,38.086,-21.484,-37.109,141.113,0.000,0
1606136345.843,97.656,-18.066,-25.879,348.145,0.000,0
1606136345.847,-22.949,-22.949,-32.715,28.320,0.000,0
1606136345.851,-154.785,-31.738,-42.969,-381.348,0.000,0
1606136345.855,-123.047,-35.156,-41.016,-369.141,0.000,0
1606136345.859,41.016,-31.738,-28.320,83.496,0.000,0
1606136345.863,128.906,-22.461,-21.973,364.746,0.000,0
1606136345.867,27.832,-24.414,-31.250,104.980,0.000,0
1606136345.870,-123.047,-37.598,-41.504,-343.750,0.000,0
1606136345.874,-129.883,-46.387,-47.363,-408.691,0.000,0
1606136345.878,20.020,-38.086,-42.969,22.949,0.000,0
1606136345.882,112.793,-30.762,-25.879,349.609,0.000,0
1606136345.886,33.691,-23.926,-26.855,159.180,0.000,0
1606136345.890,-117.188,-20.996,-39.062,-293.945,0.000,0
1606136345.894,-153.320,-39.551,-35.645,-417.480,0.000,0
1606136345.898,-18.555,-36.133,-31.250,-17.578,0.000,0
1606136345.902,98.145,-21.973,-24.902,354.492,0.000,0
1606136345.906,38.574,-15.137,-26.855,229.980,0.000,0
1606136345.910,-127.930,-28.320,-34.180,-249.023,0.000,0
1606136345.913,-174.316,-44.922,-29.785,-425.293,0.000,0
1606136345.917,-41.992,-48.340,-21.973,-64.453,0.000,0
1606136345.921,92.773,-41.016,-16.113,335.938,0.000,0
1606136345.925,65.918,-27.344,-3.906,299.805,0.000,0
1606136345.929,-94.238,-36.621,-6.836,-156.250,0.000,0
1606136345.933,-174.316,-53.223,-36.133,-416.992,0.000,0
1606136345.937,-58.594,-41.992,-30.273,-117.188,0.000,0
1606136345.941,88.867,-31.738,-20.508,323.242,0.000,0
1606136345.945,70.801,-28.809,-19.043,332.031,0.000,0
1606136345.949,-85.938,-20.020,-18.555,-118.164,0.000,0
1606136345.953,-171.387,-34.180,-22.461,-423.340,0.000,0
1606136345.956,-68.848,-41.992,-12.695,-174.316,0.000,0
1606136345.960,83.984,-32.227,-5.859,283.691,0.000,0
1606136345.964,92.285,-27.344,-13.184,361.328,0.000,0
1606136345.968,-63.477,-45.898,-27.344,-65.430,0.000,0
1606136345.972,-180.176,-58.594,-34.668,-425.293,0.000,0
1606136345.976,-110.352,-43.945,-34.668,-264.648,0.000,0
1606136345.980,49.805,-37.598,-28.809,202.148,0.000,0
1606136345.984,93.262,-36.621,-23.438,375.977,0.000,0
1606136345.988,-35.645,-35.156,-25.879,-0.488,0.000,0
1606136345.992,-154.297,-48.340,-34.180,-406.250,0.000,0
1606136345.995,-102.539,-46.387,-32.715,-313.477,0.000,0
1606136345.999,64.453,-28.320,-16.602,164.062,0.000,0
1606136346.003,120.117,-23.438,-15.137,379.883,0.000,0
1606136346.007,-4.395,-33.691,-24.414,50.293,0.000,0
1606136346.011,-142.578,-41.504,-26.367,-374.023,0.000,0
1606136346.015,-120.605,-34.180,-35.156,-364.746,0.000,0
1606136346.019,38.086,-24.902,-42.480,90.820,0.000,0
1606136346.023,124.512,-24.414,-35.645,366.699,0.000,0
1606136346.027,23.438,-35.156,-30.762,104.980,0.000,0
1606136346.031,-130.371,-41.992,-31.738,-333.496,0.000,0
1606136346.035,-132.812,-35.156,-30.762,-384.277,0.000,0
1606136346.038,11.719,-29.297,-36.133,42.480,0.000,0
1606136346.042,102.539,-30.273,-37.109,356.445,0.000,0
1606136346.046,21.484,-30.762,-38.086,159.668,0.000,0
1606136346.050,-138.672,-29.297,-44.922,-302.246,0.000,0
1606136346.054,-153.320,-31.738,-39.062,-416.016,0.000,0
1606136346.058,1.465,-36.621,-27.832,-12.207,0.000,0
1606136346.062,95.215,-37.598,-23.926,333.496,0.000,0
1606136346.066,19.531,-32.715,-28.320,203.125,0.000,0
1606136346.070,-138.184,-46.387,-40.527,-262.207,0.000,0
1606136346.074,-184.082,-49.316,-42.480,-462.402,0.000,0
1606136346.078,-61.523,-35.645,-30.273,-107.422,0.000,0
1606136346.081,69.336,-31.738,-26.367,302.734,0.000,0
1606136346.085,29.297,-11.230,-37.109,240.234,0.000,0
1606136346.089,-115.234,-10.742,-46.875,-211.914,0.000,0
1606136346.093,-164.551,-43.945,-40.527,-449.219,0.000,0
1606136346.097,-60.547,-39.551,-29.297,-161.133,0.000,0
1606136346.101,85.449,-28.809,-31.738,276.367,0.000,0
1606136346.105,83.984,-30.762,-34.668,307.129,0.000,0
1606136346.109,-71.289,-39.551,-37.598,-141.602,0.000,0
1606136346.113,-161.621,-46.875,-41.016,-442.383,0.000,0
1606136346.117,-64.453,-44.922,-31.250,-211.426,0.000,0
1606136346.120,83.984,-42.969,-27.832,240.234,0.000,0
1606136346.124,95.703,-30.273,-23.926,340.332,0.000,0
1606136346.128,-45.898,-22.949,-21.484,-56.152,0.000,0
1606136346.132,-159.668,-43.457,-35.156,-411.621,0.000,0
1606136346.136,-88.379,-44.922,-36.621,-269.531,0.000,0
1606136346.140,80.078,-33.203,-21.973,208.496,0.000,0
1606136346.144,117.188,-16.113,-14.648,376.465,0.000,0
1606136346.148,-19.043,-12.207,-18.066,3.418,0.000,0
1606136346.152,-150.391,-37.109,-28.320,-390.137,0.000,0
1606136346.156,-114.746,-34.668,-33.691,-317.383,0.000,0
1606136346.160,53.711,-16.113,-27.344,157.715,0.000,0
1606136346.163,116.211,-16.602,-20.996,383.789,0.000,0
1606136346.167,-15.137,-29.785,-26.855,60.059,0.000,0
1606136346.171,-162.598,-39.551,-34.180,-357.422,0.000,0
1606136346.175,-142.090,-34.180,-31.738,-342.285,0.000,0
1606136346.179,16.113,-27.344,-21.973,97.168,0.000,0
1606136346.183,93.262,-27.832,-14.648,364.258,0.000,0
1606136346.187,-4.883,-28.809,-16.602,120.605,0.000,0
1606136346.191,-147.461,-28.320,-15.137,-315.918,0.000,0
1606136346.195,-147.949,-31.738,-15.625,-376.953,0.000,0
1606136346.199,8.301,-21.484,-21.973,55.176,0.000,0
1606136346.203,107.910,-10.254,-18.066,377.930,0.000,0
1606136346.206,33.203,-19.531,-17.090,185.547,0.000,0
1606136346.210,-120.605,-32.227,-21.484,-269.531,0.000,0
1606136346.214,-147.949,-35.156,-24.902,-402.344,0.000,0
1606136346.218,-2.441,-29.785,-21.484,-9.277,0.000,0
1606136346.222,111.816,-25.879,-20.508,370.117,0.000,0
1606136346.226,51.270,-29.785,-29.297,240.234,0.000,0
1606136346.230,-113.281,-39.062,-37.598,-240.723,0.000,0
1606136346.234,-167.480,-44.922,-40.039,-435.547,0.000,0
1606136346.238,-39.062,-34.668,-31.738,-91.309,0.000,0
1606136346.242,102.051,-16.113,-17.090,319.824,0.000,0
1606136346.245,70.312,-17.090,-23.926,274.902,0.000,0
1606136346.249,-97.656,-30.273,-35.645,-183.105,0.000,0
1606136346.253,-174.805,-34.668,-34.180,-430.664,0.000,0
1606136346.257,-60.547,-25.879,-29.297,-144.043,0.000,0
1606136346.261,87.402,-20.996,-30.762,288.086,0.000,0
1606136346.265,73.242,-25.879,-20.996,320.312,0.000,0
1606136346.269,-81.055,-28.320,-17.090,-108.887,0.000,0
1606136346.273,-185.547,-41.016,-33.691,-423.828,0.000,0
1606136346.277,-106.934,-49.316,-33.203,-219.727,0.000,0
1606136346.281,51.758,-40.039,-19.043,229.980,0.000,0
1606136346.285,70.312,-31.738,-18.555,335.938,0.000,0
1606136346.288,-80.078,-34.668,-25.879,-76.172,0.000,0
1606136346.292,-191.406,-43.457,-32.227,-431.641,0.000,0
1606136346.296,-125.000,-42.480,-33.203,-279.785,0.000,0
1606136346.300,29.785,-37.109,-19.043,190.430,0.000,0
1606136346.304,70.801,-32.227,-12.207,360.352,0.000,0
1606136346.308,-61.523,-38.574,-18.066,-4.883,0.000,0
1606136346.312,-178.711,-41.016,-24.414,-386.719,0.000,0
1606136346.316,-132.812,-36.133,-33.203,-308.105,0.000,0
1606136346.320,30.273,-29.785,-32.715,143.066,0.000,0
1606136346.324,96.191,-33.203,-30.762,351.562,0.000,0
1606136346.328,-17.090,-18.066,-35.645,44.434,0.000,0
1606136346.331,-144.531,-20.996,-26.855,-361.816,0.000,0
1606136346.335,-124.023,-49.805,-33.203,-363.770,0.000,0
1606136346.339,32.227,-42.480,-36.621,86.426,0.000,0
1606136346.343,119.629,-32.715,-19.043,367.676,0.000,0
1606136346.347,24.414,-28.809,-16.113,123.047,0.000,0
1606136346.351,-124.023,-38.086,-31.250,-328.125,0.000,0
1606136346.355,-136.230,-46.875,-34.668,-407.715,0.000,0
1606136346.359,9.766,-37.109,-28.320,27.832,0.000,0
1606136346.363,109.863,-30.273,-29.297,359.863,0.000,0
1606136346.367,24.902,-30.762,-33.203,165.039,0.000,0
1606136346.370,-134.766,-38.086,-40.039,-287.598,0.000,0
1606136346.374,-158.203,-41.504,-36.133,-413.574,0.000,0
1606136346.378,-20.508,-28.809,-26.855,-32.715,0.000,0
1606136346.382,89.844,-21.484,-24.902,338.379,0.000,0
1606136346.386,36.133,-20.508,-31.250,233.887,0.000,0
1606136346.390,-120.605,-26.855,-37.598,-245.117,0.000,0
1606136346.394,-177.734,-33.691,-39.062,-441.406,0.000,0
1606136346.398,-62.988,-31.250,-33.691,-104.492,0.000,0
1606136346.402,65.430,-25.391,-25.391,288.574,0.000,0
1606136346.406,33.691,-27.344,-30.762,257.812,0.000,0
1606136346.410,-123.047,-36.133,-41.016,-192.383,0.000,0
1606136346.413,-193.848,-47.852,-33.203,-448.730,0.000,0
1606136346.417,-86.914,-38.574,-17.090,-176.758,0.000,0
1606136346.421,65.430,-26.855,-15.625,253.906,0.000,0
1606136346.425,69.336,-9.766,-20.508,299.805,0.000,0
1606136346.429,-93.750,-11.230,-30.273,-142.578,0.000,0
1606136346.433,-187.012,-37.109,-38.574,-462.891,0.000,0
1606136346.437,-94.238,-30.273,-42.969,-245.605,0.000,0
1606136346.441,65.918,-14.648,-33.691,214.844,0.000,0
1606136346.445,93.262,-14.648,-26.367,316.895,0.000,0
1606136346.449,-46.875,-25.879,-29.297,-86.426,0.000,0
1606136346.453,-158.691,-35.645,-28.320,-428.711,0.000,0
1606136346.456,-94.238,-26.367,-29.297,-282.715,0.000,0
1606136346.460,58.105,-12.207,-26.855,173.340,0.000,0
1606136346.464,85.449,-15.625,-23.438,337.891,0.000,0
1606136346.468,-41.016,-27.344,-36.133,-16.602,0.000,0
1606136346.472,-158.691,-35.156,-39.551,-402.832,0.000,0
1606136346.476,-120.605,-33.203,-27.832,-329.590,0.000,0
1606136346.480,38.574,-29.785,-18.555,130.859,0.000,0
1606136346.484,96.680,-22.949,-19.043,356.445,0.000,0
1606136346.488,-15.137,-23.926,-23.926,62.500,0.000,0
1606136346.492,-146.484,-30.273,-28.320,-345.215,0.000,0
1606136346.495,-133.301,-31.738,-25.391,-349.121,0.000,0
1606136346.499,27.832,-21.973,-6.348,104.492,0.000,0
1606136346.503,118.164,-16.602,-7.324,394.531,0.000,0
1606136346.507,21.973,-28.809,-23.926,142.578,0.000,0
1606136346.511,-141.602,-44.922,-36.133,-312.012,0.000,0
1606136346.515,-155.273,-47.852,-41.016,-397.949,0.000,0
1606136346.519,1.953,-41.992,-34.180,15.137,0.000,0
1606136346.523,104.492,-41.504,-27.832,351.562,0.000,0
1606136346.527,39.062,-35.156,-19.531,183.594,0.000,0
1606136346.531,-119.141,-38.574,-26.367,-277.832,0.000,0
1606136346.535,-153.320,-34.668,-32.227,-403.809,0.000,0
1606136346.538,-0.488,-20.508,-35.645,-16.602,0.000,0
1606136346.542,104.980,-16.602,-33.203,331.055,0.000,0
1606136346.546,37.598,-27.832,-23.438,224.121,0.000,0
1606136346.550,-110.840,-33.203,-38.086,-218.750,0.000,0
1606136346.554,-156.250,-33.203,-43.457,-409.668,0.000,0
1606136346.558,-41.992,-31.738,-35.645,-87.891,0.000,0
1606136346.562,90.332,-27.832,-23.926,316.406,0.000,0
1606136346.566,68.848,-35.645,-28.320,286.133,0.000,0
1606136346.570,-92.285,-47.363,-41.992,-162.598,0.000,0
1606136346.574,-162.598,-49.805,-39.551,-407.715,0.000,0
1606136346.578,-47.852,-40.527,-30.762,-144.531,0.000,0
1606136346.581,98.633,-30.273,-26.855,291.992,0.000,0
1606136346.585,100.586,-30.273,-20.508,346.191,0.000,0
1606136346.589,-50.781,-37.598,-22.949,-90.332,0.000,0
1606136346.593,-153.809,-33.203,-29.785,-399.414,0.000,0
1606136346.597,-70.801,-21.484,-20.020,-191.406,0.000,0
1606136346.601,78.613,-20.508,-18.066,243.164,0.000,0
1606136346.605,95.215,-27.832,-30.273,335.938,0.000,0
1606136346.609,-53.711,-32.227,-42.969,-63.965,0.000,0
1606136346.613,-169.434,-40.527,-41.016,-416.016,0.000,0
1606136346.617,-95.703,-37.598,-27.832,-276.367,0.000,0
1606136346.620,66.406,-30.273,-27.344,182.129,0.000,0
1606136346.624,105.957,-26.367,-28.320,352.051,0.000,0
1606136346.628,-29.785,-26.367,-33.203,5.859,0.000,0
1606136346.632,-157.227,-36.621,-40.527,-383.789,0.000,0
1606136346.636,-113.281,-32.227,-29.297,-309.570,0.000,0
1606136346.640,48.340,-30.273,-18.555,159.668,0.000,0
1606136346.644,110.352,-31.738,-23.926,379.883,0.000,0
1606136346.648,-10.742,-21.484,-31.738,72.266,0.000,0
1606136346.652,-155.273,-30.762,-37.598,-352.051,0.000,0
1606136346.656,-134.766,-41.992,-35.156,-367.676,0.000,0
1606136346.660,26.367,-28.320,-18.555,89.355,0.000,0
1606136346.663,101.074,-20.996,-20.020,373.535,0.000,0
1606136346.667,6.348,-28.809,-30.762,138.672,0.000,0
1606136346.671,-141.602,-36.133,-34.668,-301.270,0.000,0
1606136346.675,-150.391,-31.250,-33.691,-393.066,0.000,0
1606136346.679,4.883,-30.762,-24.414,18.066,0.000,0
1606136346.683,111.816,-26.367,-30.273,352.051,0.000,0
1606136346.687,36.133,-15.625,-40.039,189.941,0.000,0
1606136346.691,-123.047,-30.273,-39.551,-261.230,0.000,0
1606136346.695,-154.785,-35.156,-35.645,-410.156,0.000,0
1606136346.699,-31.738,-30.762,-40.039,-55.664,0.000,0
1606136346.703,92.773,-25.391,-33.203,322.754,0.000,0
1606136346.706,60.059,-6.348,-26.855,246.094,0.000,0
1606136346.710,-103.027,-15.137,-37.598,-217.773,0.000,0
1606136346.714,-160.645,-39.551,-36.133,-434.082,0.000,0
1606136346.718,-35.645,-23.926,-22.461,-96.680,0.000,0
1606136346.722,94.238,-16.113,-26.367,314.941,0.000,0
1606136346.726,64.941,-24.902,-38.086,284.180,0.000,0
1606136346.730,-94.238,-31.250,-44.434,-171.387,0.000,0
1606136346.734,-170.898,-33.203,-40.039,-427.734,0.000,0
1606136346.738,-62.012,-25.391,-28.809,-152.344,0.000,0
1606136346.742,82.031,-27.832,-17.090,265.137,0.000,0
1606136346.745,79.102,-18.066,-12.695,309.570,0.000,0
1606136346.749,-83.496,-17.090,-30.273,-121.582,0.000,0
1606136346.753,-181.152,-35.156,-32.715,-432.129,0.000,0
1606136346.757,-95.215,-38.086,-24.902,-226.074,0.000,0
1606136346.761,53.711,-37.109,-33.203,211.914,0.000,0
1606136346.765,78.613,-34.668,-30.762,318.359,0.000,0
1606136346.769,-66.895,-44.434,-31.250,-67.871,0.000,0
1606136346.773,-181.152,-47.852,-39.062,-418.945,0.000,0
1606136346.777,-121.582,-36.621,-30.762,-293.457,0.000,0
1606136346.781,33.691,-24.414,-18.555,165.039,0.000,0
1606136346.785,77.148,-11.719,-22.461,354.492,0.000,0
1606136346.788,-56.152,-14.648,-26.367,17.090,0.000,0
1606136346.792,-182.129,-31.250,-28.320,-383.301,0.000,0
1606136346.796,-140.625,-34.668,-36.621,-342.285,0.000,0
1606136346.800,26.855,-31.738,-20.508,123.047,0.000,0
1606136346.804,95.215,-29.785,-18.555,358.398,0.000,0
1606136346.808,-17.090,-34.668,-41.504,51.270,0.000,0
1606136346.812,-151.367,-49.316,-38.574,-373.047,0.000,0
1606136346.816,-136.719,-42.480,-24.414,-377.441,0.000,0
1606136346.820,15.625,-32.227,-25.391,62.500,0.000,0
1606136346.824,104.004,-34.180,-20.996,349.609,0.000,0
1606136346.828,13.672,-31.738,-17.578,128.418,0.000,0
1606136346.831,-134.277,-31.738,-31.250,-312.988,0.000,0
1606136346.835,-143.555,-37.109,-33.691,-401.855,0.000,0
1606136346.839,2.441,-38.574,-31.738,2.441,0.000,0
1606136346.843,109.863,-34.180,-30.762,335.449,0.000,0
1606136346.847,40.039,-30.273,-36.133,180.664,0.000,0
1606136346.851,-120.117,-36.133,-36.621,-279.785,0.000,0
1606136346.855,-151.367,-36.133,-34.180,-432.617,0.000,0
1606136346.859,-14.648,-25.391,-27.344,-59.082,0.000,0
1606136346.863,101.562,-23.926,-22.949,323.242,0.000,0
1606136346.867,52.734,-28.809,-29.785,237.793,0.000,0
1606136346.870,-105.957,-28.320,-19.531,-218.750,0.000,0
1606136346.874,-160.645,-32.227,-13.184,-418.457,0.000,0
1606136346.878,-27.344,-30.273,-21.484,-72.754,0.000,0
1606136346.882,95.703,-20.996,-23.926,316.406,0.000,0
1606136346.886,42.969,-39.062,-32.227,252.441,0.000,0
1606136346.890,-102.051,-44.922,-43.457,-189.941,0.000,0
1606136346.894,-169.922,-37.109,-41.016,-430.664,0.000,0
1606136346.898,-74.219,-39.062,-26.367,-173.340,0.000,0
1606136346.902,73.730,-20.508,-9.766,258.789,0.000,0
1606136346.906,71.777,-12.695,-14.160,317.383,0.000,0
1606136346.910,-75.195,-26.855,-27.832,-106.934,0.000,0
1606136346.913,-165.527,-33.203,-21.484,-410.156,0.000,0
1606136346.917,-85.938,-28.809,-20.996,-221.680,0.000,0
1606136346.921,71.777,-19.043,-32.227,227.051,0.000,0
1606136346.925,100.586,-15.625,-28.320,355.469,0.000,0
1606136346.929,-38.574,-28.320,-28.809,-39.062,0.000,0
1606136346.933,-152.832,-41.016,-33.203,-393.555,0.000,0
1606136346.937,-101.562,-37.109,-31.250,-268.066,0.000,0
1606136346.941,52.246,-27.832,-30.762,184.082,0.000,0
1606136346.945,99.121,-23.438,-25.879,360.840,0.000,0
1606136346.949,-28.809,-29.785,-23.926,12.207,0.000,0
1606136346.953,-158.203,-41.016,-24.902,-382.324,0.000,0
1606136346.956,-128.418,-38.574,-31.738,-330.566,0.000,0
1606136346.960,32.715,-30.273,-33.203,123.535,0.000,0
1606136346.964,103.027,-19.043,-34.180,360.840,0.000,0
1606136346.968,-12.695,-20.508,-39.062,74.707,0.000,0
1606136346.972,-147.461,-23.926,-36.621,-335.938,0.000,0
1606136346.976,-134.277,-22.461,-34.180,-363.281,0.000,0
1606136346.980,18.555,-23.438,-31.250,69.336,0.000,0
1606136346.984,109.863,-18.066,-23.438,359.863,0.000,0
1606136346.988,19.043,-19.043,-25.879,145.508,0.000,0
1606136346.992,-139.648,-29.785,-42.480,-300.781,0.000,0
1606136346.995,-156.250,-40.039,-36.621,-403.809,0.000,0
1606136346.999,-0.977,-36.621,-26.367,5.859,0.000,0
1606136347.003,108.398,-27.344,-36.621,342.285,0.000,0
1606136347.007,44.434,-29.297,-29.785,191.895,0.000,0
1606136347.011,-112.305,-34.180,-31.738,-269.043,0.000,0
1606136347.015,-149.414,-35.156,-45.410,-413.574,0.000,0
1606136347.019,-13.184,-35.645,-34.668,-31.250,0.000,0
1606136347.023,100.586,-29.297,-24.902,326.660,0.000,0
1606136347.027,56.152,-24.902,-34.180,234.863,0.000,0
1606136347.031,-107.422,-30.273,-41.016,-224.121,0.000,0
1606136347.035,-169.434,-32.715,-42.969,-439.453,0.000,0
1606136347.038,-45.410,-33.203,-37.109,-121.582,0.000,0
1606136347.042,92.773,-29.785,-26.367,297.852,0.000,0
1606136347.046,72.754,-30.273,-21.973,280.273,0.000,0
1606136347.050,-86.914,-35.156,-28.809,-168.945,0.000,0
1606136347.054,-166.504,-36.133,-40.527,-434.570,0.000,0
1606136347.058,-62.500,-32.227,-34.668,-180.176,0.000,0
1606136347.062,77.148,-25.879,-20.508,263.672,0.000,0
1606136347.066,81.055,-22.949,-17.090,340.332,0.000,0
1606136347.070,-74.707,-30.762,-29.785,-98.145,0.000,0
1606136347.074,-179.688,-35.156,-39.062,-437.988,0.000,0
1606136347.078,-104.004,-35.645,-34.668,-249.512,0.000,0
1606136347.081,50.781,-29.297,-24.414,203.613,0.000,0
1606136347.085,84.961,-23.438,-23.438,334.473,0.000,0
1606136347.089,-52.246,-32.715,-29.785,-47.363,0.000,0
1606136347.093,-175.781,-41.504,-42.969,-419.922,0.000,0
1606136347.097,-118.164,-33.691,-41.504,-296.387,0.000,0
1606136347.101,52.246,-26.367,-23.438,178.223,0.000,0
1606136347.105,98.633,-25.879,-21.484,357.910,0.000,0
1606136347.109,-28.320,-28.809,-30.762,20.020,0.000,0
1606136347.113,-159.180,-44.922,-29.785,-371.582,0.000,0
1606136347.117,-131.836,-49.805,-20.508,-336.426,0.000,0
1606136347.120,36.133,-31.250,-11.230,120.117,0.000,0
1606136347.124,105.957,-28.320,-24.414,365.723,0.000,0
1606136347.128,-13.672,-43.457,-41.992,73.242,0.000,0
1606136347.132,-143.066,-44.922,-41.504,-330.078,0.000,0
1606136347.136,-126.465,-35.645,-32.715,-347.168,0.000,0
1606136347.140,19.531,-27.344,-23.438,71.777,0.000,0
1606136347.144,107.910,-23.438,-11.719,368.652,0.000,0
1606136347.148,18.066,-27.344,-14.648,145.996,0.000,0
1606136347.152,-130.859,-34.668,-29.785,-299.805,0.000,0
1606136347.156,-143.066,-34.668,-29.297,-391.602,0.000,0
1606136347.160,3.418,-22.461,-24.902,18.066,0.000,0
1606136347.163,111.328,-20.996,-22.949,352.539,0.000,0
1606136347.167,41.016,-25.391,-26.855,188.965,0.000,0
1606136347.171,-121.582,-25.879,-33.203,-270.020,0.000,0
1606136347.175,-156.250,-27.344,-27.344,-431.152,0.000,0
1606136347.179,-25.391,-22.461,-31.738,-72.754,0.000,0
1606136347.183,89.355,-19.531,-33.203,305.664,0.000,0
1606136347.187,43.945,-24.414,-28.320,224.609,0.000,0
1606136347.191,-120.117,-31.250,-38.086,-228.516,0.000,0
1606136347.195,-181.152,-37.109,-42.969,-437.012,0.000,0
1606136347.199,-66.406,-33.203,-34.180,-126.953,0.000,0
1606136347.203,71.777,-20.996,-26.367,288.574,0.000,0
1606136347.206,51.270,-32.715,-29.297,279.297,0.000,0
1606136347.210,-108.887,-45.410,-43.945,-178.711,0.000,0
1606136347.214,-184.082,-43.457,-44.434,-449.219,0.000,0
1606136347.218,-80.078,-38.086,-30.273,-202.637,0.000,0
1606136347.222,80.078,-19.531,-24.902,237.793,0.000,0
1606136347.226,86.914,-19.043,-27.344,305.664,0.000,0
1606136347.230,-63.965,-28.809,-30.762,-106.934,0.000,0
1606136347.234,-162.598,-36.133,-37.109,-430.664,0.000,0
1606136347.238,-92.285,-40.527,-34.668,-255.859,0.000,0
1606136347.242,69.336,-27.344,-27.344,205.078,0.000,0
1606136347.245,100.586,-20.508,-30.273,335.938,0.000,0
1606136347.249,-42.480,-28.320,-37.109,-47.363,0.000,0
1606136347.253,-152.344,-32.715,-35.156,-404.297,0.000,0
1606136347.257,-101.562,-33.203,-38.086,-287.598,0.000,0
1606136347.261,45.410,-33.203,-35.645,169.922,0.000,0
1606136347.265,99.609,-40.527,-29.297,354.492,0.000,0
1606136347.269,-17.578,-51.758,-29.785,31.738,0.000,0
1606136347.273,-147.949,-46.875,-27.832,-360.840,0.000,0
1606136347.277,-120.605,-34.180,-24.902,-330.078,0.000,0
1606136347.281,38.574,-19.531,-19.531,125.000,0.000,0
1606136347.285,111.816,-20.508,-17.578,372.559,0.000,0
1606136347.288,3.418,-29.297,-28.809,93.750,0.000,0
1606136347.292,-139.160,-38.086,-29.785,-330.566,0.000,0
1606136347.296,-129.395,-37.598,-27.832,-358.398,0.000,0
1606136347.300,14.648,-24.414,-33.691,75.684,0.000,0
1606136347.304,91.309,-29.297,-33.203,368.164,0.000,0
1606136347.308,9.277,-39.551,-27.832,152.344,0.000,0
1606136347.312,-134.277,-30.273,-25.391,-289.062,0.000,0
1606136347.316,-147.949,-21.973,-26.367,-385.254,0.000,0
1606136347.320,-6.836,-23.438,-27.344,10.254,0.000,0
1606136347.324,96.191,-22.949,-20.508,358.398,0.000,0
1606136347.328,28.320,-28.320,-20.508,215.820,0.000,0
1606136347.331,-130.371,-33.691,-31.250,-244.629,0.000,0
1606136347.335,-172.363,-33.691,-35.645,-416.504,0.000,0
1606136347.339,-43.457,-29.785,-31.250,-76.660,0.000,0
1606136347.343,84.473,-18.555,-27.832,312.500,0.000,0
1606136347.347,48.828,-16.113,-18.555,260.254,0.000,0
1606136347.351,-108.398,-38.086,-20.996,-197.266,0.000,0
1606136347.355,-168.945,-47.363,-42.480,-427.246,0.000,0
1606136347.359,-49.805,-27.344,-40.039,-127.930,0.000,0
1606136347.363,90.332,-12.207,-30.273,290.039,0.000,0
1606136347.367,68.848,-13.184,-24.902,297.852,0.000,0
1606136347.370,-94.727,-29.297,-30.762,-154.297,0.000,0
1606136347.374,-173.828,-33.691,-37.598,-432.129,0.000,0
1606136347.378,-73.242,-30.273,-34.668,-184.082,0.000,0
1606136347.382,72.754,-30.273,-23.926,253.418,0.000,0
1606136347.386,83.496,-28.320,-18.555,329.590,0.000,0
1606136347.390,-63.965,-26.855,-20.996,-77.148,0.000,0
1606136347.394,-160.156,-31.250,-12.207,-396.973,0.000,0
1606136347.398,-81.055,-32.715,-13.184,-232.910,0.000,0
1606136347.402,67.383,-26.855,-20.020,207.520,0.000,0
1606136347.406,92.285,-26.367,-20.508,349.121,0.000,0
1606136347.410,-42.969,-31.250,-21.973,-17.090,0.000,0
1606136347.413,-160.156,-36.133,-31.250,-389.648,0.000,0
1606136347.417,-109.375,-31.738,-31.250,-294.922,0.000,0
1606136347.421,51.270,-22.949,-22.461,153.809,0.000,0
1606136347.425,105.957,-30.273,-18.555,354.980,0.000,0
1606136347.429,-16.113,-39.062,-25.391,35.156,0.000,0
1606136347.433,-144.531,-37.109,-28.320,-367.188,0.000,0
1606136347.437,-119.629,-31.250,-15.137,-335.938,0.000,0
1606136347.441,34.180,-17.578,-11.719,113.281,0.000,0
1606136347.445,109.375,-16.602,-17.090,375.000,0.000,0
1606136347.449,8.789,-33.691,-10.742,105.469,0.000,0
1606136347.453,-137.695,-41.504,-22.461,-338.867,0.000,0
1606136347.456,-143.555,-35.156,-36.621,-380.859,0.000,0
1606136347.460,11.719,-24.902,-35.645,50.293,0.000,0
1606136347.464,107.910,-14.648,-37.109,357.910,0.000,0
1606136347.468,22.949,-23.438,-34.668,161.133,0.000,0
1606136347.472,-130.371,-35.645,-37.598,-279.785,0.000,0
1606136347.476,-154.785,-35.156,-33.203,-388.672,0.000,0
1606136347.480,-11.230,-28.809,-23.926,-1.953,0.000,0
1606136347.484,100.586,-22.949,-20.996,349.609,0.000,0
1606136347.488,40.039,-21.484,-24.902,223.633,0.000,0
1606136347.492,-112.305,-28.320,-22.949,-231.934,0.000,0
1606136347.495,-155.273,-36.621,-22.461,-410.156,0.000,0
1606136347.499,-28.320,-33.691,-34.668,-74.707,0.000,0
1606136347.503,102.051,-29.785,-33.203,306.152,0.000,0
1606136347.507,58.105,-32.227,-33.691,243.652,0.000,0
1606136347.511,-110.352,-41.504,-46.875,-207.031,0.000,0
1606136347.515,-178.223,-43.457,-51.270,-443.848,0.000,0
1606136347.519,-64.941,-30.762,-36.621,-160.156,0.000,0
1606136347.523,77.148,-31.250,-28.809,264.648,0.000,0
1606136347.527,58.105,-34.668,-36.133,275.391,0.000,0
1606136347.531,-91.309,-32.227,-37.109,-163.086,0.000,0
1606136347.535,-173.828,-30.762,-37.109,-438.477,0.000,0
1606136347.538,-89.355,-26.855,-26.367,-204.590,0.000,0
1606136347.542,65.918,-20.996,-19.531,229.004,0.000,0
1606136347.546,70.801,-29.785,-37.109,298.828,0.000,0
1606136347.550,-76.172,-35.645,-43.945,-101.562,0.000,0
1606136347.554,-172.852,-31.738,-44.434,-421.387,0.000,0
1606136347.558,-94.727,-28.320,-37.109,-262.695,0.000,0
1606136347.562,56.152,-20.508,-24.902,189.941,0.000,0
1606136347.566,82.031,-19.043,-18.555,344.727,0.000,0
1606136347.570,-60.059,-25.879,-29.785,-24.902,0.000,0
1606136347.574,-182.617,-32.715,-37.109,-398.438,0.000,0
1606136347.578,-126.465,-30.273,-29.297,-301.270,0.000,0
1606136347.581,41.016,-22.949,-22.949,163.086,0.000,0
1606136347.585,98.145,-25.391,-22.949,362.793,0.000,0
1606136347.589,-23.438,-34.668,-30.762,39.551,0.000,0
1606136347.593,-154.297,-38.574,-34.180,-365.234,0.000,0
1606136347.597,-135.742,-36.621,-31.738,-347.656,0.000,0
1606136347.601,22.461,-23.926,-29.297,104.980,0.000,0
1606136347.605,99.121,-26.367,-24.414,365.234,0.000,0
1606136347.609,-5.371,-37.598,-29.297,109.375,0.000,0
1606136347.613,-140.137,-29.785,-25.391,-312.988,0.000,0
1606136347.617,-133.789,-27.832,-23.926,-366.211,0.000,0
1606136347.620,13.184,-30.273,-30.762,50.781,0.000,0
1606136347.624,111.328,-25.391,-29.785,367.188,0.000,0
1606136347.628,37.109,-30.762,-21.973,193.359,0.000,0
1606136347.632,-121.094,-36.133,-19.043,-263.184,0.000,0
1606136347.636,-148.438,-35.645,-25.391,-397.461,0.000,0
1606136347.640,-2.930,-29.297,-20.996,-4.395,0.000,0
1606136347.644,105.957,-24.902,-17.090,344.238,0.000,0
1606136347.648,44.434,-30.762,-19.043,215.820,0.000,0
1606136347.652,-114.258,-33.203,-27.344,-237.305,0.000,0
1606136347.656,-177.246,-40.039,-34.180,-427.246,0.000,0
1606136347.660,-55.664,-38.086,-24.902,-80.566,0.000,0
1606136347.663,74.219,-29.297,-28.809,309.082,0.000,0
1606136347.667,51.758,-27.344,-34.668,267.090,0.000,0
1606136347.671,-90.332,-28.809,-28.809,-160.645,0.000,0
1606136347.675,-179.688,-40.039,-30.273,-410.156,0.000,0
1606136347.679,-84.473,-37.109,-26.367,-141.113,0.000,0
1606136347.683,76.660,-24.902,-17.578,291.504,0.000,0
1606136347.687,76.660,-32.227,-20.020,312.500,0.000,0
1606136347.691,-83.984,-36.133,-21.973,-128.418,0.000,0
1606136347.695,-166.992,-34.668,-30.273,-416.504,0.000,0
1606136347.699,-69.336,-33.203,-27.344,-194.824,0.000,0
1606136347.703,84.473,-24.414,-19.531,247.559,0.000,0
1606136347.706,99.121,-18.066,-25.391,339.844,0.000,0
1606136347.710,-43.457,-24.414,-27.832,-64.941,0.000,0
1606136347.714,-144.043,-35.645,-21.484,-398.926,0.000,0
1606136347.718,-75.195,-34.180,-21.484,-232.910,0.000,0
1606136347.722,80.078,-20.020,-34.668,217.285,0.000,0
1606136347.726,111.328,-30.762,-40.039,356.445,0.000,0
1606136347.730,-25.391,-54.199,-47.363,-10.254,0.000,0
1606136347.734,-149.902,-53.711,-47.363,-390.625,0.000,0
1606136347.738,-100.098,-42.969,-35.156,-304.688,0.000,0
1606136347.742,58.105,-27.832,-31.250,147.461,0.000,0
1606136347.745,120.117,-20.508,-29.297,364.746,0.000,0
1606136347.749,3.906,-22.949,-26.855,53.711,0.000,0
1606136347.753,-138.672,-29.297,-29.297,-367.188,0.000,0
1606136347.757,-121.582,-32.227,-30.273,-359.863,0.000,0
1606136347.761,27.832,-26.367,-24.902,77.148,0.000,0
1606136347.765,106.934,-21.484,-23.438,348.145,0.000,0
1606136347.769,6.348,-30.762,-30.762,109.375,0.000,0
1606136347.773,-144.531,-40.527,-34.180,-328.613,0.000,0
1606136347.777,-141.113,-34.668,-29.785,-388.184,0.000,0
1606136347.781,13.672,-29.785,-25.391,32.715,0.000,0
1606136347.785,102.539,-25.879,-32.227,351.562,0.000,0
1606136347.788,21.484,-30.273,-33.203,175.781,0.000,0
1606136347.792,-133.789,-42.480,-27.832,-270.508,0.000,0
1606136347.796,-169.922,-45.410,-33.203,-400.879,0.000,0
1606136347.800,-28.320,-35.156,-32.227,-10.254,0.000,0
1606136347.804,91.309,-28.809,-17.578,355.469,0.000,0
1606136347.808,36.621,-36.133,-16.602,229.980,0.000,0
1606136347.812,-118.652,-47.363,-24.902,-222.656,0.000,0
1606136347.816,-162.598,-47.363,-18.555,-392.578,0.000,0
1606136347.820,-39.551,-35.156,-20.508,-61.035,0.000,0
1606136347.824,79.102,-33.203,-31.738,309.570,0.000,0
1606136347.828,45.410,-41.016,-37.598,256.836,0.000,0
1606136347.831,-103.516,-40.527,-39.062,-189.453,0.000,0
1606136347.835,-161.133,-35.645,-36.621,-425.781,0.000,0
1606136347.839,-48.828,-32.227,-33.691,-142.090,0.000,0
1606136347.843,89.844,-20.020,-20.020,277.832,0.000,0
1606136347.847,80.566,-21.484,-14.160,309.570,0.000,0
1606136347.851,-74.707,-38.086,-21.973,-128.418,0.000,0
1606136347.855,-157.227,-39.062,-29.785,-420.898,0.000,0
1606136347.859,-62.012,-24.902,-24.414,-192.871,0.000,0
1606136347.863,90.820,-12.207,-18.555,250.977,0.000,0
1606136347.867,96.680,-17.578,-27.344,335.938,0.000,0
1606136347.870,-58.105,-29.785,-38.574,-80.078,0.000,0
1606136347.874,-163.574,-35.645,-37.109,-421.875,0.000,0
1606136347.878,-105.469,-34.668,-35.645,-273.926,0.000,0
1606136347.882,51.758,-25.879,-32.227,180.664,0.000,0
1606136347.886,102.051,-14.648,-19.531,348.145,0.000,0
1606136347.890,-33.203,-20.020,-19.531,-10.254,0.000,0
1606136347.894,-167.969,-38.086,-36.133,-396.484,0.000,0
1606136347.898,-132.324,-39.551,-36.133,-329.590,0.000,0
1606136347.902,24.902,-23.438,-26.367,126.465,0.000,0
1606136347.906,80.566,-17.090,-31.250,348.145,0.000,0
1606136347.910,-37.598,-25.391,-33.691,43.945,0.000,0
1606136347.913,-166.992,-28.809,-28.320,-364.746,0.000,0
1606136347.917,-147.949,-30.762,-32.715,-371.582,0.000,0
1606136347.921,4.395,-25.391,-27.832,64.941,0.000,0
1606136347.925,84.473,-21.484,-16.602,344.727,0.000,0
1606136347.929,-12.695,-35.156,-27.832,101.074,0.000,0
1606136347.933,-151.367,-41.992,-37.598,-332.520,0.000,0
1606136347.937,-151.855,-35.645,-40.039,-390.137,0.000,0
1606136347.941,-4.395,-25.879,-24.902,32.227,0.000,0
1606136347.945,95.703,-21.484,-17.090,352.539,0.000,0
1606136347.949,21.484,-28.320,-35.645,167.969,0.000,0
1606136347.953,-126.465,-32.227,-32.715,-271.973,0.000,0
1606136347.956,-146.484,-28.809,-25.391,-388.184,0.000,0
1606136347.960,-15.137,-32.715,-33.691,-24.414,0.000,0
1606136347.964,95.703,-31.250,-33.691,322.754,0.000,0
1606136347.968,42.969,-27.832,-26.855,212.402,0.000,0
1606136347.972,-118.652,-35.645,-30.762,-240.234,0.000,0
1606136347.976,-171.875,-45.898,-41.016,-436.035,0.000,0
1606136347.980,-46.387,-41.016,-41.992,-112.305,0.000,0
1606136347.984,83.008,-33.203,-24.414,288.574,0.000,0
1606136347.988,50.293,-31.250,-18.555,269.531,0.000,0
1606136347.992,-108.887,-35.156,-34.668,-182.129,0.000,0
1606136347.995,-174.316,-41.016,-40.039,-423.828,0.000,0
1606136347.999,-67.383,-33.691,-22.949,-136.719,0.000,0
1606136348.003,68.359,-20.020,-25.391,286.133,0.000,0
1606136348.007,69.336,-35.156,-28.320,329.102,0.000,0
1606136348.011,-85.449,-47.852,-24.414,-105.957,0.000,0
1606136348.015,-188.477,-39.551,-41.504,-412.109,0.000,0
1606136348.019,-101.074,-27.344,-37.109,-202.148,0.000,0
1606136348.023,54.199,-18.066,-18.555,237.793,0.000,0
1606136348.027,71.777,-19.531,-20.020,333.008,0.000,0
1606136348.031,-77.148,-21.973,-28.809,-76.660,0.000,0
1606136348.035,-187.500,-22.461,-22.949,-422.852,0.000,0
1606136348.038,-125.977,-19.043,-20.996,-273.926,0.000,0
1606136348.042,30.762,-17.090,-16.602,178.223,0.000,0
1606136348.046,81.543,-20.508,-16.602,352.539,0.000,0
1606136348.050,-56.641,-28.809,-29.297,-17.578,0.000,0
1606136348.054,-198.242,-33.203,-31.250,-438.965,0.000,0
1606136348.058,-167.480,-26.367,-28.809,-384.277,0.000,0
1606136348.062,0.488,-11.230,-22.461,75.195,0.000,0
1606136348.066,63.477,-22.949,-20.020,302.734,0.000,0
1606136348.070,-73.242,-36.133,-25.879,-20.996,0.000,0
1606136348.074,-206.543,-25.391,-23.438,-419.434,0.000,0
1606136348.078,-183.594,-13.184,-15.625,-403.320,0.000,0
1606136348.081,-36.133,-3.418,-13.672,10.742,0.000,0
1606136348.085,47.852,1.465,-14.648,276.367,0.000,0
1606136348.089,-46.875,-7.324,-18.555,28.809,0.000,0
1606136348.093,-187.012,-20.020,-22.949,-399.902,0.000,0
1606136348.097,-179.688,-24.902,-23.926,-450.195,0.000,0
1606136348.101,-33.691,-17.578,-24.902,-28.320,0.000,0
1606136348.105,71.289,-11.719,-24.414,298.828,0.000,0
1606136348.109,9.277,-36.133,-29.297,137.695,0.000,0
1606136348.113,-132.324,-41.504,-26.367,-289.062,0.000,0
1606136348.117,-163.086,-27.832,-22.949,-421.387,0.000,0
1606136348.120,-30.762,-25.391,-23.926,-49.805,0.000,0
1606136348.124,96.680,-25.391,-24.902,329.590,0.000,0
1606136348.128,60.547,-20.996,-22.461,250.000,0.000,0
1606136348.132,-92.773,-26.367,-20.996,-196.777,0.000,0
1606136348.136,-149.414,-37.109,-28.320,-399.902,0.000,0
1606136348.140,-15.137,-26.367,-25.879,-57.129,0.000,0
1606136348.144,123.047,-20.020,-17.090,342.285,0.000,0
1606136348.148,83.008,-36.133,-19.531,294.434,0.000,0
1606136348.152,-85.449,-49.805,-34.180,-153.809,0.000,0
1606136348.156,-144.043,-54.199,-40.527,-397.461,0.000,0
1606136348.160,-38.574,-41.016,-35.156,-123.047,0.000,0
1606136348.163,92.285,-29.297,-31.250,299.316,0.000,0
1606136348.167,98.145,-29.297,-29.785,334.473,0.000,0
1606136348.171,-48.828,-35.645,-24.902,-91.797,0.000,0
1606136348.175,-146.973,-40.039,-28.320,-392.090,0.000,0
1606136348.179,-65.918,-32.715,-43.457,-189.941,0.000,0
1606136348.183,90.820,-25.879,-33.203,255.371,0.000,0
1606136348.187,116.211,-27.344,-15.625,369.629,0.000,0
1606136348.191,-22.461,-31.250,-23.438,-21.973,0.000,0
1606136348.195,-132.812,-37.598,-39.062,-383.301,0.000,0
1606136348.199,-77.148,-39.062,-43.945,-264.648,0.000,0
1606136348.203,80.078,-28.809,-36.133,187.012,0.000,0
1606136348.206,127.441,-27.344,-27.832,361.816,0.000,0
1606136348.210,-10.254,-37.109,-33.691,16.602,0.000,0
1606136348.214,-139.160,-40.527,-40.527,-367.188,0.000,0
1606136348.218,-100.586,-35.156,-26.367,-305.176,0.000,0
1606136348.222,57.129,-20.508,-15.625,149.414,0.000,0
1606136348.226,120.117,-23.926,-27.344,371.094,0.000,0
1606136348.230,2.441,-40.039,-38.574,69.336,0.000,0
1606136348.234,-133.301,-40.527,-49.805,-340.820,0.000,0
1606136348.238,-116.211,-39.062,-44.434,-346.191,0.000,0
1606136348.242,42.480,-36.133,-32.715,87.891,0.000,0
1606136348.245,125.977,-32.715,-37.109,362.793,0.000,0
1606136348.249,24.902,-39.551,-41.504,125.488,0.000,0
1606136348.253,-127.441,-41.992,-40.039,-306.152,0.000,0
1606136348.257,-141.113,-39.551,-38.574,-384.277,0.000,0
1606136348.261,5.859,-35.645,-37.109,19.043,0.000,0
1606136348.265,108.887,-31.738,-32.715,348.633,0.000,0
1606136348.269,36.133,-28.320,-32.227,185.059,0.000,0
1606136348.273,-115.234,-34.668,-29.297,-261.230,0.000,0
1606136348.277,-151.367,-36.621,-20.508,-403.320,0.000,0
1606136348.281,-25.391,-30.273,-22.461,-31.738,0.000,0
1606136348.285,97.656,-22.461,-22.949,348.633,0.000,0
1606136348.288,57.617,-26.855,-24.414,243.164,0.000,0
1606136348.292,-101.562,-38.574,-33.203,-229.980,0.000,0
1606136348.296,-158.203,-42.969,-39.551,-443.359,0.000,0
1606136348.300,-36.133,-36.133,-32.227,-116.211,0.000,0
1606136348.304,88.867,-31.738,-27.344,292.969,0.000,0
1606136348.308,66.406,-38.574,-32.227,263.184,0.000,0
1606136348.312,-89.355,-38.086,-36.133,-177.246,0.000,0
1606136348.316,-168.945,-32.715,-42.969,-427.246,0.000,0
1606136348.320,-69.336,-31.250,-33.691,-173.340,0.000,0
1606136348.324,70.312,-21.973,-23.438,251.465,0.000,0
1606136348.328,71.777,-12.207,-20.020,305.664,0.000,0
1606136348.331,-77.148,-17.578,-21.484,-118.164,0.000,0
1606136348.335,-169.434,-26.855,-33.203,-441.895,0.000,0
1606136348.339,-96.680,-32.227,-36.621,-258.301,0.000,0
1606136348.343,57.617,-26.855,-24.414,194.824,0.000,0
1606136348.347,88.379,-25.879,-22.461,321.777,0.000,0
1606136348.351,-60.059,-37.598,-32.715,-76.172,0.000,0
1606136348.355,-176.758,-39.062,-34.668,-434.570,0.000,0
1606136348.359,-124.023,-40.039,-32.227,-303.711,0.000,0
1606136348.363,37.109,-29.785,-28.809,158.203,0.000,0
1606136348.367,86.426,-21.484,-22.461,339.355,0.000,0
1606136348.370,-43.945,-27.832,-31.250,-2.930,0.000,0
1606136348.374,-162.598,-31.738,-37.598,-383.789,0.000,0
1606136348.378,-125.488,-29.297,-36.133,-322.266,0.000,0
1606136348.382,31.250,-22.461,-28.809,130.371,0.000,0
1606136348.386,97.656,-23.438,-28.320,350.586,0.000,0
1606136348.390,-16.602,-29.785,-40.527,50.293,0.000,0
1606136348.394,-147.949,-33.691,-37.598,-350.586,0.000,0
1606136348.398,-133.789,-36.621,-28.320,-364.258,0.000,0
1606136348.402,16.602,-32.227,-31.738,59.570,0.000,0
1606136348.406,102.539,-27.832,-35.645,343.262,0.000,0
1606136348.410,12.695,-28.320,-29.297,135.254,0.000,0
1606136348.413,-137.695,-35.156,-32.227,-301.270,0.000,0
1606136348.417,-157.227,-40.039,-41.016,-408.691,0.000,0
1606136348.421,-6.348,-31.250,-27.832,9.277,0.000,0
1606136348.425,101.074,-21.973,-19.043,353.516,0.000,0
1606136348.429,20.020,-25.391,-26.367,185.059,0.000,0
1606136348.433,-135.742,-33.203,-35.156,-258.301,0.000,0
1606136348.437,-173.340,-37.109,-35.645,-411.133,0.000,0
1606136348.441,-36.133,-32.715,-23.926,-55.176,0.000,0
1606136348.445,89.355,-29.297,-26.367,326.172,0.000,0
1606136348.449,33.203,-33.203,-37.109,236.816,0.000,0
1606136348.453,-137.695,-43.457,-38.086,-231.445,0.000,0
1606136348.456,-188.965,-38.086,-28.320,-434.570,0.000,0
1606136348.460,-63.965,-22.949,-13.184,-105.469,0.000,0
1606136348.464,70.801,-24.902,-8.789,299.316,0.000,0
1606136348.468,43.457,-34.668,-29.297,274.414,0.000,0
1606136348.472,-116.211,-48.340,-45.410,-161.133,0.000,0
1606136348.476,-170.898,-53.223,-41.016,-415.527,0.000,0
1606136348.480,-64.453,-43.945,-28.809,-173.828,0.000,0
1606136348.484,51.758,-32.227,-21.973,230.469,0.000,0
1606136348.488,49.805,-13.184,-29.785,281.738,0.000,0
1606136348.492,-83.496,-16.113,-38.574,-107.910,0.000,0
1606136348.495,-183.105,-35.156,-38.086,-422.852,0.000,0
1606136348.499,-108.887,-33.203,-33.203,-252.930,0.000,0
1606136348.503,52.734,-23.438,-27.832,201.660,0.000,0
1606136348.507,92.773,-22.949,-25.879,326.660,0.000,0
1606136348.511,-40.039,-29.297,-26.855,-53.711,0.000,0
1606136348.515,-154.297,-29.297,-37.598,-400.391,0.000,0
1606136348.519,-95.703,-27.344,-38.574,-273.926,0.000,0
1606136348.523,63.477,-20.996,-28.809,175.293,0.000,0
1606136348.527,109.863,-23.926,-20.508,354.004,0.000,0
1606136348.531,-11.230,-37.109,-20.020,21.973,0.000,0
1606136348.535,-143.066,-37.598,-30.273,-367.188,0.000,0
1606136348.538,-133.789,-42.969,-41.016,-326.172,0.000,0
1606136348.542,24.902,-37.109,-41.016,127.441,0.000,0
1606136348.546,97.656,-25.391,-28.809,366.699,0.000,0
1606136348.550,-16.602,-28.809,-26.367,98.633,0.000,0
1606136348.554,-158.691,-34.180,-32.715,-327.637,0.000,0
1606136348.558,-152.832,-35.156,-32.715,-371.094,0.000,0
1606136348.562,7.324,-26.367,-28.320,62.988,0.000,0
1606136348.566,104.980,-31.738,-14.160,370.117,0.000,0
1606136348.570,8.789,-53.223,-25.391,147.461,0.000,0
1606136348.574,-149.902,-46.387,-43.945,-309.570,0.000,0
1606136348.578,-162.109,-40.527,-33.203,-400.391,0.000,0
1606136348.581,-17.090,-38.086,-24.414,5.859,0.000,0
1606136348.585,93.262,-30.762,-29.785,346.191,0.000,0
1606136348.589,36.621,-28.320,-29.297,206.543,0.000,0
1606136348.593,-114.258,-33.203,-31.738,-232.910,0.000,0
1606136348.597,-153.320,-37.109,-26.855,-390.625,0.000,0
1606136348.601,-21.973,-33.203,-20.996,-37.109,0.000,0
1606136348.605,100.098,-25.879,-24.414,313.477,0.000,0
1606136348.609,52.734,-26.367,-28.809,222.168,0.000,0
1606136348.613,-101.074,-33.691,-34.180,-203.125,0.000,0
1606136348.617,-159.180,-38.574,-39.551,-421.875,0.000,0
1606136348.620,-43.945,-33.691,-40.527,-124.512,0.000,0
1606136348.624,91.797,-33.691,-33.203,288.086,0.000,0
1606136348.628,67.383,-41.992,-33.691,284.180,0.000,0
1606136348.632,-83.008,-34.668,-37.109,-151.367,0.000,0
1606136348.636,-159.668,-38.086,-35.645,-419.922,0.000,0
1606136348.640,-61.035,-39.551,-29.297,-178.223,0.000,0
1606136348.644,86.426,-23.926,-28.809,253.906,0.000,0
1606136348.648,91.309,-17.090,-24.902,321.289,0.000,0
1606136348.652,-62.500,-29.297,-24.902,-95.703,0.000,0
1606136348.656,-168.457,-34.668,-32.715,-409.180,0.000,0
1606136348.660,-95.703,-22.461,-30.273,-226.562,0.000,0
1606136348.663,59.570,-12.207,-23.438,212.891,0.000,0
1606136348.667,87.891,-19.531,-22.949,336.914,0.000,0
1606136348.671,-54.199,-32.227,-30.762,-45.410,0.000,0
1606136348.675,-173.340,-38.574,-39.551,-399.414,0.000,0
1606136348.679,-121.094,-36.621,-31.250,-281.250,0.000,0
1606136348.683,46.875,-28.320,-21.973,174.805,0.000,0
1606136348.687,103.027,-37.598,-25.391,363.770,0.000,0
1606136348.691,-27.344,-43.457,-25.879,29.297,0.000,0
1606136348.695,-155.762,-32.715,-23.438,-367.188,0.000,0
1606136348.699,-129.883,-30.762,-31.250,-336.914,0.000,0
1606136348.703,26.855,-24.902,-34.668,107.910,0.000,0
1606136348.706,104.492,-20.508,-30.762,369.141,0.000,0
1606136348.710,-6.348,-32.227,-29.785,88.379,0.000,0
1606136348.714,-150.879,-42.480,-40.527,-347.168,0.000,0
1606136348.718,-143.555,-37.598,-45.410,-382.324,0.000,0
1606136348.722,11.230,-24.902,-36.133,48.828,0.000,0
1606136348.726,115.723,-11.719,-30.762,365.723,0.000,0
1606136348.730,37.598,-18.066,-29.785,157.715,0.000,0
1606136348.734,-122.559,-39.551,-31.738,-300.293,0.000,0
1606136348.738,-146.973,-30.762,-26.367,-393.555,0.000,0
1606136348.742,-3.418,-18.555,-20.020,7.324,0.000,0
1606136348.745,109.375,-21.973,-15.137,337.891,0.000,0
1606136348.749,47.363,-24.902,-20.996,204.590,0.000,0
1606136348.753,-112.305,-22.949,-40.527,-241.699,0.000,0
1606136348.757,-150.391,-24.902,-40.039,-417.480,0.000,0
1606136348.761,-23.926,-31.738,-32.715,-70.312,0.000,0
1606136348.765,91.309,-32.715,-30.273,309.082,0.000,0
1606136348.769,53.223,-43.945,-31.250,239.258,0.000,0
1606136348.773,-100.098,-42.480,-27.344,-212.402,0.000,0
1606136348.777,-170.410,-34.180,-36.133,-439.941,0.000,0
1606136348.781,-63.477,-31.738,-41.992,-149.414,0.000,0
1606136348.785,72.266,-21.484,-32.715,273.438,0.000,0
1606136348.788,57.129,-22.461,-26.855,284.668,0.000,0
1606136348.792,-99.609,-33.691,-30.273,-160.645,0.000,0
1606136348.796,-180.664,-33.203,-33.691,-425.781,0.000,0
1606136348.800,-79.590,-19.043,-20.020,-172.363,0.000,0
1606136348.804,72.266,-21.484,-19.043,251.465,0.000,0
1606136348.808,80.566,-31.738,-25.391,312.988,0.000,0
1606136348.812,-62.988,-25.391,-23.438,-100.586,0.000,0
1606136348.816,-155.762,-27.832,-36.621,-421.875,0.000,0
1606136348.820,-77.637,-29.297,-40.527,-248.047,0.000,0
1606136348.824,77.148,-24.902,-24.902,203.613,0.000,0
1606136348.828,93.262,-27.344,-19.531,336.426,0.000,0
1606136348.831,-54.688,-31.738,-22.461,-37.598,0.000,0
1606136348.835,-172.363,-33.691,-21.973,-399.902,0.000,0
1606136348.839,-123.047,-34.180,-25.879,-302.246,0.000,0
1606136348.843,40.527,-25.391,-19.531,154.785,0.000,0
1606136348.847,103.516,-24.414,-12.207,365.234,0.000,0
1606136348.851,-12.207,-33.203,-22.949,47.363,0.000,0
1606136348.855,-145.996,-37.598,-38.086,-359.375,0.000,0
1606136348.859,-123.047,-35.645,-40.527,-345.215,0.000,0
1606136348.863,41.504,-21.973,-25.879,105.469,0.000,0
1606136348.867,114.258,-15.137,-20.020,361.816,0.000,0
1606136348.870,9.277,-20.996,-20.996,97.168,0.000,0
1606136348.874,-128.418,-30.762,-23.438,-321.289,0.000,0
1606136348.878,-127.441,-34.180,-24.414,-362.305,0.000,0
1606136348.882,22.949,-31.738,-25.879,51.758,0.000,0
1606136348.886,108.398,-31.250,-31.250,345.215,0.000,0
1606136348.890,28.809,-31.250,-26.367,157.227,0.000,0
1606136348.894,-118.652,-37.109,-36.133,-275.391,0.000,0
1606136348.898,-148.926,-34.668,-38.086,-399.414,0.000,0
1606136348.902,-2.441,-15.137,-23.926,-13.184,0.000,0
1606136348.906,107.422,-17.578,-17.578,336.426,0.000,0
1606136348.910,34.668,-32.227,-27.832,209.473,0.000,0
1606136348.913,-132.324,-37.598,-34.668,-236.816,0.000,0
1606136348.917,-176.270,-39.551,-23.926,-412.109,0.000,0
1606136348.921,-37.598,-28.320,-10.742,-60.547,0.000,0
1606136348.925,88.379,-29.297,-18.555,325.195,0.000,0
1606136348.929,43.945,-36.133,-28.809,249.512,0.000,0
1606136348.933,-119.141,-38.086,-34.180,-203.125,0.000,0
1606136348.937,-182.617,-37.109,-37.598,-423.828,0.000,0
1606136348.941,-63.477,-23.926,-24.902,-120.605,0.000,0
1606136348.945,79.590,-24.414,-21.973,290.039,0.000,0
1606136348.949,64.453,-34.180,-24.414,291.016,0.000,0
