timestamps,TP9,AF7,AF8,TP10,Right AUX
1606129377.459,-0.488,0.000,0.000,-0.488,0.000
1606129377.463,0.000,0.000,0.000,0.000,0.000
1606129377.467,-0.488,-1.465,-0.977,0.488,0.000
1606129377.471,-2.441,1.465,0.977,-7.324,0.000
1606129377.475,6.836,-10.254,-9.277,26.855,0.000
1606129377.479,-31.738,-35.645,-26.855,-22.461,0.000
1606129377.483,-106.445,-41.992,-32.227,-158.691,0.000
1606129377.486,-85.938,-38.574,-31.250,-112.305,0.000
1606129377.490,4.395,-26.855,-25.391,57.129,0.000
1606129377.494,37.109,-25.879,-22.949,113.281,0.000
1606129377.498,-30.762,-33.691,-26.855,-13.184,0.000
1606129377.502,-113.281,-39.062,-29.785,-157.227,0.000
1606129377.506,-96.191,-39.551,-25.879,-126.953,0.000
1606129377.510,-0.488,-30.273,-23.926,38.086,0.000
1606129377.514,49.805,-22.461,-19.531,108.887,0.000
1606129377.518,-6.348,-26.367,-22.949,-2.441,0.000
1606129377.522,-99.609,-38.086,-35.156,-157.715,0.000
1606129377.525,-89.355,-29.785,-36.133,-147.949,0.000
1606129377.529,7.812,-20.020,-33.691,22.949,0.000
1606129377.533,56.641,-25.879,-34.668,111.816,0.000
1606129377.537,2.441,-29.297,-32.227,19.531,0.000
1606129377.541,-86.426,-33.203,-30.273,-129.883,0.000
1606129377.545,-91.309,-32.227,-32.715,-144.531,0.000
1606129377.549,-20.996,-28.320,-27.344,5.859,0.000
1606129377.553,41.992,-24.902,-23.438,104.980,0.000
1606129377.557,14.648,-31.250,-27.832,31.250,0.000
1606129377.561,-78.125,-39.062,-32.227,-127.930,0.000
1606129377.565,-100.098,-34.180,-34.668,-162.109,0.000
1606129377.568,-19.043,-27.344,-26.855,-19.531,0.000
1606129377.572,38.574,-24.902,-22.949,99.609,0.000
1606129377.576,6.348,-25.879,-29.297,54.688,0.000
1606129377.580,-77.148,-27.832,-32.227,-108.887,0.000
1606129377.584,-108.887,-30.762,-23.926,-172.363,0.000
1606129377.588,-40.527,-25.391,-19.043,-47.363,0.000
1606129377.592,30.762,-17.578,-20.020,91.797,0.000
1606129377.596,31.250,-20.508,-15.137,67.871,0.000
1606129377.600,-49.805,-22.949,-24.902,-94.238,0.000
1606129377.604,-106.934,-24.902,-29.297,-169.434,0.000
1606129377.608,-44.434,-24.902,-22.461,-64.941,0.000
1606129377.611,34.668,-21.973,-23.438,83.496,0.000
1606129377.615,29.785,-22.461,-20.996,88.379,0.000
1606129377.619,-52.246,-30.273,-25.879,-61.523,0.000
1606129377.623,-105.469,-36.621,-32.227,-155.762,0.000
1606129377.627,-63.477,-33.691,-27.832,-77.148,0.000
1606129377.631,19.531,-20.996,-21.973,74.219,0.000
1606129377.635,34.180,-20.996,-20.020,101.074,0.000
1606129377.639,-40.527,-25.879,-14.160,-37.598,0.000
1606129377.643,-104.004,-31.250,-15.625,-158.203,0.000
1606129377.647,-68.359,-29.297,-22.461,-103.027,0.000
1606129377.650,22.949,-18.066,-21.973,64.453,0.000
1606129377.654,53.711,-15.137,-20.020,110.352,0.000
1606129377.658,-22.949,-23.438,-22.949,-33.203,0.000
1606129377.662,-91.309,-34.180,-26.367,-159.668,0.000
1606129377.666,-76.660,-36.133,-20.020,-113.281,0.000
1606129377.670,-2.441,-25.391,-13.672,46.387,0.000
1606129377.674,34.668,-29.297,-16.113,108.887,0.000
1606129377.678,-37.598,-40.039,-22.949,-8.789,0.000
1606129377.682,-121.094,-42.480,-28.320,-153.809,0.000
1606129377.686,-111.328,-39.062,-27.344,-154.785,0.000
1606129377.690,-16.113,-22.461,-26.367,10.742,0.000
1606129377.693,35.156,-20.508,-30.273,98.145,0.000
1606129377.697,-18.066,-29.297,-35.156,-6.836,0.000
1606129377.701,-94.727,-32.227,-39.551,-154.297,0.000
1606129377.705,-102.051,-29.785,-34.180,-157.227,0.000
1606129377.709,-22.461,-30.273,-25.879,0.488,0.000
1606129377.713,36.133,-28.320,-26.367,109.375,0.000
1606129377.717,-4.395,-32.715,-37.109,29.785,0.000
1606129377.721,-86.914,-43.945,-41.992,-130.371,0.000
1606129377.725,-104.492,-41.992,-36.133,-159.180,0.000
1606129377.729,-30.273,-36.133,-24.902,-12.695,0.000
1606129377.733,33.691,-35.156,-18.555,105.957,0.000
1606129377.736,5.371,-33.691,-30.273,50.781,0.000
1606129377.740,-81.055,-38.086,-35.645,-115.234,0.000
1606129377.744,-104.980,-39.062,-35.156,-167.969,0.000
1606129377.748,-34.668,-30.762,-31.738,-31.250,0.000
1606129377.752,52.246,-19.043,-24.414,100.586,0.000
1606129377.756,42.969,-19.531,-23.438,67.871,0.000
1606129377.760,-63.477,-35.156,-30.762,-93.262,0.000
1606129377.764,-100.098,-39.062,-35.645,-155.273,0.000
1606129377.768,-41.504,-34.668,-34.180,-48.340,0.000
1606129377.772,32.715,-34.180,-27.344,95.215,0.000
1606129377.775,33.203,-10.742,-23.926,83.984,0.000
1606129377.779,-47.363,-8.789,-25.879,-75.684,0.000
1606129377.783,-96.191,-35.645,-27.832,-154.785,0.000
1606129377.787,-48.340,-37.109,-31.738,-69.824,0.000
1606129377.791,32.227,-28.809,-25.391,80.566,0.000
1606129377.795,45.410,-20.508,-20.020,92.773,0.000
1606129377.799,-41.992,-34.180,-35.645,-65.430,0.000
1606129377.803,-114.258,-44.434,-39.062,-176.758,0.000
1606129377.807,-76.172,-33.203,-30.762,-104.004,0.000
1606129377.811,8.301,-23.438,-28.320,58.594,0.000
1606129377.815,24.902,-27.344,-24.414,97.168,0.000
1606129377.818,-54.199,-46.875,-32.227,-43.945,0.000
1606129377.822,-117.188,-47.363,-36.133,-169.434,0.000
1606129377.826,-87.402,-30.273,-29.785,-119.629,0.000
1606129377.830,-0.977,-29.297,-24.902,40.039,0.000
1606129377.834,26.367,-32.227,-18.066,94.238,0.000
1606129377.838,-38.574,-37.109,-26.855,-30.273,0.000
1606129377.842,-112.793,-46.387,-41.992,-169.922,0.000
1606129377.846,-103.516,-49.805,-39.062,-151.855,0.000
1606129377.850,-17.578,-41.504,-32.715,9.766,0.000
1606129377.854,32.227,-33.203,-31.738,92.773,0.000
1606129377.858,-22.461,-32.715,-31.738,-7.812,0.000
1606129377.861,-113.281,-36.621,-33.691,-154.785,0.000
1606129377.865,-113.281,-36.133,-33.203,-156.738,0.000
1606129377.869,-30.762,-36.621,-34.668,-0.977,0.000
1606129377.873,26.855,-26.367,-39.551,99.121,0.000
1606129377.877,-6.348,-13.184,-40.039,17.578,0.000
1606129377.881,-86.426,-27.832,-36.621,-137.207,0.000
1606129377.885,-100.098,-37.109,-40.039,-158.691,0.000
1606129377.889,-20.996,-30.762,-40.039,-11.719,0.000
1606129377.893,36.133,-26.367,-29.785,103.027,0.000
1606129377.897,6.348,-29.297,-28.320,40.039,0.000
1606129377.900,-73.730,-31.738,-33.203,-122.070,0.000
1606129377.904,-106.934,-34.668,-37.109,-172.852,0.000
1606129377.908,-47.363,-38.574,-33.691,-41.504,0.000
1606129377.912,29.297,-27.832,-27.344,90.332,0.000
1606129377.916,12.695,-24.902,-27.832,55.664,0.000
1606129377.920,-68.359,-26.855,-33.691,-101.074,0.000
1606129377.924,-104.492,-24.902,-32.715,-166.504,0.000
1606129377.928,-41.016,-21.973,-26.855,-51.270,0.000
1606129377.932,45.410,-20.020,-23.926,90.820,0.000
1606129377.936,21.484,-28.809,-28.320,74.707,0.000
1606129377.940,-59.082,-38.574,-36.621,-85.449,0.000
1606129377.943,-104.980,-41.016,-37.598,-159.180,0.000
1606129377.947,-62.012,-41.504,-31.250,-64.453,0.000
1606129377.951,22.461,-33.691,-25.391,85.449,0.000
1606129377.955,25.391,-24.414,-23.926,96.680,0.000
1606129377.959,-61.523,-33.203,-27.344,-67.383,0.000
1606129377.963,-118.164,-47.852,-33.691,-170.898,0.000
1606129377.967,-72.266,-45.410,-31.738,-89.355,0.000
1606129377.971,12.695,-40.527,-25.391,71.777,0.000
1606129377.975,29.785,-39.551,-25.391,98.633,0.000
1606129377.979,-41.504,-39.062,-32.715,-46.387,0.000
1606129377.983,-109.375,-42.480,-36.133,-161.621,0.000
1606129377.986,-82.031,-41.992,-30.762,-96.191,0.000
1606129377.990,2.930,-31.738,-26.855,68.848,0.000
1606129377.994,30.273,-28.809,-24.414,117.188,0.000
1606129377.998,-26.367,-37.109,-22.949,-9.277,0.000
1606129378.002,-100.098,-48.340,-32.227,-146.973,0.000
1606129378.006,-92.773,-45.898,-39.551,-124.023,0.000
1606129378.010,-3.906,-37.109,-33.691,38.574,0.000
1606129378.014,33.203,-33.203,-23.438,107.910,0.000
1606129378.018,-23.926,-36.621,-24.414,-5.859,0.000
1606129378.022,-94.727,-41.504,-30.273,-146.484,0.000
1606129378.025,-91.797,-36.133,-30.762,-138.672,0.000
1606129378.029,2.441,-21.973,-25.879,25.879,0.000
1606129378.033,52.734,-17.090,-20.996,116.699,0.000
1606129378.037,-3.418,-22.461,-21.973,19.531,0.000
1606129378.041,-82.031,-27.344,-30.762,-135.254,0.000
1606129378.045,-83.008,-31.250,-31.738,-141.113,0.000
1606129378.049,-2.930,-33.691,-19.043,6.836,0.000
1606129378.053,45.898,-31.738,-17.578,104.492,0.000
1606129378.057,4.883,-25.879,-26.855,36.621,0.000
1606129378.061,-78.125,-27.344,-32.715,-121.094,0.000
1606129378.065,-103.516,-35.156,-34.668,-158.691,0.000
1606129378.068,-39.062,-34.180,-26.367,-20.996,0.000
1606129378.072,25.391,-33.691,-23.926,98.633,0.000
1606129378.076,9.766,-31.738,-26.855,57.129,0.000
1606129378.080,-62.012,-32.227,-25.879,-104.004,0.000
1606129378.084,-92.773,-34.180,-26.367,-164.551,0.000
1606129378.088,-37.598,-33.203,-25.879,-38.574,0.000
1606129378.092,45.410,-24.414,-17.578,102.051,0.000
1606129378.096,29.297,-20.508,-18.066,71.777,0.000
1606129378.100,-74.707,-32.227,-29.785,-98.633,0.000
1606129378.104,-114.258,-35.156,-31.738,-168.945,0.000
1606129378.108,-54.688,-27.832,-32.715,-60.059,0.000
1606129378.111,27.344,-21.484,-32.227,82.031,0.000
1606129378.115,24.902,-27.832,-32.227,71.777,0.000
1606129378.119,-54.688,-39.062,-35.645,-90.332,0.000
1606129378.123,-93.262,-37.109,-31.738,-174.316,0.000
1606129378.127,-48.828,-38.086,-28.320,-75.195,0.000
1606129378.131,31.250,-30.273,-23.926,83.008,0.000
1606129378.135,42.480,-18.066,-24.902,104.980,0.000
1606129378.139,-38.086,-18.066,-30.273,-42.969,0.000
1606129378.143,-103.027,-26.367,-34.668,-165.039,0.000
1606129378.147,-66.406,-29.297,-33.691,-98.633,0.000
1606129378.150,21.973,-23.926,-24.902,62.988,0.000
1606129378.154,49.805,-4.883,-23.438,98.633,0.000
1606129378.158,-15.137,-3.906,-23.438,-28.809,0.000
1606129378.162,-93.750,-29.785,-17.090,-151.367,0.000
1606129378.166,-75.195,-31.738,-21.973,-108.887,0.000
1606129378.170,7.324,-28.320,-23.926,55.176,0.000
1606129378.174,42.969,-26.367,-16.113,107.422,0.000
1606129378.178,-12.695,-27.832,-21.484,-13.184,0.000
1606129378.182,-89.844,-30.273,-28.809,-148.438,0.000
1606129378.186,-80.566,-27.344,-27.832,-131.348,0.000
1606129378.190,2.441,-25.879,-21.973,28.320,0.000
1606129378.193,41.992,-24.414,-21.484,104.492,0.000
1606129378.197,-6.348,-24.414,-22.949,4.395,0.000
1606129378.201,-83.984,-32.227,-23.438,-138.672,0.000
1606129378.205,-92.285,-31.250,-18.555,-134.766,0.000
1606129378.209,-14.648,-22.949,-13.184,22.949,0.000
1606129378.213,40.039,-18.555,-14.648,119.629,0.000
1606129378.217,-2.441,-19.531,-23.438,39.551,0.000
1606129378.221,-91.309,-32.715,-30.273,-117.188,0.000
1606129378.225,-106.934,-34.180,-25.879,-146.973,0.000
1606129378.229,-19.043,-18.066,-20.020,7.324,0.000
1606129378.233,46.387,-14.648,-12.695,127.930,0.000
1606129378.236,14.160,-21.973,-18.066,54.199,0.000
1606129378.240,-67.871,-29.297,-25.391,-114.258,0.000
1606129378.244,-94.238,-36.621,-20.996,-162.109,0.000
1606129378.248,-19.043,-27.344,-14.160,-29.785,0.000
1606129378.252,52.246,-22.949,-16.113,100.098,0.000
1606129378.256,27.344,-29.297,-23.438,58.594,0.000
1606129378.260,-62.500,-33.691,-28.320,-108.398,0.000
1606129378.264,-98.145,-37.598,-27.832,-172.363,0.000
1606129378.268,-41.992,-34.668,-28.809,-54.688,0.000
1606129378.272,37.109,-22.461,-22.949,88.379,0.000
1606129378.275,39.062,-16.113,-18.066,75.195,0.000
1606129378.279,-52.734,-26.367,-27.832,-93.262,0.000
1606129378.283,-107.422,-33.203,-31.250,-179.688,0.000
1606129378.287,-56.641,-29.297,-19.531,-76.660,0.000
1606129378.291,31.250,-25.391,-20.020,71.777,0.000
1606129378.295,47.363,-20.020,-28.320,91.797,0.000
1606129378.299,-21.973,-26.855,-32.227,-59.082,0.000
1606129378.303,-91.797,-37.598,-38.086,-173.828,0.000
1606129378.307,-60.547,-30.762,-34.668,-97.168,0.000
1606129378.311,36.133,-13.672,-24.902,66.895,0.000
1606129378.315,54.199,-11.230,-20.508,102.539,0.000
1606129378.318,-24.902,-20.996,-23.438,-42.480,0.000
1606129378.322,-94.727,-31.738,-26.367,-164.062,0.000
1606129378.326,-74.219,-26.855,-18.555,-101.074,0.000
1606129378.330,4.883,-20.020,-20.508,56.152,0.000
1606129378.334,32.715,-22.949,-29.297,95.703,0.000
1606129378.338,-36.621,-29.297,-33.691,-33.691,0.000
1606129378.342,-104.980,-35.156,-31.250,-167.480,0.000
1606129378.346,-78.125,-29.785,-26.367,-131.836,0.000
1606129378.350,0.488,-25.879,-27.344,29.785,0.000
1606129378.354,39.062,-20.020,-21.973,102.539,0.000
1606129378.358,-18.066,-27.344,-20.508,-1.953,0.000
1606129378.361,-110.840,-37.598,-24.414,-149.902,0.000
1606129378.365,-97.656,-29.785,-21.484,-141.602,0.000
1606129378.369,-8.301,-24.414,-23.438,19.043,0.000
1606129378.373,45.410,-20.508,-21.973,109.375,0.000
1606129378.377,-1.465,-22.461,-24.414,19.043,0.000
1606129378.381,-87.891,-32.715,-37.109,-140.625,0.000
1606129378.385,-94.238,-34.668,-37.598,-160.645,0.000
1606129378.389,-17.090,-24.902,-29.785,-3.418,0.000
1606129378.393,41.016,-17.090,-28.809,105.957,0.000
1606129378.397,19.531,-22.949,-25.879,43.945,0.000
1606129378.400,-63.965,-27.344,-25.391,-111.816,0.000
1606129378.404,-102.539,-26.367,-25.391,-162.109,0.000
1606129378.408,-29.785,-24.414,-24.414,-29.297,0.000
1606129378.412,44.434,-15.625,-19.043,97.656,0.000
1606129378.416,12.207,-18.555,-18.066,51.270,0.000
1606129378.420,-79.102,-28.809,-26.367,-111.816,0.000
1606129378.424,-110.352,-26.367,-29.297,-166.992,0.000
1606129378.428,-42.480,-24.902,-23.926,-47.363,0.000
1606129378.432,32.227,-20.508,-16.602,96.191,0.000
1606129378.436,20.508,-14.648,-20.996,78.613,0.000
1606129378.440,-65.430,-24.902,-30.273,-89.844,0.000
1606129378.443,-116.699,-37.109,-34.180,-171.387,0.000
1606129378.447,-63.965,-33.203,-29.785,-67.871,0.000
1606129378.451,22.461,-23.926,-20.020,84.961,0.000
1606129378.455,14.648,-20.996,-21.484,86.426,0.000
1606129378.459,-67.383,-33.203,-24.414,-73.730,0.000
1606129378.463,-100.098,-37.598,-21.973,-160.156,0.000
1606129378.467,-57.617,-27.832,-31.250,-74.219,0.000
1606129378.471,26.855,-16.113,-31.250,69.336,0.000
1606129378.475,45.898,-3.418,-30.762,82.520,0.000
1606129378.479,-28.809,-9.277,-44.922,-67.871,0.000
1606129378.483,-98.633,-18.555,-49.805,-178.223,0.000
1606129378.486,-79.102,-17.578,-47.852,-115.234,0.000
1606129378.490,9.277,-14.648,-52.246,41.504,0.000
1606129378.494,40.527,-14.160,-57.617,83.984,0.000
1606129378.498,-22.461,-20.996,-59.082,-40.527,0.000
1606129378.502,-69.336,-21.973,-62.012,-157.227,0.000
1606129378.506,-49.316,-22.461,-53.223,-115.723,0.000
1606129378.510,23.438,-18.555,-45.410,44.922,0.000
1606129378.514,67.383,-1.953,-43.945,114.258,0.000
1606129378.518,3.906,2.441,-42.969,-2.930,0.000
1606129378.522,-81.055,-20.996,-56.152,-154.297,0.000
1606129378.525,-75.684,-30.762,-55.176,-135.742,0.000
1606129378.529,15.137,-23.438,-43.945,32.227,0.000
1606129378.533,64.941,-21.484,-40.527,112.305,0.000
1606129378.537,10.742,-26.855,-44.434,9.766,0.000
1606129378.541,-70.801,-32.227,-47.852,-133.789,0.000
1606129378.545,-69.824,-34.668,-47.852,-136.719,0.000
1606129378.549,6.348,-28.809,-41.016,18.066,0.000
1606129378.553,58.105,-19.531,-36.133,120.605,0.000
1606129378.557,17.578,-19.043,-39.062,36.133,0.000
1606129378.561,-68.359,-22.461,-39.551,-122.070,0.000
1606129378.565,-84.961,-24.902,-38.086,-153.809,0.000
1606129378.568,-2.930,-26.367,-34.668,-11.230,0.000
1606129378.572,67.871,-18.555,-30.273,110.352,0.000
1606129378.576,28.320,-10.742,-29.297,51.270,0.000
1606129378.580,-59.082,-18.066,-29.297,-109.375,0.000
1606129378.584,-80.078,-29.785,-32.227,-156.250,0.000
1606129378.588,-11.719,-31.738,-38.574,-26.855,0.000
1606129378.592,62.012,-24.902,-35.156,113.770,0.000
1606129378.596,40.039,-27.344,-31.738,80.566,0.000
1606129378.600,-51.758,-34.668,-32.227,-88.379,0.000
1606129378.604,-80.566,-29.785,-27.344,-155.273,0.000
1606129378.608,-13.672,-18.066,-20.996,-34.180,0.000
1606129378.611,64.453,-17.090,-17.578,112.793,0.000
1606129378.615,53.223,-7.812,-26.367,90.332,0.000
1606129378.619,-39.551,-3.906,-31.250,-71.777,0.000
1606129378.623,-82.031,-31.250,-33.691,-153.809,0.000
1606129378.627,-31.738,-28.809,-32.227,-61.035,0.000
1606129378.631,34.668,-21.973,-22.461,91.309,0.000
1606129378.635,37.598,-31.250,-25.879,101.562,0.000
1606129378.639,-42.480,-32.227,-34.668,-50.781,0.000
1606129378.643,-99.609,-34.180,-38.574,-158.203,0.000
1606129378.647,-58.105,-32.227,-35.645,-89.844,0.000
1606129378.650,34.668,-23.438,-28.809,72.754,0.000
1606129378.654,55.664,-5.859,-27.832,107.422,0.000
1606129378.658,-23.926,-14.160,-29.297,-38.086,0.000
1606129378.662,-91.797,-40.039,-27.832,-163.574,0.000
1606129378.666,-69.336,-38.574,-24.902,-113.770,0.000
1606129378.670,21.973,-25.391,-19.531,57.129,0.000
1606129378.674,55.176,-19.531,-22.949,106.445,0.000
1606129378.678,-12.207,-28.320,-29.297,-27.832,0.000
1606129378.682,-79.590,-32.715,-27.832,-157.227,0.000
1606129378.686,-60.547,-25.391,-27.832,-121.582,0.000
1606129378.690,21.973,-23.926,-28.809,46.387,0.000
1606129378.693,68.848,-22.949,-21.484,124.023,0.000
1606129378.697,12.207,-26.855,-21.484,18.555,0.000
1606129378.701,-83.496,-38.574,-28.320,-134.766,0.000
1606129378.705,-87.402,-34.668,-31.738,-138.184,0.000
1606129378.709,-4.883,-29.297,-32.715,20.020,0.000
1606129378.713,47.363,-28.320,-28.809,108.887,0.000
1606129378.717,2.930,-13.184,-29.297,17.090,0.000
1606129378.721,-84.961,-25.391,-37.598,-138.672,0.000
1606129378.725,-112.793,-42.969,-36.621,-157.227,0.000
1606129378.729,-27.344,-32.715,-22.949,-0.977,0.000
1606129378.733,45.898,-25.391,-24.902,109.863,0.000
1606129378.736,-1.465,-32.227,-39.551,32.715,0.000
1606129378.740,-88.379,-42.480,-40.039,-137.207,0.000
1606129378.744,-106.934,-40.039,-26.855,-169.922,0.000
1606129378.748,-34.180,-36.133,-25.391,-20.996,0.000
1606129378.752,38.086,-34.180,-29.297,99.609,0.000
1606129378.756,17.090,-26.855,-29.785,48.828,0.000
1606129378.760,-74.219,-35.156,-36.133,-121.094,0.000
1606129378.764,-106.445,-38.574,-37.598,-176.758,0.000
1606129378.768,-42.480,-32.227,-32.715,-50.781,0.000
1606129378.772,28.809,-30.762,-27.344,85.938,0.000
1606129378.775,19.531,-32.227,-26.855,67.871,0.000
1606129378.779,-62.500,-39.062,-31.250,-92.773,0.000
1606129378.783,-91.309,-44.922,-37.598,-175.781,0.000
1606129378.787,-46.875,-41.992,-36.133,-77.148,0.000
1606129378.791,19.043,-34.668,-27.344,72.754,0.000
1606129378.795,27.344,-20.996,-33.691,72.266,0.000
1606129378.799,-49.805,-17.578,-41.016,-83.496,0.000
1606129378.803,-105.957,-36.621,-37.598,-177.734,0.000
1606129378.807,-73.242,-42.480,-33.691,-96.191,0.000
1606129378.811,16.602,-27.832,-34.180,66.406,0.000
1606129378.815,38.086,-25.879,-37.598,92.773,0.000
1606129378.818,-43.945,-39.062,-37.109,-57.617,0.000
1606129378.822,-114.258,-51.270,-41.992,-173.340,0.000
1606129378.826,-83.984,-46.387,-43.945,-111.328,0.000
1606129378.830,5.371,-33.691,-30.273,55.176,0.000
1606129378.834,33.203,-28.320,-20.996,100.586,0.000
1606129378.838,-38.086,-33.203,-28.809,-37.109,0.000
1606129378.842,-110.840,-37.598,-32.227,-163.574,0.000
1606129378.846,-92.285,-40.527,-24.902,-125.977,0.000
1606129378.850,-5.859,-35.156,-21.973,35.645,0.000
1606129378.854,28.809,-26.367,-25.391,100.098,0.000
1606129378.858,-27.832,-27.344,-25.879,-19.531,0.000
1606129378.861,-102.051,-34.668,-29.297,-157.715,0.000
1606129378.865,-95.703,-38.574,-32.715,-147.461,0.000
1606129378.869,-5.859,-36.133,-30.762,9.766,0.000
1606129378.873,41.016,-25.879,-26.367,97.168,0.000
1606129378.877,-12.207,-27.344,-25.391,-2.930,0.000
1606129378.881,-95.215,-40.039,-30.273,-152.832,0.000
1606129378.885,-96.191,-40.039,-27.344,-152.344,0.000
1606129378.889,-11.719,-32.715,-27.344,6.348,0.000
1606129378.893,43.457,-23.438,-27.832,114.746,0.000
1606129378.897,2.441,-6.348,-27.832,33.203,0.000
1606129378.900,-84.473,-18.066,-30.762,-129.395,0.000
1606129378.904,-95.703,-30.762,-26.855,-148.926,0.000
1606129378.908,-16.602,-25.879,-22.461,-4.395,0.000
1606129378.912,46.875,-25.391,-19.531,106.445,0.000
1606129378.916,28.320,-24.902,-22.461,51.270,0.000
1606129378.920,-71.289,-37.598,-31.250,-114.746,0.000
1606129378.924,-114.746,-44.922,-35.156,-166.016,0.000
1606129378.928,-34.180,-34.668,-27.832,-32.227,0.000
1606129378.932,40.527,-28.320,-21.973,102.539,0.000
1606129378.936,26.855,-20.996,-29.785,67.383,0.000
1606129378.940,-62.500,-30.762,-32.715,-102.051,0.000
1606129378.943,-105.957,-42.969,-26.855,-168.457,0.000
1606129378.947,-45.898,-34.668,-22.949,-55.176,0.000
1606129378.951,34.668,-24.902,-17.090,90.332,0.000
1606129378.955,33.691,-25.391,-16.602,83.008,0.000
1606129378.959,-46.875,-35.156,-24.414,-82.520,0.000
1606129378.963,-93.262,-44.434,-28.320,-174.805,0.000
1606129378.967,-41.992,-37.598,-29.297,-80.078,0.000
1606129378.971,45.898,-26.367,-22.461,84.473,0.000
1606129378.975,42.480,-24.902,-19.531,88.379,0.000
1606129378.979,-56.152,-35.156,-28.809,-70.801,0.000
1606129378.983,-105.957,-37.109,-27.832,-160.156,0.000
1606129378.986,-54.688,-26.367,-19.043,-89.844,0.000
1606129378.990,31.738,-26.367,-20.020,68.359,0.000
1606129378.994,47.363,-12.207,-22.461,103.027,0.000
1606129378.998,-33.691,-5.371,-22.461,-35.645,0.000
1606129379.002,-98.633,-29.785,-22.461,-156.738,0.000
1606129379.006,-68.359,-35.645,-20.508,-113.281,0.000
1606129379.010,-2.930,-31.250,-20.996,48.828,0.000
1606129379.014,19.043,-27.832,-21.973,102.051,0.000
1606129379.018,-37.109,-31.250,-25.391,-29.785,0.000
1606129379.022,-105.469,-32.715,-24.902,-163.086,0.000
1606129379.025,-86.914,-28.320,-27.344,-131.836,0.000
1606129379.029,0.000,-24.414,-29.297,35.156,0.000
1606129379.033,37.598,-19.531,-27.344,106.445,0.000
1606129379.037,-19.531,-22.461,-30.762,1.953,0.000
1606129379.041,-103.516,-38.086,-32.715,-143.555,0.000
1606129379.045,-106.934,-41.016,-31.250,-148.926,0.000
1606129379.049,-20.508,-32.227,-30.273,11.230,0.000
1606129379.053,41.992,-19.043,-19.043,114.258,0.000
1606129379.057,2.441,-21.973,-17.578,24.414,0.000
1606129379.061,-86.426,-33.203,-23.926,-134.766,0.000
1606129379.065,-100.586,-38.574,-21.484,-146.973,0.000
1606129379.068,-14.160,-35.645,-24.902,0.977,0.000
1606129379.072,62.500,-21.973,-33.691,109.375,0.000
1606129379.076,33.203,-23.438,-27.832,55.664,0.000
1606129379.080,-63.477,-39.551,-21.973,-106.445,0.000
1606129379.084,-100.098,-40.527,-24.902,-163.574,0.000
1606129379.088,-39.551,-30.762,-13.184,-32.227,0.000
1606129379.092,14.648,-23.926,0.000,96.680,0.000
1606129379.096,-6.348,-29.785,-1.465,51.758,0.000
1606129379.100,-99.121,-43.457,-8.301,-124.023,0.000
1606129379.104,-145.996,-50.781,-9.766,-195.801,0.000
1606129379.108,-80.078,-45.898,0.977,-70.312,0.000
1606129379.111,3.906,-30.762,7.324,72.754,0.000
1606129379.115,-3.418,-30.273,5.371,49.805,0.000
1606129379.119,-90.820,-45.898,-2.930,-116.699,0.000
1606129379.123,-135.742,-44.922,-12.207,-192.871,0.000
1606129379.127,-86.914,-43.945,-13.672,-92.773,0.000
1606129379.131,-3.906,-44.922,-10.254,55.176,0.000
1606129379.135,9.766,-35.645,-8.789,68.359,0.000
1606129379.139,-66.406,-36.621,-13.672,-81.543,0.000
1606129379.143,-120.605,-50.293,-18.555,-178.711,0.000
1606129379.147,-74.219,-48.340,-16.113,-92.773,0.000
1606129379.150,13.672,-34.668,-7.812,67.871,0.000
1606129379.154,29.785,-30.762,-7.812,97.168,0.000
1606129379.158,-38.086,-38.086,-14.648,-41.016,0.000
1606129379.162,-106.445,-45.410,-18.066,-156.738,0.000
1606129379.166,-70.312,-42.480,-16.602,-101.074,0.000
1606129379.170,25.391,-30.762,-12.207,61.523,0.000
1606129379.174,39.062,-26.367,-14.160,102.051,0.000
1606129379.178,-23.926,-26.367,-16.113,-25.879,0.000
1606129379.182,-96.680,-38.574,-21.973,-152.344,0.000
1606129379.186,-89.844,-44.922,-23.438,-121.582,0.000
1606129379.190,-2.441,-31.738,-17.578,47.363,0.000
1606129379.193,36.133,-28.809,-19.531,113.770,0.000
1606129379.197,-21.484,-37.598,-26.367,-0.977,0.000
1606129379.201,-93.262,-44.434,-24.902,-135.742,0.000
1606129379.205,-84.473,-46.387,-23.926,-123.047,0.000
1606129379.209,0.000,-40.039,-18.555,36.133,0.000
1606129379.213,42.480,-26.855,-7.324,129.883,0.000
1606129379.217,-7.812,-24.902,-19.531,32.227,0.000
1606129379.221,-92.773,-45.898,-26.855,-131.348,0.000
1606129379.225,-99.609,-49.316,-20.020,-137.695,0.000
1606129379.229,-16.602,-38.086,-20.996,14.160,0.000
1606129379.233,40.039,-30.273,-17.090,104.492,0.000
1606129379.236,-3.418,-30.273,-16.602,29.297,0.000
1606129379.240,-85.938,-45.410,-27.832,-127.930,0.000
1606129379.244,-87.891,-45.898,-23.926,-155.762,0.000
1606129379.248,-16.113,-32.715,-16.602,-3.418,0.000
1606129379.252,42.480,-30.273,-17.578,115.723,0.000
1606129379.256,24.902,-28.809,-22.949,62.500,0.000
1606129379.260,-57.129,-29.297,-29.297,-96.191,0.000
1606129379.264,-86.914,-34.668,-30.273,-145.508,0.000
1606129379.268,-20.996,-32.227,-24.414,-20.996,0.000
1606129379.272,48.828,-28.809,-22.949,107.910,0.000
1606129379.275,31.250,-22.949,-24.414,77.637,0.000
1606129379.279,-64.941,-21.484,-30.273,-89.355,0.000
1606129379.283,-111.816,-37.109,-37.109,-167.480,0.000
1606129379.287,-51.758,-36.133,-29.297,-53.223,0.000
1606129379.291,32.715,-22.949,-20.508,95.703,0.000
1606129379.295,36.133,-17.578,-16.602,92.773,0.000
1606129379.299,-49.316,-26.855,-18.066,-65.918,0.000
1606129379.303,-103.516,-34.668,-22.461,-157.715,0.000
1606129379.307,-57.129,-29.297,-23.926,-58.594,0.000
1606129379.311,25.879,-20.020,-20.996,85.938,0.000
1606129379.315,41.016,-14.648,-29.297,81.055,0.000
1606129379.318,-43.945,-26.855,-38.086,-76.172,0.000
1606129379.322,-102.051,-35.645,-33.691,-179.688,0.000
1606129379.326,-52.246,-25.391,-29.297,-100.586,0.000
1606129379.330,38.574,-21.484,-22.949,58.594,0.000
1606129379.334,54.688,-24.902,-21.973,96.191,0.000
1606129379.338,-19.531,-28.320,-25.391,-34.668,0.000
1606129379.342,-89.844,-30.762,-23.926,-152.832,0.000
1606129379.346,-76.660,-34.180,-27.832,-108.887,0.000
1606129379.350,12.695,-26.367,-28.320,47.852,0.000
1606129379.354,53.223,-19.531,-22.949,105.469,0.000
1606129379.358,-17.090,-24.414,-23.438,-17.090,0.000
1606129379.361,-97.656,-31.250,-27.832,-154.297,0.000
1606129379.365,-79.102,-25.391,-31.250,-128.418,0.000
1606129379.369,9.766,-24.414,-25.391,35.156,0.000
1606129379.373,43.945,-17.090,-19.531,113.770,0.000
1606129379.377,-1.953,-13.184,-27.344,9.766,0.000
1606129379.381,-81.543,-37.109,-33.203,-132.324,0.000
1606129379.385,-97.168,-45.410,-32.715,-141.113,0.000
1606129379.389,-14.160,-30.273,-26.855,12.695,0.000
1606129379.393,39.551,-22.461,-14.160,112.305,0.000
1606129379.397,-5.371,-30.273,-15.625,25.879,0.000
1606129379.400,-82.520,-33.203,-28.320,-123.535,0.000
1606129379.404,-92.285,-30.273,-33.203,-142.578,0.000
1606129379.408,-18.555,-25.879,-30.762,-0.977,0.000
1606129379.412,45.898,-25.391,-25.879,105.469,0.000
1606129379.416,13.184,-26.855,-24.414,42.969,0.000
1606129379.420,-63.965,-30.273,-25.879,-106.445,0.000
1606129379.424,-86.426,-29.785,-31.250,-145.508,0.000
1606129379.428,-22.949,-20.996,-30.762,-20.020,0.000
1606129379.432,46.387,-17.578,-27.832,103.516,0.000
1606129379.436,22.461,-23.926,-31.738,61.523,0.000
1606129379.440,-62.988,-24.902,-35.156,-100.098,0.000
1606129379.443,-102.051,-28.320,-35.645,-162.109,0.000
1606129379.447,-41.992,-24.902,-31.738,-51.270,0.000
1606129379.451,41.992,-13.184,-20.996,89.355,0.000
1606129379.455,43.945,-0.488,-15.137,79.102,0.000
1606129379.459,-26.855,-3.906,-21.484,-90.820,0.000
1606129379.463,-99.609,-25.879,-30.273,-179.688,0.000
1606129379.467,-79.590,-28.809,-32.715,-88.867,0.000
1606129379.471,8.301,-19.043,-20.020,51.758,0.000
1606129379.475,0.977,-18.555,-12.207,48.828,0.000
1606129379.479,-94.238,-24.902,-17.578,-114.258,0.000
1606129379.483,-155.273,-23.438,-23.438,-222.656,0.000
1606129379.486,-130.859,-21.484,-17.090,-155.762,0.000
1606129379.490,-57.129,-17.090,-6.348,-8.301,0.000
1606129379.494,-50.781,-6.348,-2.441,11.719,0.000
1606129379.498,-128.418,-3.418,-1.465,-133.301,0.000
1606129379.502,-205.566,-12.695,-3.906,-270.020,0.000
1606129379.506,-188.477,-12.695,1.465,-226.562,0.000
1606129379.510,-102.051,-8.301,2.930,-70.801,0.000
1606129379.514,-84.473,-8.789,5.371,-33.203,0.000
1606129379.518,-154.297,-8.789,4.883,-158.203,0.000
1606129379.522,-225.098,-9.277,-6.836,-282.715,0.000
1606129379.525,-199.219,-10.254,-7.812,-248.535,0.000
1606129379.529,-109.863,-9.277,-2.441,-91.309,0.000
1606129379.533,-82.031,-6.348,2.930,-25.879,0.000
1606129379.537,-142.090,-10.742,6.348,-136.719,0.000
1606129379.541,-220.703,-17.090,1.953,-272.461,0.000
1606129379.545,-211.914,-8.301,1.465,-250.488,0.000
1606129379.549,-122.559,-5.371,6.348,-87.891,0.000
1606129379.553,-74.707,-8.301,6.836,-10.254,0.000
1606129379.557,-124.512,-12.207,5.859,-106.934,0.000
1606129379.561,-209.473,-18.555,1.465,-249.023,0.000
1606129379.565,-218.262,-17.578,1.465,-256.836,0.000
1606129379.568,-139.160,-12.207,8.301,-106.934,0.000
1606129379.572,-86.426,-10.254,4.395,-6.348,0.000
1606129379.576,-118.164,-13.184,-4.395,-71.289,0.000
1606129379.580,-187.012,-20.996,-5.371,-215.820,0.000
1606129379.584,-207.520,-27.832,-5.371,-247.070,0.000
1606129379.588,-143.066,-25.391,-4.395,-111.816,0.000
1606129379.592,-85.938,-20.508,-0.977,8.301,0.000
1606129379.596,-113.281,-24.414,1.465,-42.969,0.000
1606129379.600,-186.523,-39.551,1.465,-202.148,0.000
1606129379.604,-205.078,-39.551,-5.371,-247.559,0.000
1606129379.608,-136.719,-30.273,-7.324,-123.535,0.000
1606129379.611,-62.988,-25.879,-0.488,11.230,0.000
1606129379.615,-65.430,-28.809,0.488,-8.301,0.000
1606129379.619,-147.461,-39.551,-4.883,-165.527,0.000
1606129379.623,-183.594,-41.992,-5.859,-230.469,0.000
1606129379.627,-119.141,-34.668,0.000,-114.258,0.000
1606129379.631,-30.273,-23.926,6.836,30.762,0.000
1606129379.635,-20.508,-21.484,9.766,28.320,0.000
1606129379.639,-102.051,-27.344,1.465,-123.047,0.000
1606129379.643,-157.227,-31.738,-7.324,-214.844,0.000
1606129379.647,-112.305,-25.879,-3.418,-129.395,0.000
1606129379.650,-26.855,-21.484,-0.488,22.949,0.000
1606129379.654,-17.090,-20.508,-4.883,46.387,0.000
1606129379.658,-86.426,-21.973,-11.719,-85.449,0.000
1606129379.662,-138.184,-32.715,-14.160,-191.406,0.000
1606129379.666,-110.840,-35.645,-7.324,-132.324,0.000
1606129379.670,-22.949,-24.902,-6.348,28.320,0.000
1606129379.674,4.395,-17.578,-11.719,69.336,0.000
1606129379.678,-61.523,-21.973,-19.531,-69.336,0.000
1606129379.682,-119.629,-23.926,-26.855,-181.152,0.000
1606129379.686,-90.332,-23.438,-25.879,-128.906,0.000
1606129379.690,-9.277,-19.043,-23.926,16.113,0.000
1606129379.693,15.137,-20.020,-30.762,70.801,0.000
1606129379.697,-41.992,-28.809,-30.273,-37.598,0.000
1606129379.701,-108.887,-31.738,-30.273,-169.434,0.000
1606129379.705,-96.191,-25.391,-33.691,-147.461,0.000
1606129379.709,-7.324,-14.648,-31.250,18.066,0.000
1606129379.713,43.457,-13.184,-30.273,101.074,0.000
1606129379.717,-12.695,-24.414,-37.598,8.301,0.000
1606129379.721,-94.727,-31.250,-45.410,-129.883,0.000
1606129379.725,-77.637,-31.250,-48.828,-128.906,0.000
1606129379.729,14.648,-27.832,-46.387,32.715,0.000
1606129379.733,63.477,-18.555,-42.480,137.207,0.000
1606129379.736,24.414,-31.250,-49.805,53.223,0.000
1606129379.740,-60.059,-42.969,-60.059,-106.934,0.000
1606129379.744,-64.941,-35.645,-57.129,-124.023,0.000
1606129379.748,31.738,-21.973,-53.711,31.738,0.000
1606129379.752,105.957,-12.695,-50.293,152.344,0.000
1606129379.756,77.637,-16.602,-56.152,103.027,0.000
1606129379.760,-0.977,-25.879,-64.941,-49.316,0.000
1606129379.764,-20.508,-36.133,-62.500,-85.938,0.000
1606129379.768,55.176,-32.715,-64.941,51.270,0.000
1606129379.772,137.695,-23.926,-63.965,184.082,0.000
1606129379.775,101.074,-26.367,-59.570,149.902,0.000
1606129379.779,1.953,-37.109,-63.477,-16.602,0.000
1606129379.783,-20.996,-42.480,-64.453,-85.938,0.000
1606129379.787,37.109,-37.109,-61.035,22.461,0.000
1606129379.791,112.305,-34.180,-56.152,160.156,0.000
1606129379.795,110.352,-31.738,-52.734,144.531,0.000
1606129379.799,22.461,-38.086,-55.176,-13.672,0.000
1606129379.803,-23.438,-43.457,-60.059,-94.727,0.000
1606129379.807,20.996,-42.480,-63.965,-0.488,0.000
1606129379.811,99.609,-36.621,-49.805,157.227,0.000
1606129379.815,113.770,-27.832,-40.039,168.457,0.000
1606129379.818,37.109,-33.203,-44.434,10.254,0.000
1606129379.822,-23.926,-42.969,-50.293,-88.379,0.000
1606129379.826,10.742,-43.457,-54.199,-12.207,0.000
1606129379.830,99.609,-36.133,-45.898,140.625,0.000
1606129379.834,113.770,-22.461,-39.062,173.340,0.000
1606129379.838,35.645,-19.043,-42.969,29.785,0.000
1606129379.842,-25.879,-36.621,-45.410,-90.820,0.000
1606129379.846,1.465,-45.898,-48.340,-41.016,0.000
1606129379.850,89.844,-42.969,-45.410,120.117,0.000
1606129379.854,117.188,-41.504,-42.969,171.875,0.000
1606129379.858,49.316,-42.480,-48.340,45.410,0.000
1606129379.861,-20.020,-43.945,-46.875,-85.938,0.000
1606129379.865,-9.766,-41.992,-40.039,-61.523,0.000
1606129379.869,72.754,-35.156,-33.203,102.051,0.000
1606129379.873,111.816,-22.461,-36.133,171.387,0.000
1606129379.877,48.340,-22.461,-41.016,48.828,0.000
1606129379.881,-32.227,-41.992,-38.574,-92.773,0.000
1606129379.885,-33.203,-40.527,-39.062,-77.637,0.000
1606129379.889,47.852,-34.668,-38.574,74.707,0.000
1606129379.893,99.121,-35.156,-34.668,157.227,0.000
1606129379.897,50.781,-41.016,-37.598,63.965,0.000
1606129379.900,-28.320,-47.363,-44.922,-83.984,0.000
1606129379.904,-29.297,-39.062,-37.109,-90.332,0.000
1606129379.908,46.875,-31.250,-27.832,64.453,0.000
1606129379.912,96.191,-28.320,-22.461,170.410,0.000
1606129379.916,63.477,-26.855,-18.066,98.145,0.000
1606129379.920,-18.555,-33.691,-23.438,-56.152,0.000
1606129379.924,-39.062,-41.504,-31.250,-89.844,0.000
1606129379.928,35.156,-37.598,-30.273,36.133,0.000
1606129379.932,96.680,-30.762,-33.203,145.996,0.000
1606129379.936,63.965,-9.277,-38.574,93.750,0.000
1606129379.940,-17.578,-9.277,-41.016,-61.035,0.000
1606129379.943,-45.898,-38.574,-42.480,-116.699,0.000
1606129379.947,9.766,-37.598,-35.645,-2.930,0.000
1606129379.951,74.707,-33.203,-31.250,129.883,0.000
1606129379.955,62.988,-31.738,-25.391,113.770,0.000
1606129379.959,-20.020,-36.621,-27.832,-47.363,0.000
1606129379.963,-71.777,-43.457,-41.016,-127.441,0.000
1606129379.967,-16.602,-40.527,-39.062,-22.461,0.000
1606129379.971,60.547,-36.621,-35.156,118.164,0.000
1606129379.975,59.082,-23.438,-31.738,117.676,0.000
1606129379.979,-14.648,-28.320,-33.691,-36.133,0.000
1606129379.983,-69.824,-42.969,-37.109,-128.418,0.000
1606129379.986,-28.320,-37.598,-37.109,-51.270,0.000
1606129379.990,46.875,-28.320,-36.133,94.238,0.000
1606129379.994,50.293,-29.785,-36.133,113.770,0.000
1606129379.998,-30.273,-36.621,-37.109,-31.738,0.000
1606129380.002,-82.031,-37.109,-35.156,-138.184,0.000
1606129380.006,-44.434,-41.016,-40.039,-74.707,0.000
1606129380.010,38.574,-35.156,-40.039,78.125,0.000
1606129380.014,66.895,-20.508,-32.715,125.000,0.000
1606129380.018,-1.465,-17.090,-31.738,-4.395,0.000
1606129380.022,-68.359,-31.250,-34.668,-136.719,0.000
1606129380.025,-53.711,-40.039,-38.086,-102.051,0.000
1606129380.029,26.367,-30.273,-32.227,56.152,0.000
1606129380.033,57.129,-26.367,-28.809,115.234,0.000
1606129380.037,-4.395,-31.250,-36.621,-0.488,0.000
1606129380.041,-83.984,-33.203,-46.387,-139.160,0.000
1606129380.045,-77.148,-31.738,-48.340,-121.582,0.000
1606129380.049,12.695,-25.391,-39.062,37.598,0.000
1606129380.053,52.246,-18.555,-30.762,115.234,0.000
1606129380.057,-4.883,-22.461,-35.156,12.695,0.000
1606129380.061,-76.172,-28.809,-37.598,-130.371,0.000
1606129380.065,-73.242,-25.391,-29.297,-134.766,0.000
1606129380.068,3.906,-16.113,-22.461,14.160,0.000
1606129380.072,55.664,-6.836,-23.438,116.699,0.000
1606129380.076,6.836,-11.719,-28.809,33.203,0.000
1606129380.080,-74.707,-26.367,-38.574,-127.441,0.000
1606129380.084,-89.844,-31.250,-39.062,-156.250,0.000
1606129380.088,-15.625,-29.785,-32.227,-10.254,0.000
1606129380.092,51.270,-25.391,-30.762,104.980,0.000
1606129380.096,25.391,-20.508,-31.250,45.410,0.000
1606129380.100,-61.523,-26.855,-33.203,-107.422,0.000
1606129380.104,-86.914,-38.086,-27.832,-135.742,0.000
1606129380.108,-16.113,-28.320,-33.203,-0.488,0.000
1606129380.111,51.758,-16.602,-43.457,108.398,0.000
1606129380.115,31.738,-6.348,-45.410,55.176,0.000
1606129380.119,-53.711,-4.395,-49.805,-106.934,0.000
1606129380.123,-83.496,-12.695,-51.758,-166.016,0.000
1606129380.127,-22.949,-14.648,-51.270,-47.363,0.000
1606129380.131,65.430,-8.789,-41.504,103.027,0.000
1606129380.135,53.223,-7.324,-37.598,85.938,0.000
1606129380.139,-38.574,-19.531,-44.922,-76.172,0.000
1606129380.143,-81.055,-21.973,-49.316,-160.156,0.000
1606129380.147,-29.785,-18.066,-43.945,-71.777,0.000
1606129380.150,57.617,-10.254,-44.922,83.984,0.000
1606129380.154,63.477,-3.906,-49.316,97.168,0.000
1606129380.158,-19.043,-8.789,-50.781,-59.082,0.000
1606129380.162,-80.566,-20.996,-50.293,-157.227,0.000
1606129380.166,-40.527,-23.438,-47.363,-78.125,0.000
1606129380.170,50.293,-16.602,-42.480,79.590,0.000
1606129380.174,81.543,-9.277,-39.551,113.281,0.000
1606129380.178,9.766,-13.184,-39.551,-24.902,0.000
1606129380.182,-75.195,-26.367,-38.574,-146.484,0.000
1606129380.186,-48.828,-25.391,-41.016,-93.262,0.000
1606129380.190,37.109,-15.137,-41.016,63.477,0.000
1606129380.193,55.176,-15.137,-36.621,107.422,0.000
1606129380.197,-15.137,-24.902,-37.598,-19.531,0.000
1606129380.201,-81.055,-28.809,-39.551,-149.414,0.000
1606129380.205,-65.430,-31.738,-41.016,-124.023,0.000
1606129380.209,18.066,-33.203,-41.016,31.738,0.000
1606129380.213,59.082,-27.344,-35.156,104.492,0.000
1606129380.217,-0.488,-12.695,-32.715,-0.488,0.000
1606129380.221,-75.684,-14.160,-37.598,-144.043,0.000
1606129380.225,-68.848,-24.414,-46.387,-145.508,0.000
1606129380.229,15.625,-19.531,-42.480,4.883,0.000
1606129380.233,72.754,-10.742,-34.180,99.609,0.000
1606129380.236,21.484,-9.277,-36.621,20.508,0.000
1606129380.240,-68.359,-21.973,-40.039,-125.000,0.000
1606129380.244,-81.543,-23.438,-39.062,-131.836,0.000
1606129380.248,-5.371,-18.066,-31.738,23.438,0.000
1606129380.252,59.082,-18.555,-30.273,124.023,0.000
1606129380.256,27.832,-19.043,-39.551,53.711,0.000
1606129380.260,-59.082,-30.273,-38.086,-98.633,0.000
1606129380.264,-81.055,-35.156,-36.621,-131.348,0.000
1606129380.268,-10.254,-30.762,-37.109,4.883,0.000
1606129380.272,53.223,-23.926,-32.715,123.535,0.000
1606129380.275,30.762,-21.973,-32.715,78.125,0.000
1606129380.279,-42.969,-25.879,-34.668,-79.590,0.000
1606129380.283,-70.801,-32.715,-32.227,-138.672,0.000
1606129380.287,-23.926,-31.250,-32.715,-20.020,0.000
1606129380.291,47.852,-15.137,-30.762,117.676,0.000
1606129380.295,40.039,-20.508,-29.297,95.703,0.000
1606129380.299,-47.363,-35.645,-33.203,-67.871,0.000
1606129380.303,-93.262,-32.227,-39.062,-154.785,0.000
1606129380.307,-45.898,-25.879,-35.645,-60.059,0.000
1606129380.311,30.762,-19.043,-31.738,79.102,0.000
1606129380.315,41.992,-18.555,-29.297,72.754,0.000
1606129380.318,-33.203,-27.832,-27.344,-82.031,0.000
1606129380.322,-89.844,-36.621,-26.855,-174.316,0.000
1606129380.326,-53.711,-30.762,-28.320,-92.773,0.000
1606129380.330,20.996,-25.879,-24.414,57.129,0.000
1606129380.334,29.785,-27.832,-20.020,71.777,0.000
1606129380.338,-23.438,-27.344,-30.273,-70.801,0.000
1606129380.342,-73.730,-30.273,-37.109,-179.688,0.000
1606129380.346,-55.664,-28.809,-41.016,-118.652,0.000
1606129380.350,33.203,-22.461,-39.551,47.852,0.000
1606129380.354,47.852,-27.344,-26.367,88.867,0.000
1606129380.358,-28.320,-37.109,-18.555,-45.410,0.000
1606129380.361,-91.797,-37.598,-25.391,-166.992,0.000
1606129380.365,-70.801,-31.250,-26.367,-124.512,0.000
1606129380.369,14.648,-24.902,-22.461,37.598,0.000
1606129380.373,42.480,-26.367,-19.043,102.539,0.000
1606129380.377,-27.832,-32.715,-22.949,-13.184,0.000
1606129380.381,-96.191,-36.133,-32.715,-147.949,0.000
1606129380.385,-86.426,-32.715,-26.855,-118.652,0.000
1606129380.389,-4.883,-23.926,-18.555,51.758,0.000
1606129380.393,44.434,-19.043,-20.020,126.465,0.000
1606129380.397,-6.836,-25.879,-32.227,13.672,0.000
1606129380.400,-89.355,-38.574,-45.410,-139.648,0.000
1606129380.404,-93.750,-42.969,-46.875,-145.996,0.000
1606129380.408,-19.043,-32.715,-40.527,3.418,0.000
1606129380.412,35.645,-22.461,-33.203,98.633,0.000
1606129380.416,-2.930,-29.785,-33.203,17.578,0.000
1606129380.420,-85.938,-37.598,-37.598,-138.672,0.000
1606129380.424,-102.051,-31.250,-31.738,-161.621,0.000
1606129380.428,-31.250,-29.785,-26.367,-21.973,0.000
1606129380.432,32.227,-28.320,-29.297,87.402,0.000
1606129380.436,10.254,-23.438,-26.367,29.785,0.000
1606129380.440,-67.383,-27.832,-29.785,-129.883,0.000
1606129380.443,-84.961,-28.809,-33.203,-172.363,0.000
1606129380.447,-25.391,-25.391,-28.809,-49.805,0.000
1606129380.451,21.484,-26.367,-26.855,73.242,0.000
1606129380.455,7.324,-24.414,-21.484,43.457,0.000
1606129380.459,-73.242,-25.391,-14.648,-114.746,0.000
1606129380.463,-115.723,-28.320,-15.137,-182.129,0.000
1606129380.467,-56.641,-28.320,-22.949,-67.871,0.000
1606129380.471,19.043,-23.438,-23.438,73.242,0.000
1606129380.475,18.066,-22.949,-22.461,59.082,0.000
1606129380.479,-57.617,-29.297,-26.367,-93.262,0.000
1606129380.483,-99.121,-33.203,-26.855,-170.898,0.000
1606129380.486,-41.016,-31.738,-24.902,-76.660,0.000
1606129380.490,38.574,-27.344,-19.531,71.289,0.000
1606129380.494,20.020,-19.531,-17.578,77.637,0.000
1606129380.498,-66.895,-18.555,-17.578,-71.289,0.000
1606129380.502,-115.234,-32.715,-20.508,-168.457,0.000
1606129380.506,-77.637,-32.227,-24.414,-98.633,0.000
1606129380.510,5.859,-27.832,-17.578,56.641,0.000
1606129380.514,28.809,-30.273,-17.090,91.797,0.000
1606129380.518,-43.945,-40.527,-26.855,-47.852,0.000
1606129380.522,-109.375,-43.457,-25.879,-165.527,0.000
1606129380.525,-79.590,-39.551,-19.043,-111.328,0.000
1606129380.529,7.812,-36.133,-14.648,51.270,0.000
1606129380.533,31.250,-39.551,-20.508,97.656,0.000
1606129380.537,-34.668,-42.480,-28.320,-27.344,0.000
1606129380.541,-105.469,-42.969,-31.738,-152.832,0.000
1606129380.545,-90.332,-42.969,-33.691,-120.605,0.000
1606129380.549,-2.441,-31.738,-23.438,44.922,0.000
1606129380.553,31.738,-28.809,-24.414,112.793,0.000
1606129380.557,-27.344,-37.598,-32.715,-2.441,0.000
1606129380.561,-91.309,-36.621,-29.785,-141.113,0.000
1606129380.565,-81.055,-32.715,-34.180,-129.883,0.000
1606129380.568,0.488,-27.832,-32.227,26.367,0.000
1606129380.572,48.828,-22.461,-23.926,114.746,0.000
1606129380.576,1.953,-31.250,-26.367,30.273,0.000
1606129380.580,-77.637,-37.109,-28.809,-120.117,0.000
1606129380.584,-82.031,-28.320,-33.691,-139.160,0.000
1606129380.588,-11.719,-23.926,-28.809,9.277,0.000
1606129380.592,42.480,-20.996,-15.625,116.211,0.000
1606129380.596,0.000,-29.785,-27.344,40.527,0.000
1606129380.600,-81.055,-40.039,-34.668,-115.723,0.000
1606129380.604,-87.402,-39.062,-25.879,-148.438,0.000
1606129380.608,-30.762,-35.156,-26.855,-18.555,0.000
1606129380.611,34.180,-30.273,-26.367,100.586,0.000
1606129380.615,15.137,-32.227,-24.902,49.316,0.000
1606129380.619,-70.801,-35.156,-27.832,-108.398,0.000
1606129380.623,-103.027,-38.574,-29.785,-161.133,0.000
1606129380.627,-41.016,-35.645,-32.227,-42.969,0.000
1606129380.631,29.297,-24.902,-28.809,89.844,0.000
1606129380.635,20.508,-28.809,-31.738,65.918,0.000
1606129380.639,-57.617,-36.133,-30.273,-86.914,0.000
1606129380.643,-114.746,-45.898,-23.926,-165.039,0.000
1606129380.647,-69.336,-45.410,-21.973,-60.059,0.000
1606129380.650,14.160,-37.598,-10.254,80.566,0.000
1606129380.654,3.906,-37.598,-15.137,66.406,0.000
1606129380.658,-70.801,-41.504,-26.367,-90.332,0.000
1606129380.662,-121.094,-48.828,-25.879,-185.547,0.000
1606129380.666,-80.078,-42.969,-20.996,-95.703,0.000
1606129380.670,18.555,-27.344,-22.949,62.012,0.000
1606129380.674,34.180,-29.297,-24.902,88.867,0.000
1606129380.678,-37.109,-41.992,-23.438,-49.316,0.000
1606129380.682,-102.539,-45.898,-22.949,-162.109,0.000
1606129380.686,-81.055,-39.062,-18.555,-94.238,0.000
1606129380.690,6.348,-29.297,-13.672,60.547,0.000
1606129380.693,29.297,-33.691,-14.160,88.867,0.000
1606129380.697,-34.180,-35.645,-20.508,-39.551,0.000
1606129380.701,-96.191,-32.227,-22.461,-153.320,0.000
1606129380.705,-73.242,-34.180,-22.949,-105.469,0.000
1606129380.709,16.113,-23.926,-18.066,54.199,0.000
1606129380.713,52.734,-17.090,-16.602,118.164,0.000
1606129380.717,-9.766,-28.320,-25.879,4.395,0.000
1606129380.721,-99.609,-37.598,-28.809,-137.207,0.000
1606129380.725,-95.703,-32.715,-22.949,-116.699,0.000
1606129380.729,-1.953,-21.484,-18.066,40.039,0.000
1606129380.733,40.527,-18.066,-17.578,116.699,0.000
1606129380.736,-15.137,-21.973,-21.484,16.602,0.000
1606129380.740,-91.797,-26.855,-29.785,-133.301,0.000
1606129380.744,-94.238,-27.832,-30.273,-146.973,0.000
1606129380.748,-15.625,-18.066,-18.555,6.348,0.000
1606129380.752,42.969,-11.719,-13.672,108.398,0.000
1606129380.756,1.465,-22.461,-26.367,24.414,0.000
1606129380.760,-79.102,-29.785,-29.785,-127.930,0.000
1606129380.764,-86.426,-25.879,-23.438,-144.043,0.000
1606129380.768,-10.254,-20.020,-21.973,-1.465,0.000
1606129380.772,47.852,-17.578,-23.926,107.910,0.000
1606129380.775,16.602,-9.277,-27.832,48.340,0.000
1606129380.779,-64.453,-16.113,-31.738,-113.281,0.000
1606129380.783,-88.379,-34.180,-30.762,-157.715,0.000
1606129380.787,-27.832,-35.645,-28.809,-28.320,0.000
1606129380.791,35.156,-28.809,-26.855,95.215,0.000
1606129380.795,14.160,-25.391,-24.902,57.129,0.000
1606129380.799,-74.707,-33.691,-33.203,-106.445,0.000
1606129380.803,-108.398,-40.527,-35.156,-171.387,0.000
1606129380.807,-41.016,-32.227,-25.391,-49.316,0.000
1606129380.811,45.410,-25.391,-23.438,90.332,0.000
1606129380.815,36.133,-26.367,-26.367,72.754,0.000
1606129380.818,-62.500,-29.297,-32.715,-82.520,0.000
1606129380.822,-106.445,-36.133,-31.250,-165.527,0.000
1606129380.826,-58.594,-27.344,-23.438,-69.336,0.000
1606129380.830,37.109,-16.602,-25.879,82.031,0.000
1606129380.834,45.410,-20.508,-18.555,94.727,0.000
1606129380.838,-57.617,-30.762,-5.859,-65.430,0.000
1606129380.842,-122.559,-32.227,-10.254,-173.340,0.000
1606129380.846,-92.285,-33.691,-15.137,-103.027,0.000
1606129380.850,-13.184,-34.180,-9.277,48.340,0.000
1606129380.854,15.625,-20.020,-7.812,84.961,0.000
1606129380.858,-45.898,-20.996,-11.719,-50.293,0.000
1606129380.861,-109.375,-35.156,-10.254,-168.945,0.000
1606129380.865,-88.379,-32.227,-13.672,-122.070,0.000
1606129380.869,-11.719,-30.273,-14.648,29.785,0.000
1606129380.873,19.043,-26.367,-13.184,83.496,0.000
1606129380.877,-33.203,-22.949,-12.207,-32.227,0.000
1606129380.881,-97.656,-30.762,-10.742,-159.180,0.000
1606129380.885,-83.984,-33.203,-10.254,-125.977,0.000
1606129380.889,7.324,-27.344,-5.371,39.551,0.000
1606129380.893,46.387,-27.344,-6.348,110.840,0.000
1606129380.897,-12.207,-31.738,-14.160,0.488,0.000
1606129380.900,-79.102,-33.691,-19.531,-145.996,0.000
1606129380.904,-85.938,-37.109,-25.391,-142.578,0.000
1606129380.908,-16.602,-34.668,-27.344,7.324,0.000
1606129380.912,29.785,-25.879,-22.949,95.703,0.000
1606129380.916,-23.926,-26.367,-26.855,8.301,0.000
1606129380.920,-104.492,-34.180,-31.250,-139.648,0.000
1606129380.924,-105.957,-33.691,-31.250,-151.855,0.000
1606129380.928,-25.879,-26.855,-24.414,0.488,0.000
1606129380.932,26.855,-22.461,-16.602,103.027,0.000
1606129380.936,-6.348,-27.344,-24.414,30.273,0.000
1606129380.940,-92.285,-35.645,-33.203,-124.023,0.000
1606129380.943,-112.793,-40.039,-32.715,-162.598,0.000
1606129380.947,-37.109,-32.227,-26.855,-30.762,0.000
1606129380.951,25.391,-21.484,-19.043,94.727,0.000
1606129380.955,3.418,-12.207,-15.625,57.617,0.000
1606129380.959,-82.031,-11.230,-27.344,-107.422,0.000
1606129380.963,-119.141,-27.344,-29.785,-166.992,0.000
1606129380.967,-46.387,-31.250,-25.391,-43.945,0.000
1606129380.971,24.902,-24.414,-24.902,83.496,0.000
1606129380.975,5.859,-27.832,-27.344,57.617,0.000
1606129380.979,-73.242,-34.180,-38.574,-99.121,0.000
1606129380.983,-103.027,-35.645,-35.645,-169.922,0.000
1606129380.986,-42.480,-30.762,-29.785,-67.383,0.000
1606129380.990,27.832,-26.855,-27.832,70.312,0.000
1606129380.994,22.949,-24.414,-25.391,70.801,0.000
1606129380.998,-55.664,-24.414,-29.297,-73.242,0.000
1606129381.002,-106.445,-31.250,-35.156,-167.480,0.000
1606129381.006,-60.059,-31.250,-33.203,-85.449,0.000
1606129381.010,27.832,-23.926,-24.902,70.312,0.000
1606129381.014,39.551,-16.113,-14.160,94.727,0.000
1606129381.018,-42.480,-24.414,-20.508,-47.852,0.000
1606129381.022,-107.910,-36.133,-29.785,-157.715,0.000
1606129381.025,-62.988,-29.297,-25.391,-94.727,0.000
1606129381.029,21.484,-21.973,-19.531,57.617,0.000
1606129381.033,28.320,-32.715,-21.484,91.797,0.000
1606129381.037,-25.879,-41.504,-29.785,-26.367,0.000
1606129381.041,-84.473,-33.203,-37.598,-137.695,0.000
1606129381.045,-75.195,-18.555,-38.574,-100.098,0.000
1606129381.049,2.930,-12.207,-33.203,50.293,0.000
1606129381.053,37.598,-8.789,-31.250,97.656,0.000
1606129381.057,-22.461,-3.906,-40.039,-19.043,0.000
1606129381.061,-94.727,-10.742,-56.641,-157.227,0.000
1606129381.065,-87.402,-17.090,-57.617,-141.113,0.000
1606129381.068,0.977,-13.672,-50.293,23.926,0.000
1606129381.072,62.500,-6.836,-45.898,104.004,0.000
1606129381.076,2.441,-11.719,-43.945,0.000,0.000
1606129381.080,-94.727,-23.438,-51.270,-153.809,0.000
1606129381.084,-86.426,-21.484,-50.293,-154.297,0.000
1606129381.088,1.953,-14.648,-43.945,4.883,0.000
1606129381.092,54.688,-11.230,-40.527,103.027,0.000
1606129381.096,19.043,-15.137,-46.387,20.996,0.000
1606129381.100,-68.848,-24.414,-48.828,-126.953,0.000
1606129381.104,-87.891,-29.785,-46.387,-145.020,0.000
1606129381.108,-2.441,-20.508,-37.109,0.488,0.000
1606129381.111,63.477,-15.137,-28.320,116.699,0.000
1606129381.115,29.297,-17.578,-32.715,52.246,0.000
1606129381.119,-54.688,-21.973,-40.527,-111.816,0.000
1606129381.123,-87.891,-32.227,-37.598,-151.367,0.000
1606129381.127,-26.855,-30.273,-31.250,-17.578,0.000
1606129381.131,45.898,-17.090,-25.391,111.328,0.000
1606129381.135,31.738,-16.113,-26.855,76.172,0.000
1606129381.139,-51.270,-20.020,-35.156,-86.914,0.000
1606129381.143,-86.914,-23.438,-43.457,-157.227,0.000
1606129381.147,-23.438,-22.461,-37.109,-40.527,0.000
1606129381.150,60.059,-16.113,-25.879,106.445,0.000
1606129381.154,52.246,-10.742,-33.203,94.727,0.000
1606129381.158,-41.992,-15.137,-39.062,-66.895,0.000
1606129381.162,-88.867,-30.273,-37.109,-157.227,0.000
1606129381.166,-33.691,-32.715,-27.344,-58.594,0.000
1606129381.170,49.316,-23.926,-19.043,87.402,0.000
1606129381.174,57.617,-20.508,-18.555,92.285,0.000
1606129381.178,-19.043,-22.949,-20.020,-42.969,0.000
1606129381.182,-80.078,-29.785,-27.344,-150.391,0.000
1606129381.186,-48.340,-32.227,-30.762,-80.566,0.000
1606129381.190,33.691,-26.855,-28.809,79.590,0.000
1606129381.193,57.129,-20.020,-28.320,106.445,0.000
1606129381.197,-15.137,-26.855,-32.715,-36.133,0.000
1606129381.201,-84.961,-33.203,-35.156,-152.344,0.000
1606129381.205,-61.035,-26.367,-28.320,-95.215,0.000
1606129381.209,22.949,-23.926,-19.531,68.359,0.000
1606129381.213,47.852,-21.484,-17.578,115.234,0.000
1606129381.217,-20.996,-24.414,-28.809,-15.625,0.000
1606129381.221,-93.262,-32.227,-35.645,-148.926,0.000
1606129381.225,-83.496,-30.273,-33.691,-124.023,0.000
1606129381.229,3.418,-26.855,-37.109,38.086,0.000
1606129381.233,46.387,-24.902,-33.691,110.840,0.000
1606129381.236,-15.137,-21.484,-36.621,-5.371,0.000
1606129381.240,-91.309,-29.297,-39.551,-153.320,0.000
1606129381.244,-81.543,-35.156,-30.273,-142.578,0.000
1606129381.248,-4.883,-25.879,-20.996,25.391,0.000
1606129381.252,43.945,-17.578,-19.531,116.699,0.000
1606129381.256,0.488,-22.949,-28.320,18.555,0.000
1606129381.260,-83.008,-30.762,-39.062,-137.695,0.000
1606129381.264,-95.215,-27.344,-40.039,-152.832,0.000
1606129381.268,-16.602,-21.484,-29.297,3.906,0.000
1606129381.272,48.340,-12.207,-18.066,125.000,0.000
1606129381.275,22.461,-9.766,-19.043,58.594,0.000
1606129381.279,-64.941,-23.438,-22.461,-106.934,0.000
1606129381.283,-94.238,-32.227,-25.879,-147.461,0.000
1606129381.287,-21.973,-30.273,-27.832,-11.719,0.000
1606129381.291,44.434,-24.414,-23.438,109.863,0.000
1606129381.295,24.902,-17.090,-25.391,61.035,0.000
1606129381.299,-52.246,-29.297,-29.297,-104.980,0.000
1606129381.303,-92.773,-40.039,-28.320,-161.133,0.000
1606129381.307,-32.715,-34.668,-33.691,-39.551,0.000
1606129381.311,46.387,-24.902,-26.367,98.633,0.000
1606129381.315,28.809,-23.438,-21.973,73.242,0.000
1606129381.318,-62.012,-27.832,-32.715,-91.309,0.000
1606129381.322,-106.934,-28.809,-34.668,-166.016,0.000
1606129381.326,-38.086,-21.973,-28.320,-58.594,0.000
1606129381.330,50.781,-19.531,-25.879,91.309,0.000
1606129381.334,41.992,-17.578,-30.273,83.008,0.000
1606129381.338,-47.852,-20.508,-32.227,-78.125,0.000
1606129381.342,-100.098,-34.668,-36.133,-166.016,0.000
1606129381.346,-56.152,-34.668,-37.598,-71.777,0.000
1606129381.350,33.691,-24.414,-26.367,87.402,0.000
1606129381.354,40.527,-27.832,-24.902,101.074,0.000
1606129381.358,-42.480,-39.062,-36.621,-57.617,0.000
1606129381.361,-106.445,-41.504,-36.621,-173.340,0.000
1606129381.365,-77.637,-38.086,-31.250,-101.074,0.000
1606129381.369,15.625,-27.344,-24.902,70.801,0.000
1606129381.373,37.109,-18.555,-26.855,107.422,0.000
1606129381.377,-41.504,-28.320,-34.180,-37.109,0.000
1606129381.381,-106.934,-35.156,-35.156,-158.203,0.000
1606129381.385,-83.008,-32.715,-39.062,-115.234,0.000
1606129381.389,5.371,-24.902,-34.668,48.340,0.000
1606129381.393,41.992,-17.578,-29.785,112.305,0.000
1606129381.397,-20.508,-21.484,-29.297,-7.812,0.000
1606129381.400,-98.145,-36.133,-22.461,-146.973,0.000
1606129381.404,-93.750,-34.180,-19.043,-124.512,0.000
1606129381.408,-9.766,-25.879,-17.090,36.133,0.000
1606129381.412,39.062,-21.484,-8.789,112.305,0.000
1606129381.416,-6.836,-20.020,-18.066,2.441,0.000
1606129381.420,-92.773,-28.809,-31.250,-147.461,0.000
1606129381.424,-99.609,-30.762,-24.414,-144.043,0.000
1606129381.428,-14.160,-31.738,-20.996,6.348,0.000
1606129381.432,37.598,-30.273,-24.414,100.586,0.000
1606129381.436,-6.836,-22.949,-22.949,20.996,0.000
1606129381.440,-92.773,-28.809,-24.414,-133.301,0.000
1606129381.443,-101.562,-32.715,-20.508,-157.227,0.000
1606129381.447,-21.973,-23.926,-15.625,-11.230,0.000
1606129381.451,39.551,-17.578,-18.066,103.516,0.000
1606129381.455,9.277,-22.949,-20.996,43.945,0.000
1606129381.459,-74.707,-32.227,-33.691,-120.117,0.000
1606129381.463,-107.910,-33.691,-35.156,-162.598,0.000
1606129381.467,-45.410,-30.273,-30.762,-29.785,0.000
1606129381.471,25.879,-28.809,-30.762,96.680,0.000
1606129381.475,2.441,-20.020,-22.461,58.594,0.000
1606129381.479,-85.449,-25.879,-24.414,-109.375,0.000
1606129381.483,-120.117,-41.992,-30.762,-176.270,0.000
1606129381.486,-56.641,-37.109,-32.227,-55.176,0.000
1606129381.490,27.344,-28.809,-27.832,91.309,0.000
1606129381.494,21.973,-29.785,-22.949,69.824,0.000
1606129381.498,-67.871,-36.621,-29.785,-96.191,0.000
1606129381.502,-109.863,-37.598,-31.250,-173.340,0.000
1606129381.506,-57.129,-33.691,-27.344,-75.684,0.000
1606129381.510,26.367,-23.926,-22.949,75.195,0.000
1606129381.514,50.781,-18.555,-17.578,96.191,0.000
1606129381.518,-40.039,-36.621,-26.367,-63.477,0.000
1606129381.522,-110.352,-45.898,-38.086,-177.734,0.000
1606129381.525,-62.012,-35.645,-32.227,-97.168,0.000
1606129381.529,33.203,-20.020,-20.508,67.383,0.000
1606129381.533,44.922,-20.996,-31.250,85.938,0.000
1606129381.537,-43.457,-35.156,-42.480,-66.406,0.000
1606129381.541,-106.445,-38.086,-41.992,-177.246,0.000
1606129381.545,-77.148,-38.086,-40.527,-118.652,0.000
1606129381.549,11.230,-28.320,-37.598,43.457,0.000
1606129381.553,48.340,-25.391,-35.645,97.168,0.000
1606129381.557,-20.996,-32.227,-35.645,-29.785,0.000
1606129381.561,-97.656,-33.691,-37.598,-166.992,0.000
1606129381.565,-86.914,-34.668,-37.598,-136.230,0.000
1606129381.568,6.836,-27.344,-26.367,29.297,0.000
1606129381.572,46.387,-22.461,-15.625,104.980,0.000
1606129381.576,-16.113,-22.461,-24.902,1.953,0.000
1606129381.580,-86.914,-30.273,-39.062,-153.809,0.000
1606129381.584,-83.008,-31.250,-40.527,-154.297,0.000
1606129381.588,1.953,-24.414,-31.738,14.648,0.000
1606129381.592,48.828,-17.090,-26.367,108.887,0.000
1606129381.596,-3.418,-8.301,-24.414,16.113,0.000
1606129381.600,-89.355,-20.996,-28.320,-142.090,0.000
1606129381.604,-91.797,-30.762,-28.320,-157.227,0.000
1606129381.608,-6.836,-21.484,-20.508,2.441,0.000
1606129381.611,50.781,-17.578,-23.438,106.934,0.000
1606129381.615,18.066,-24.414,-30.762,32.715,0.000
1606129381.619,-79.590,-37.598,-37.598,-125.000,0.000
1606129381.623,-108.398,-41.016,-36.621,-162.109,0.000
1606129381.627,-31.250,-30.273,-23.438,-22.949,0.000
1606129381.631,28.809,-20.996,-18.066,97.168,0.000
1606129381.635,-0.488,-23.926,-23.926,43.945,0.000
1606129381.639,-86.914,-31.738,-20.996,-120.605,0.000
1606129381.643,-124.023,-32.227,-27.344,-175.293,0.000
1606129381.647,-58.594,-26.855,-31.738,-48.340,0.000
1606129381.650,16.602,-23.926,-24.902,84.961,0.000
1606129381.654,6.836,-14.160,-21.973,56.152,0.000
1606129381.658,-75.195,-17.578,-28.320,-105.957,0.000
1606129381.662,-115.234,-33.691,-32.715,-179.199,0.000
1606129381.666,-60.059,-30.762,-29.785,-73.242,0.000
1606129381.670,23.438,-19.531,-20.996,79.102,0.000
1606129381.674,27.344,-18.066,-23.438,79.102,0.000
1606129381.678,-58.594,-34.668,-36.133,-84.961,0.000
1606129381.682,-106.445,-42.480,-36.621,-174.316,0.000
1606129381.686,-58.594,-31.738,-33.203,-82.520,0.000
1606129381.690,25.879,-24.414,-27.832,69.336,0.000
1606129381.693,45.410,-22.461,-27.832,83.008,0.000
1606129381.697,-38.086,-27.832,-37.598,-69.336,0.000
1606129381.701,-109.375,-32.227,-43.945,-177.246,0.000
1606129381.705,-68.359,-27.344,-37.598,-104.980,0.000
1606129381.709,13.672,-21.484,-30.762,57.129,0.000
1606129381.713,35.645,-22.949,-26.855,92.773,0.000
1606129381.717,-26.367,-18.555,-28.320,-40.527,0.000
1606129381.721,-95.215,-22.949,-40.039,-168.457,0.000
1606129381.725,-72.754,-31.250,-39.551,-130.859,0.000
1606129381.729,9.766,-27.344,-31.250,30.762,0.000
1606129381.733,36.133,-25.391,-25.391,96.680,0.000
1606129381.736,-23.926,-29.785,-31.738,-21.973,0.000
1606129381.740,-96.191,-38.086,-40.527,-159.668,0.000
1606129381.744,-80.566,-36.133,-37.109,-129.883,0.000
1606129381.748,4.883,-27.344,-29.297,36.621,0.000
1606129381.752,37.598,-30.273,-26.855,107.422,0.000
1606129381.756,-16.113,-27.344,-37.598,-2.441,0.000
1606129381.760,-100.098,-32.227,-42.969,-147.949,0.000
1606129381.764,-108.887,-43.457,-37.598,-147.949,0.000
1606129381.768,-21.484,-38.574,-27.344,2.930,0.000
1606129381.772,40.039,-30.762,-19.043,105.469,0.000
1606129381.775,1.465,-31.250,-26.367,25.391,0.000
1606129381.779,-81.055,-39.551,-32.227,-131.836,0.000
1606129381.783,-92.285,-38.574,-30.273,-154.297,0.000
1606129381.787,-9.277,-30.273,-31.250,-6.836,0.000
1606129381.791,41.504,-24.902,-28.809,114.746,0.000
1606129381.795,-1.953,-25.879,-35.645,50.293,0.000
1606129381.799,-85.938,-36.621,-37.109,-121.582,0.000
1606129381.803,-106.934,-46.875,-25.391,-170.898,0.000
1606129381.807,-45.898,-43.945,-31.250,-43.945,0.000
1606129381.811,20.020,-34.668,-36.621,83.008,0.000
1606129381.815,4.395,-33.691,-32.715,49.805,0.000
1606129381.818,-76.660,-42.969,-39.062,-107.422,0.000
1606129381.822,-109.863,-42.480,-40.039,-167.480,0.000
1606129381.826,-48.340,-33.203,-28.809,-44.922,0.000
1606129381.830,34.180,-31.738,-27.344,95.703,0.000
1606129381.834,22.461,-36.133,-31.738,73.730,0.000
1606129381.838,-65.430,-41.992,-27.832,-85.938,0.000
1606129381.842,-103.027,-40.039,-21.973,-158.691,0.000
1606129381.846,-44.434,-27.344,-16.113,-54.199,0.000
1606129381.850,38.086,-15.625,-16.602,90.332,0.000
1606129381.854,37.109,-8.301,-29.297,88.867,0.000
1606129381.858,-42.480,-11.230,-36.133,-65.918,0.000
1606129381.861,-94.727,-21.484,-35.156,-166.016,0.000
1606129381.865,-48.340,-24.414,-30.762,-84.961,0.000
1606129381.869,35.645,-31.250,-27.832,71.777,0.000
1606129381.873,41.992,-27.344,-17.090,101.562,0.000
1606129381.877,-40.039,-30.762,-13.672,-42.480,0.000
1606129381.881,-107.910,-39.062,-25.879,-165.527,0.000
1606129381.885,-79.102,-33.691,-24.414,-109.863,0.000
1606129381.889,0.000,-33.203,-17.090,49.316,0.000
1606129381.893,21.484,-31.250,-18.555,96.680,0.000
1606129381.897,-39.551,-18.066,-27.344,-37.598,0.000
1606129381.900,-117.676,-27.832,-26.367,-170.898,0.000
1606129381.904,-107.910,-41.016,-28.809,-137.695,0.000
1606129381.908,-17.578,-34.180,-28.809,24.902,0.000
1606129381.912,20.508,-31.250,-29.297,89.844,0.000
1606129381.916,-41.016,-41.992,-41.504,-29.297,0.000
1606129381.920,-114.258,-46.875,-43.945,-167.969,0.000
1606129381.924,-103.516,-41.016,-37.109,-148.926,0.000
1606129381.928,-10.742,-37.598,-29.785,12.695,0.000
1606129381.932,34.180,-33.203,-29.785,96.680,0.000
1606129381.936,-20.020,-22.949,-35.156,4.395,0.000
1606129381.940,-96.680,-30.762,-35.156,-147.461,0.000
1606129381.943,-95.703,-38.574,-27.344,-155.273,0.000
1606129381.947,-19.531,-34.180,-24.902,0.488,0.000
1606129381.951,33.691,-33.203,-24.902,105.469,0.000
1606129381.955,-0.977,-35.645,-30.762,27.832,0.000
1606129381.959,-92.773,-42.969,-33.203,-127.930,0.000
1606129381.963,-107.422,-43.457,-28.809,-155.762,0.000
1606129381.967,-37.109,-38.086,-26.855,-13.184,0.000
1606129381.971,27.832,-29.297,-18.555,112.305,0.000
1606129381.975,7.324,-29.297,-20.020,62.988,0.000
1606129381.979,-84.961,-32.715,-31.250,-104.980,0.000
1606129381.983,-105.957,-30.273,-30.273,-159.180,0.000
1606129381.986,-28.320,-22.949,-25.391,-30.273,0.000
1606129381.990,41.504,-27.832,-23.926,98.633,0.000
1606129381.994,25.391,-19.043,-22.461,61.035,0.000
1606129381.998,-64.453,-11.719,-33.691,-102.539,0.000
1606129382.002,-104.980,-35.645,-38.574,-171.875,0.000
1606129382.006,-44.434,-39.062,-31.738,-69.336,0.000
1606129382.010,36.133,-26.367,-25.879,74.707,0.000
1606129382.014,33.691,-23.926,-22.949,75.195,0.000
1606129382.018,-60.547,-37.109,-36.133,-83.008,0.000
1606129382.022,-118.652,-47.363,-41.016,-174.805,0.000
1606129382.025,-69.336,-38.574,-31.738,-78.613,0.000
1606129382.029,17.578,-29.297,-25.879,86.914,0.000
1606129382.033,20.996,-26.367,-29.297,104.004,0.000
1606129382.037,-52.734,-27.344,-29.297,-49.316,0.000
1606129382.041,-105.469,-39.551,-34.668,-156.738,0.000
1606129382.045,-59.082,-35.156,-32.227,-85.938,0.000
1606129382.049,37.109,-25.879,-19.531,75.684,0.000
1606129382.053,43.457,-20.996,-18.555,102.051,0.000
1606129382.057,-30.273,-25.879,-22.461,-41.016,0.000
1606129382.061,-99.609,-36.621,-30.273,-165.039,0.000
1606129382.065,-78.613,-34.180,-27.344,-120.117,0.000
1606129382.068,14.648,-24.414,-20.508,49.805,0.000
1606129382.072,42.480,-19.531,-22.949,104.004,0.000
1606129382.076,-23.438,-22.949,-24.902,-14.160,0.000
1606129382.080,-97.168,-36.133,-32.715,-155.762,0.000
1606129382.084,-87.891,-43.945,-38.086,-143.066,0.000
1606129382.088,-2.930,-33.691,-27.344,29.297,0.000
1606129382.092,39.551,-24.902,-20.996,109.375,0.000
1606129382.096,-20.508,-29.785,-31.738,-4.395,0.000
1606129382.100,-105.469,-38.086,-42.969,-161.621,0.000
1606129382.104,-113.770,-41.992,-41.992,-158.203,0.000
1606129382.108,-26.855,-30.762,-28.809,9.766,0.000
1606129382.111,33.203,-21.973,-17.090,107.422,0.000
1606129382.115,-10.254,-29.785,-20.996,27.344,0.000
1606129382.119,-83.496,-34.668,-29.785,-122.070,0.000
1606129382.123,-96.191,-30.273,-37.109,-158.691,0.000
1606129382.127,-22.461,-22.461,-40.527,-28.809,0.000
1606129382.131,49.316,-17.090,-34.180,92.285,0.000
1606129382.135,20.020,-21.973,-34.180,35.156,0.000
1606129382.139,-67.871,-28.809,-36.621,-130.371,0.000
1606129382.143,-101.074,-33.203,-33.691,-169.434,0.000
1606129382.147,-32.715,-30.762,-28.809,-29.785,0.000
1606129382.150,44.922,-22.461,-28.320,101.074,0.000
1606129382.154,27.344,-23.438,-30.762,62.500,0.000
1606129382.158,-61.035,-28.809,-26.855,-100.098,0.000
1606129382.162,-95.215,-33.203,-25.391,-162.109,0.000
1606129382.166,-34.668,-29.785,-26.367,-41.016,0.000
1606129382.170,35.156,-20.996,-25.879,97.656,0.000
1606129382.174,30.762,-25.391,-25.391,76.172,0.000
1606129382.178,-58.105,-34.180,-33.691,-89.355,0.000
1606129382.182,-101.562,-38.086,-42.480,-176.758,0.000
1606129382.186,-52.734,-32.227,-37.598,-69.824,0.000
1606129382.190,12.695,-28.809,-26.855,85.938,0.000
1606129382.193,17.090,-32.227,-22.461,87.891,0.000
1606129382.197,-63.477,-39.551,-24.414,-72.754,0.000
1606129382.201,-112.793,-41.016,-25.879,-172.852,0.000
1606129382.205,-67.383,-33.691,-23.926,-91.797,0.000
1606129382.209,20.508,-32.715,-26.855,61.523,0.000
1606129382.213,41.504,-22.461,-25.879,87.402,0.000
1606129382.217,-36.621,-15.137,-25.879,-55.176,0.000
1606129382.221,-103.516,-32.715,-31.738,-172.852,0.000
1606129382.225,-77.148,-37.598,-24.902,-113.281,0.000
1606129382.229,16.113,-33.691,-13.672,50.293,0.000
1606129382.233,44.922,-21.484,-14.160,101.562,0.000
1606129382.236,-25.879,-24.414,-26.367,-24.414,0.000
1606129382.240,-89.844,-35.645,-33.691,-156.738,0.000
1606129382.244,-71.777,-33.203,-32.227,-120.605,0.000
1606129382.248,14.648,-23.438,-23.438,47.363,0.000
1606129382.252,49.805,-16.602,-19.043,112.793,0.000
1606129382.256,-23.438,-28.320,-27.832,-8.789,0.000
1606129382.260,-104.004,-37.109,-33.203,-152.832,0.000
1606129382.264,-93.262,-27.344,-26.367,-137.207,0.000
1606129382.268,-7.324,-17.578,-25.879,20.020,0.000
1606129382.272,43.457,-21.973,-28.320,105.957,0.000
1606129382.275,-2.930,-9.277,-27.832,8.789,0.000
1606129382.279,-96.191,-10.254,-29.297,-147.949,0.000
1606129382.283,-104.980,-34.668,-26.855,-152.344,0.000
1606129382.287,-16.113,-29.297,-23.438,7.324,0.000
1606129382.291,41.016,-24.902,-18.066,109.375,0.000
1606129382.295,1.953,-23.926,-20.996,34.180,0.000
1606129382.299,-87.402,-34.180,-29.785,-122.559,0.000
1606129382.303,-108.398,-39.551,-20.996,-154.785,0.000
1606129382.307,-32.715,-28.809,-20.508,-13.184,0.000
1606129382.311,35.156,-28.320,-25.391,100.098,0.000
1606129382.315,10.742,-24.902,-29.297,45.898,0.000
1606129382.318,-78.613,-26.367,-33.203,-110.352,0.000
1606129382.322,-104.980,-37.598,-31.738,-163.574,0.000
1606129382.326,-38.574,-35.645,-28.320,-41.016,0.000
1606129382.330,30.273,-31.738,-22.949,95.703,0.000
1606129382.334,12.695,-31.738,-21.973,69.336,0.000
1606129382.338,-66.406,-36.621,-20.508,-94.238,0.000
1606129382.342,-97.168,-36.621,-18.066,-163.086,0.000
1606129382.346,-44.922,-30.762,-16.113,-50.293,0.000
1606129382.350,31.738,-24.414,-18.555,93.262,0.000
1606129382.354,34.668,-17.090,-28.320,87.891,0.000
1606129382.358,-49.316,-22.949,-34.668,-70.312,0.000
1606129382.361,-103.516,-37.598,-34.668,-165.527,0.000
1606129382.365,-56.641,-36.621,-32.227,-79.590,0.000
1606129382.369,33.691,-30.273,-22.461,76.172,0.000
1606129382.373,49.805,-17.090,-17.578,97.656,0.000
1606129382.377,-33.691,-6.348,-20.508,-50.781,0.000
1606129382.381,-86.914,-23.438,-26.367,-162.598,0.000
1606129382.385,-41.992,-37.598,-29.297,-91.309,0.000
1606129382.389,29.297,-30.273,-28.320,72.754,0.000
1606129382.393,42.480,-18.555,-22.949,101.074,0.000
1606129382.397,-38.574,-25.879,-29.785,-45.898,0.000
1606129382.400,-115.234,-39.062,-35.645,-169.434,0.000
1606129382.404,-94.727,-33.691,-27.832,-120.117,0.000
1606129382.408,-15.625,-27.344,-20.996,40.039,0.000
1606129382.412,9.766,-25.391,-26.855,98.633,0.000
1606129382.416,-54.688,-19.531,-32.227,-18.066,0.000
1606129382.420,-123.535,-27.344,-30.273,-156.250,0.000
1606129382.424,-103.516,-34.668,-30.762,-134.277,0.000
1606129382.428,-5.859,-21.973,-22.949,33.203,0.000
1606129382.432,42.480,-20.508,-23.438,109.375,0.000
1606129382.436,-13.184,-27.832,-26.855,-1.953,0.000
1606129382.440,-93.262,-33.691,-29.785,-152.832,0.000
1606129382.443,-92.285,-31.250,-27.344,-146.973,0.000
1606129382.447,-11.719,-23.926,-24.902,13.672,0.000
1606129382.451,44.922,-14.648,-28.320,105.957,0.000
1606129382.455,7.812,-23.438,-26.367,20.508,0.000
1606129382.459,-75.195,-36.133,-30.273,-133.789,0.000
1606129382.463,-87.402,-31.250,-35.645,-154.785,0.000
1606129382.467,-11.230,-24.902,-31.250,-6.836,0.000
1606129382.471,47.363,-18.555,-22.461,115.234,0.000
1606129382.475,10.254,-25.391,-21.973,54.199,0.000
1606129382.479,-72.754,-39.062,-30.762,-112.793,0.000
1606129382.483,-100.098,-38.574,-33.203,-149.414,0.000
1606129382.486,-44.434,-29.785,-32.227,-16.602,0.000
1606129382.490,24.902,-26.367,-24.902,103.516,0.000
1606129382.494,4.395,-28.320,-20.996,61.035,0.000
1606129382.498,-87.891,-36.133,-32.715,-104.004,0.000
1606129382.502,-125.000,-40.527,-39.551,-171.387,0.000
1606129382.506,-59.570,-38.574,-28.809,-46.387,0.000
1606129382.510,17.090,-34.668,-23.438,96.191,0.000
1606129382.514,8.789,-24.414,-28.320,74.707,0.000
1606129382.518,-72.266,-33.691,-31.738,-93.750,0.000
1606129382.522,-124.023,-50.293,-33.691,-180.176,0.000
1606129382.525,-70.312,-44.434,-30.273,-74.707,0.000
1606129382.529,23.926,-31.250,-33.203,82.031,0.000
1606129382.533,25.879,-25.879,-40.039,79.102,0.000
1606129382.537,-56.152,-27.832,-41.504,-83.984,0.000
1606129382.541,-100.586,-28.320,-39.062,-172.852,0.000
1606129382.545,-51.758,-23.438,-34.668,-86.426,0.000
1606129382.549,28.809,-21.484,-26.855,73.730,0.000
1606129382.553,40.039,-19.043,-26.367,101.562,0.000
1606129382.557,-35.645,-21.484,-31.738,-44.922,0.000
1606129382.561,-97.168,-30.762,-32.227,-161.133,0.000
1606129382.565,-64.453,-33.691,-32.715,-106.445,0.000
1606129382.568,19.531,-26.367,-25.879,56.641,0.000
1606129382.572,40.527,-26.855,-29.785,100.098,0.000
1606129382.576,-24.902,-33.203,-28.809,-35.156,0.000
1606129382.580,-84.961,-38.574,-33.203,-171.387,0.000
1606129382.584,-72.266,-43.945,-41.992,-135.742,0.000
1606129382.588,7.812,-30.273,-29.785,35.645,0.000
1606129382.592,48.828,-18.066,-19.531,106.445,0.000
1606129382.596,-25.391,-29.297,-25.879,-16.602,0.000
1606129382.600,-105.957,-38.574,-35.156,-166.504,0.000
1606129382.604,-96.191,-34.668,-37.598,-156.738,0.000
1606129382.608,-7.324,-29.785,-30.762,4.883,0.000
1606129382.611,45.898,-23.926,-16.113,100.586,0.000
1606129382.615,-2.441,-24.414,-20.020,0.977,0.000
1606129382.619,-86.426,-34.180,-44.922,-160.645,0.000
1606129382.623,-93.750,-29.785,-36.621,-160.645,0.000
1606129382.627,-19.043,-20.020,-18.066,1.465,0.000
1606129382.631,37.109,-19.531,-23.438,106.445,0.000
1606129382.635,3.418,-21.484,-28.320,36.133,0.000
1606129382.639,-84.961,-27.832,-28.809,-120.117,0.000
1606129382.643,-104.004,-29.785,-30.273,-151.855,0.000
1606129382.647,-26.367,-22.461,-30.273,-9.766,0.000
1606129382.650,47.363,-18.555,-18.555,111.816,0.000
1606129382.654,20.996,-20.996,-18.555,60.547,0.000
1606129382.658,-64.941,-24.902,-31.738,-104.980,0.000
1606129382.662,-91.309,-35.156,-33.203,-160.645,0.000
1606129382.666,-32.227,-36.133,-32.227,-38.574,0.000
1606129382.670,39.062,-27.832,-27.832,94.238,0.000
1606129382.674,26.855,-22.949,-27.344,64.453,0.000
1606129382.678,-65.430,-34.180,-31.738,-102.539,0.000
1606129382.682,-111.328,-42.480,-28.809,-169.434,0.000
1606129382.686,-52.246,-32.227,-23.438,-55.176,0.000
1606129382.690,27.832,-29.297,-19.043,83.984,0.000
1606129382.693,19.531,-21.973,-22.461,75.684,0.000
1606129382.697,-64.453,-20.996,-34.180,-85.449,0.000
1606129382.701,-108.887,-35.156,-28.809,-168.457,0.000
1606129382.705,-59.570,-28.809,-24.414,-70.312,0.000
1606129382.709,26.367,-20.508,-22.949,77.148,0.000
1606129382.713,28.809,-28.320,-24.414,83.984,0.000
1606129382.717,-57.617,-37.598,-30.762,-66.895,0.000
1606129382.721,-117.188,-38.086,-31.738,-166.992,0.000
1606129382.725,-81.543,-35.645,-33.203,-95.215,0.000
1606129382.729,10.742,-29.297,-27.344,62.500,0.000
1606129382.733,38.574,-22.949,-24.414,103.027,0.000
1606129382.736,-31.738,-13.672,-37.109,-33.203,0.000
1606129382.740,-97.168,-21.973,-39.062,-158.203,0.000
1606129382.744,-75.684,-36.621,-29.785,-107.910,0.000
1606129382.748,11.719,-32.715,-26.367,57.129,0.000
1606129382.752,39.062,-35.645,-26.367,114.258,0.000
1606129382.756,-38.574,-45.410,-23.438,-15.625,0.000
1606129382.760,-111.328,-44.434,-26.367,-157.715,0.000
1606129382.764,-87.402,-37.109,-29.785,-131.348,0.000
1606129382.768,0.488,-34.668,-26.367,33.691,0.000
1606129382.772,41.016,-36.621,-22.949,105.469,0.000
1606129382.775,-11.230,-37.598,-28.320,-3.418,0.000
1606129382.779,-95.215,-44.434,-38.086,-147.949,0.000
1606129382.783,-100.586,-44.434,-34.180,-145.020,0.000
1606129382.787,-18.555,-37.598,-25.391,11.230,0.000
1606129382.791,30.762,-40.039,-23.438,96.680,0.000
1606129382.795,-16.113,-29.785,-24.414,13.672,0.000
1606129382.799,-97.168,-29.297,-24.414,-129.395,0.000
1606129382.803,-105.957,-41.992,-26.367,-147.949,0.000
1606129382.807,-22.461,-34.180,-22.461,1.465,0.000
1606129382.811,44.434,-25.391,-15.137,114.746,0.000
1606129382.815,11.719,-27.832,-20.020,52.246,0.000
1606129382.818,-78.125,-37.598,-29.785,-111.328,0.000
1606129382.822,-89.844,-31.738,-28.809,-160.156,0.000
1606129382.826,-14.648,-22.461,-26.855,-24.902,0.000
1606129382.830,33.203,-28.320,-25.879,104.492,0.000
1606129382.834,8.789,-27.832,-26.367,58.594,0.000
1606129382.838,-75.684,-26.855,-34.180,-113.281,0.000
1606129382.842,-104.492,-30.762,-35.156,-166.992,0.000
1606129382.846,-35.156,-34.668,-32.227,-43.457,0.000
1606129382.850,37.109,-30.762,-30.273,93.262,0.000
1606129382.854,23.438,-31.738,-30.762,71.289,0.000
1606129382.858,-62.500,-39.551,-35.156,-92.285,0.000
1606129382.861,-104.004,-36.621,-36.621,-166.992,0.000
1606129382.865,-54.688,-26.367,-35.156,-62.012,0.000
1606129382.869,28.809,-19.531,-23.926,88.867,0.000
1606129382.873,34.180,-21.484,-20.508,84.961,0.000
1606129382.877,-57.617,-31.250,-33.203,-79.590,0.000
1606129382.881,-107.910,-36.621,-34.180,-172.363,0.000
1606129382.885,-67.383,-33.691,-29.785,-88.867,0.000
1606129382.889,12.695,-21.484,-26.855,60.059,0.000
1606129382.893,36.621,-17.578,-25.879,85.449,0.000
1606129382.897,-38.574,-26.855,-31.250,-52.246,0.000
1606129382.900,-105.957,-32.715,-34.180,-167.969,0.000
1606129382.904,-83.984,-32.715,-32.227,-107.422,0.000
1606129382.908,-5.371,-28.809,-30.762,53.711,0.000
1606129382.912,23.926,-24.414,-30.762,91.309,0.000
1606129382.916,-39.062,-25.391,-36.621,-43.457,0.000
1606129382.920,-103.027,-28.320,-41.992,-163.086,0.000
1606129382.924,-80.566,-33.203,-38.574,-121.094,0.000
1606129382.928,-0.977,-33.691,-28.320,35.645,0.000
1606129382.932,31.250,-30.762,-15.625,103.027,0.000
1606129382.936,-31.250,-35.645,-27.344,-14.160,0.000
1606129382.940,-109.863,-41.992,-37.598,-158.691,0.000
1606129382.943,-102.051,-42.480,-34.180,-140.625,0.000
1606129382.947,-17.090,-34.668,-33.203,22.461,0.000
1606129382.951,37.109,-26.855,-26.855,111.816,0.000
1606129382.955,-5.859,-28.809,-31.250,14.648,0.000
1606129382.959,-86.426,-33.203,-31.250,-133.789,0.000
1606129382.963,-88.867,-29.785,-22.461,-138.672,0.000
1606129382.967,-10.254,-25.879,-23.438,11.719,0.000
1606129382.971,39.062,-31.250,-24.902,106.445,0.000
1606129382.975,-3.906,-34.668,-26.855,32.227,0.000
1606129382.979,-89.844,-39.062,-31.738,-124.512,0.000
1606129382.983,-108.398,-35.645,-33.203,-163.086,0.000
1606129382.986,-26.855,-28.320,-30.762,-23.926,0.000
1606129382.990,41.016,-28.809,-32.715,95.703,0.000
1606129382.994,4.395,-30.273,-33.203,45.898,0.000
1606129382.998,-81.543,-33.691,-34.180,-117.188,0.000
1606129383.002,-104.004,-35.645,-37.598,-169.434,0.000
1606129383.006,-39.551,-31.250,-32.227,-41.504,0.000
1606129383.010,35.156,-25.391,-25.879,94.727,0.000
1606129383.014,28.809,-26.367,-34.668,69.336,0.000
1606129383.018,-74.219,-36.621,-42.480,-102.539,0.000
1606129383.022,-127.930,-42.969,-34.180,-182.129,0.000
1606129383.025,-63.477,-40.527,-31.738,-77.148,0.000
1606129383.029,21.973,-34.180,-32.227,63.965,0.000
1606129383.033,28.809,-27.832,-28.809,64.453,0.000
1606129383.037,-64.941,-35.156,-33.691,-93.750,0.000
1606129383.041,-116.699,-43.457,-41.016,-186.523,0.000
1606129383.045,-68.359,-39.062,-39.551,-95.215,0.000
1606129383.049,16.602,-33.203,-36.621,62.500,0.000
1606129383.053,30.762,-36.133,-28.320,82.031,0.000
1606129383.057,-54.199,-41.504,-28.809,-67.871,0.000
1606129383.061,-106.934,-39.551,-38.086,-175.293,0.000
1606129383.065,-67.871,-34.668,-38.574,-105.957,0.000
1606129383.068,17.578,-29.785,-36.133,52.734,0.000
1606129383.072,41.504,-32.227,-33.691,89.355,0.000
1606129383.076,-28.320,-40.527,-40.527,-49.316,0.000
1606129383.080,-96.680,-42.480,-45.410,-168.945,0.000
1606129383.084,-76.172,-38.086,-41.504,-116.699,0.000
1606129383.088,13.672,-31.250,-32.715,48.828,0.000
1606129383.092,46.387,-30.273,-31.250,102.051,0.000
1606129383.096,-23.926,-39.062,-37.109,-26.855,0.000
1606129383.100,-94.727,-46.875,-41.992,-168.945,0.000
1606129383.104,-86.426,-40.527,-42.480,-141.602,0.000
1606129383.108,-18.066,-26.855,-39.062,30.273,0.000
1606129383.111,22.949,-30.762,-33.203,102.539,0.000
1606129383.115,-31.738,-34.668,-34.668,-12.695,0.000
1606129383.119,-110.840,-34.180,-40.039,-157.227,0.000
1606129383.123,-101.074,-38.086,-30.762,-149.902,0.000
1606129383.127,-12.207,-33.203,-20.996,9.766,0.000
1606129383.131,40.527,-26.855,-23.926,104.980,0.000
1606129383.135,-2.930,-31.738,-32.227,15.137,0.000
1606129383.139,-88.379,-42.480,-35.645,-137.695,0.000
1606129383.143,-91.309,-38.086,-33.203,-149.414,0.000
1606129383.147,-7.324,-30.762,-30.762,0.000,0.000
1606129383.150,48.340,-31.738,-31.250,108.398,0.000
1606129383.154,8.301,-35.645,-37.598,40.527,0.000
1606129383.158,-81.543,-40.039,-42.480,-123.535,0.000
1606129383.162,-102.539,-37.109,-39.062,-161.621,0.000
1606129383.166,-25.391,-30.762,-29.785,-26.367,0.000
1606129383.170,50.781,-21.484,-21.484,102.051,0.000
1606129383.174,30.273,-19.531,-25.391,60.547,0.000
1606129383.178,-58.594,-32.715,-35.156,-108.887,0.000
1606129383.182,-94.727,-43.945,-41.992,-175.781,0.000
1606129383.186,-37.109,-43.457,-40.039,-59.570,0.000
1606129383.190,27.832,-40.039,-38.086,79.102,0.000
1606129383.193,25.391,-36.621,-37.598,61.035,0.000
1606129383.197,-55.176,-42.969,-38.574,-96.680,0.000
1606129383.201,-112.305,-45.410,-35.645,-166.504,0.000
1606129383.205,-61.523,-40.527,-31.738,-65.918,0.000
1606129383.209,22.461,-36.621,-33.691,78.613,0.000
1606129383.213,25.391,-35.156,-34.180,83.008,0.000
1606129383.217,-58.594,-42.969,-37.109,-78.125,0.000
1606129383.221,-105.469,-39.062,-41.504,-175.781,0.000
1606129383.225,-56.641,-37.598,-35.645,-94.238,0.000
1606129383.229,26.855,-35.645,-27.832,56.152,0.000
1606129383.233,35.645,-25.391,-27.344,83.984,0.000
1606129383.236,-44.434,-29.297,-35.645,-61.035,0.000
1606129383.240,-104.492,-36.621,-44.434,-172.852,0.000
1606129383.244,-74.219,-34.668,-42.480,-111.816,0.000
1606129383.248,11.719,-31.738,-32.227,46.387,0.000
1606129383.252,26.855,-34.180,-32.715,87.402,0.000
1606129383.256,-47.363,-24.414,-46.875,-47.363,0.000
1606129383.260,-109.863,-35.156,-49.805,-173.828,0.000
1606129383.264,-86.914,-47.363,-45.898,-135.742,0.000
1606129383.268,9.766,-38.574,-43.457,31.738,0.000
1606129383.272,47.852,-30.273,-40.527,107.910,0.000
1606129383.275,-5.859,-33.203,-41.016,0.000,0.000
1606129383.279,-89.355,-47.363,-37.598,-146.484,0.000
1606129383.283,-103.027,-49.805,-32.715,-144.531,0.000
1606129383.287,-17.090,-44.922,-29.785,10.742,0.000
1606129383.291,37.109,-46.875,-29.785,92.773,0.000
1606129383.295,-15.625,-27.832,-34.180,-9.277,0.000
1606129383.299,-101.562,-18.066,-39.062,-158.203,0.000
1606129383.303,-105.469,-44.922,-37.598,-165.039,0.000
1606129383.307,-18.066,-48.340,-35.645,-14.648,0.000
1606129383.311,46.875,-41.504,-30.762,98.145,0.000
1606129383.315,-5.371,-43.457,-27.344,31.738,0.000
1606129383.318,-96.680,-46.387,-33.203,-123.047,0.000
1606129383.322,-104.004,-46.875,-30.762,-147.461,0.000
1606129383.326,-24.414,-41.992,-19.043,-1.465,0.000
1606129383.330,34.668,-33.203,-19.531,110.840,0.000
1606129383.334,6.836,-34.180,-28.809,47.363,0.000
1606129383.338,-79.590,-41.992,-34.668,-116.211,0.000
1606129383.342,-115.234,-48.340,-35.645,-167.480,0.000
1606129383.346,-50.293,-42.480,-25.879,-41.504,0.000
1606129383.350,19.531,-35.645,-17.578,88.379,0.000
1606129383.354,-0.977,-30.273,-22.461,54.688,0.000
1606129383.358,-79.590,-27.344,-31.738,-100.098,0.000
1606129383.361,-111.328,-41.016,-28.809,-169.922,0.000
1606129383.365,-51.758,-42.480,-25.391,-61.523,0.000
1606129383.369,20.020,-31.250,-18.555,84.473,0.000
1606129383.373,11.230,-30.273,-20.508,78.613,0.000
1606129383.377,-69.336,-33.691,-30.762,-80.566,0.000
1606129383.381,-109.375,-38.086,-33.203,-169.922,0.000
1606129383.385,-50.293,-36.133,-29.785,-76.660,0.000
1606129383.389,28.809,-26.367,-25.391,76.660,0.000
1606129383.393,24.902,-27.344,-27.832,92.773,0.000
1606129383.397,-60.059,-29.297,-32.227,-59.082,0.000
1606129383.400,-117.188,-36.133,-36.133,-163.086,0.000
1606129383.404,-74.219,-35.645,-27.832,-84.473,0.000
1606129383.408,6.836,-24.902,-13.672,75.195,0.000
1606129383.412,26.367,-22.461,-19.043,105.957,0.000
1606129383.416,-40.039,-25.391,-34.180,-37.109,0.000
1606129383.420,-110.840,-33.691,-36.133,-162.598,0.000
1606129383.424,-81.543,-31.250,-35.645,-113.770,0.000
1606129383.428,16.602,-27.832,-36.133,47.363,0.000
1606129383.432,38.086,-26.367,-31.738,102.051,0.000
1606129383.436,-31.738,-20.020,-34.668,-17.578,0.000
1606129383.440,-104.492,-33.691,-36.621,-151.367,0.000
1606129383.443,-95.703,-45.898,-37.109,-125.488,0.000
1606129383.447,-8.301,-38.086,-27.832,35.645,0.000
1606129383.451,33.691,-35.156,-21.973,105.957,0.000
1606129383.455,-21.973,-38.574,-26.367,-1.465,0.000
1606129383.459,-94.727,-36.133,-31.250,-142.578,0.000
1606129383.463,-94.238,-36.133,-38.574,-137.695,0.000
1606129383.467,-16.602,-34.668,-34.668,18.066,0.000
1606129383.471,41.016,-24.902,-22.949,110.840,0.000
1606129383.475,5.371,-28.320,-20.996,24.414,0.000
1606129383.479,-87.402,-40.527,-31.738,-129.883,0.000
1606129383.483,-93.750,-35.156,-32.715,-146.484,0.000
1606129383.486,-7.324,-29.785,-26.367,0.000,0.000
1606129383.490,35.156,-34.180,-32.227,100.098,0.000
1606129383.494,0.000,-32.227,-31.250,40.527,0.000
1606129383.498,-85.938,-27.832,-22.949,-109.863,0.000
1606129383.502,-118.652,-34.668,-26.855,-152.344,0.000
1606129383.506,-46.875,-36.133,-21.484,-17.090,0.000
1606129383.510,29.785,-25.879,-8.301,104.004,0.000
1606129383.514,6.836,-26.855,-14.160,49.805,0.000
1606129383.518,-76.660,-40.527,-22.461,-111.816,0.000
1606129383.522,-104.492,-44.922,-24.414,-169.434,0.000
1606129383.525,-32.715,-31.738,-13.184,-48.340,0.000
1606129383.529,56.152,-21.484,-2.441,94.238,0.000
1606129383.533,36.133,-26.855,-20.996,64.453,0.000
1606129383.537,-64.453,-33.203,-37.109,-100.098,0.000
1606129383.541,-100.098,-38.574,-38.086,-173.828,0.000
1606129383.545,-47.852,-33.203,-27.344,-65.430,0.000
1606129383.549,25.391,-27.344,-21.484,83.496,0.000
1606129383.553,28.809,-27.832,-25.391,82.031,0.000
1606129383.557,-56.641,-32.227,-34.668,-82.031,0.000
1606129383.561,-107.910,-36.621,-34.668,-176.758,0.000
1606129383.565,-61.035,-37.109,-21.973,-89.355,0.000
1606129383.568,21.973,-27.344,-26.855,61.523,0.000
1606129383.572,40.527,-17.578,-29.785,84.473,0.000
1606129383.576,-33.203,-1.465,-28.320,-63.965,0.000
1606129383.580,-97.656,-6.836,-30.273,-179.199,0.000
1606129383.584,-63.965,-33.691,-26.367,-118.652,0.000
1606129383.588,23.438,-31.250,-24.414,44.434,0.000
1606129383.592,48.340,-23.926,-22.949,94.727,0.000
1606129383.596,-24.414,-28.809,-33.203,-44.434,0.000
1606129383.600,-111.328,-39.551,-33.203,-176.270,0.000
1606129383.604,-98.633,-42.480,-25.879,-137.207,0.000
1606129383.608,-7.812,-33.691,-28.809,21.484,0.000
1606129383.611,31.738,-35.645,-19.043,91.797,0.000
1606129383.615,-10.254,-42.969,-23.438,-12.207,0.000
1606129383.619,-84.473,-32.715,-37.109,-150.879,0.000
1606129383.623,-86.426,-24.902,-37.598,-139.160,0.000
1606129383.627,3.418,-18.555,-32.715,18.555,0.000
1606129383.631,46.387,-9.277,-33.691,92.773,0.000
1606129383.635,-0.977,-7.324,-47.363,-9.277,0.000
1606129383.639,-75.195,-15.137,-46.875,-148.926,0.000
1606129383.643,-83.984,-24.414,-41.016,-152.344,0.000
1606129383.647,6.836,-14.648,-36.133,4.395,0.000
1606129383.650,51.758,-11.230,-30.762,103.516,0.000
1606129383.654,1.953,-22.461,-34.668,20.020,0.000
1606129383.658,-77.637,-32.227,-35.156,-131.348,0.000
1606129383.662,-94.727,-33.203,-34.668,-152.832,0.000
1606129383.666,-1.953,-25.879,-32.227,-4.883,0.000
1606129383.670,62.500,-18.555,-30.273,119.629,0.000
1606129383.674,26.367,-14.648,-29.297,62.500,0.000
1606129383.678,-62.988,-8.789,-38.086,-111.816,0.000
1606129383.682,-94.238,-24.414,-39.551,-162.109,0.000
1606129383.686,-29.297,-31.738,-34.180,-27.832,0.000
1606129383.690,46.387,-21.973,-34.180,103.516,0.000
1606129383.693,37.598,-27.344,-34.668,64.453,0.000
1606129383.697,-58.105,-37.109,-36.133,-105.957,0.000
1606129383.701,-97.656,-37.598,-40.039,-170.898,0.000
1606129383.705,-38.086,-26.855,-34.180,-49.805,0.000
1606129383.709,33.691,-22.949,-29.297,92.773,0.000
1606129383.713,37.109,-14.648,-30.273,78.613,0.000
1606129383.717,-46.387,-3.906,-31.250,-81.543,0.000
1606129383.721,-107.422,-24.414,-34.180,-168.457,0.000
1606129383.725,-53.711,-33.691,-29.297,-73.730,0.000
1606129383.729,29.785,-31.738,-22.949,73.242,0.000
1606129383.733,29.297,-28.320,-23.438,89.355,0.000
1606129383.736,-49.316,-35.645,-35.645,-61.035,0.000
1606129383.740,-103.027,-40.039,-43.945,-168.457,0.000
1606129383.744,-62.500,-33.691,-35.645,-90.332,0.000
1606129383.748,18.066,-28.320,-25.391,69.824,0.000
1606129383.752,41.992,-25.879,-20.020,103.027,0.000
1606129383.756,-40.039,-32.715,-28.320,-39.551,0.000
1606129383.760,-123.047,-42.969,-38.574,-163.574,0.000
1606129383.764,-85.938,-42.969,-28.809,-108.398,0.000
1606129383.768,5.859,-32.227,-28.320,60.059,0.000
1606129383.772,33.691,-31.738,-34.180,105.469,0.000
1606129383.775,-32.227,-33.691,-41.992,-35.156,0.000
1606129383.779,-105.957,-33.691,-46.387,-164.062,0.000
1606129383.783,-85.449,-40.039,-38.574,-121.094,0.000
1606129383.787,8.301,-30.273,-28.320,43.945,0.000
1606129383.791,43.945,-26.855,-21.484,114.746,0.000
1606129383.795,-17.090,-29.785,-27.344,7.812,0.000
1606129383.799,-90.820,-32.227,-34.180,-132.324,0.000
1606129383.803,-84.961,-34.180,-31.250,-125.488,0.000
1606129383.807,-3.906,-22.949,-23.438,31.738,0.000
1606129383.811,42.969,-18.555,-20.508,122.070,0.000
1606129383.815,-2.441,-13.184,-31.250,24.902,0.000
1606129383.818,-83.496,-17.090,-41.016,-132.324,0.000
1606129383.822,-90.820,-35.156,-36.621,-145.508,0.000
1606129383.826,-13.184,-29.785,-33.203,6.348,0.000
1606129383.830,37.109,-28.809,-31.738,112.793,0.000
1606129383.834,4.883,-30.762,-32.715,41.016,0.000
1606129383.838,-78.613,-35.645,-39.062,-122.559,0.000
1606129383.842,-102.051,-42.480,-43.457,-160.645,0.000
1606129383.846,-24.902,-36.621,-40.039,-21.484,0.000
1606129383.850,47.363,-32.715,-40.527,102.539,0.000
1606129383.854,24.902,-25.879,-47.363,57.617,0.000
1606129383.858,-67.383,-22.461,-46.387,-105.957,0.000
1606129383.861,-102.051,-38.086,-34.180,-161.133,0.000
1606129383.865,-38.574,-37.598,-25.879,-37.598,0.000
1606129383.869,31.250,-36.133,-26.367,90.332,0.000
1606129383.873,15.137,-27.832,-27.832,61.523,0.000
1606129383.877,-66.406,-17.090,-28.809,-99.121,0.000
1606129383.881,-104.492,-32.715,-33.691,-170.410,0.000
1606129383.885,-44.434,-33.691,-35.645,-62.988,0.000
1606129383.889,40.527,-28.320,-29.297,83.496,0.000
1606129383.893,37.109,-28.809,-24.902,86.426,0.000
1606129383.897,-55.176,-28.320,-27.344,-66.895,0.000
1606129383.900,-99.609,-34.180,-29.297,-162.598,0.000
1606129383.904,-53.223,-29.785,-31.250,-78.613,0.000
1606129383.908,20.996,-24.414,-25.391,70.312,0.000
1606129383.912,33.203,-26.367,-22.461,84.473,0.000
1606129383.916,-47.363,-17.578,-27.344,-64.941,0.000
1606129383.920,-104.004,-22.461,-29.297,-176.270,0.000
1606129383.924,-73.730,-35.156,-27.344,-112.793,0.000
1606129383.928,11.230,-32.715,-22.949,50.293,0.000
1606129383.932,42.480,-28.809,-20.508,102.051,0.000
1606129383.936,-30.273,-31.738,-25.879,-28.320,0.000
1606129383.940,-100.098,-38.086,-32.227,-160.156,0.000
1606129383.943,-74.219,-32.227,-30.762,-118.164,0.000
1606129383.947,15.137,-20.020,-26.367,52.246,0.000
1606129383.951,49.316,-17.090,-24.902,118.164,0.000
1606129383.955,-13.672,-10.742,-28.809,-2.441,0.000
1606129383.959,-80.566,-8.301,-29.785,-145.020,0.000
1606129383.963,-67.871,-27.344,-25.391,-123.047,0.000
1606129383.967,11.719,-29.297,-24.414,43.457,0.000
1606129383.971,49.805,-25.879,-23.438,120.117,0.000
1606129383.975,-6.348,-28.320,-25.879,17.090,0.000
1606129383.979,-89.355,-29.297,-33.691,-129.395,0.000
1606129383.983,-90.820,-32.227,-35.156,-135.742,0.000
1606129383.986,5.371,-22.461,-27.344,24.902,0.000
1606129383.990,64.453,-16.602,-23.926,133.789,0.000
1606129383.994,27.832,-9.277,-30.273,47.363,0.000
1606129383.998,-53.223,-10.742,-31.250,-113.281,0.000
1606129384.002,-79.102,-27.344,-31.738,-142.578,0.000
1606129384.006,-8.789,-24.414,-32.715,-2.441,0.000
1606129384.010,57.129,-18.066,-24.902,117.188,0.000
1606129384.014,25.879,-19.531,-26.855,58.594,0.000
1606129384.018,-65.918,-25.879,-34.668,-104.980,0.000
1606129384.022,-88.867,-28.320,-32.227,-144.531,0.000
1606129384.025,-21.973,-21.484,-32.227,-14.648,0.000
1606129384.029,50.293,-12.207,-35.156,114.258,0.000
1606129384.033,32.715,-14.160,-29.297,89.844,0.000
1606129384.037,-75.684,-26.855,-25.391,-82.520,0.000
1606129384.041,-127.441,-28.320,-23.926,-159.668,0.000
1606129384.045,-65.430,-21.484,-20.508,-39.551,0.000
1606129384.049,9.277,-20.508,-20.020,92.773,0.000
1606129384.053,11.719,-21.973,-17.090,69.824,0.000
1606129384.057,-65.430,-16.113,-21.973,-93.750,0.000
1606129384.061,-115.234,-19.531,-35.645,-174.805,0.000
1606129384.065,-60.547,-29.297,-32.715,-74.219,0.000
1606129384.068,24.414,-25.391,-25.391,71.289,0.000
1606129384.072,25.879,-26.367,-30.762,78.613,0.000
1606129384.076,-60.059,-31.738,-38.574,-71.289,0.000
1606129384.080,-116.211,-34.180,-39.062,-170.410,0.000
1606129384.084,-68.359,-32.227,-40.039,-95.703,0.000
1606129384.088,17.578,-29.297,-31.738,60.059,0.000
1606129384.092,35.645,-24.902,-26.855,89.355,0.000
1606129384.096,-31.250,-22.949,-29.297,-54.199,0.000
1606129384.100,-93.262,-31.250,-36.133,-172.363,0.000
1606129384.104,-69.336,-37.598,-44.434,-120.117,0.000
1606129384.108,20.020,-30.762,-35.156,49.805,0.000
1606129384.111,47.363,-28.320,-24.902,105.957,0.000
1606129384.115,-18.555,-33.203,-21.973,-21.484,0.000
1606129384.119,-95.215,-38.086,-30.762,-155.762,0.000
1606129384.123,-89.844,-38.086,-32.227,-127.930,0.000
1606129384.127,-0.977,-30.762,-22.949,39.062,0.000
1606129384.131,42.480,-23.926,-21.484,111.328,0.000
1606129384.135,-18.555,-29.297,-23.926,3.418,0.000
1606129384.139,-100.586,-33.203,-27.832,-133.789,0.000
1606129384.143,-93.262,-35.156,-30.762,-127.441,0.000
1606129384.147,-3.906,-29.785,-23.438,28.809,0.000
1606129384.150,47.363,-23.438,-16.602,117.188,0.000
1606129384.154,-3.906,-15.625,-21.973,27.344,0.000
1606129384.158,-85.938,-3.906,-30.762,-123.535,0.000
1606129384.162,-87.891,-14.160,-30.762,-134.766,0.000
1606129384.166,-7.812,-17.090,-26.855,19.531,0.000
1606129384.170,55.176,-10.742,-27.832,124.512,0.000
1606129384.174,30.762,-11.719,-35.156,53.223,0.000
1606129384.178,-59.570,-16.602,-40.527,-100.586,0.000
1606129384.182,-83.008,-17.090,-36.133,-132.812,0.000
1606129384.186,-2.930,-9.766,-36.133,5.371,0.000
1606129384.190,68.359,-8.301,-35.156,120.117,0.000
1606129384.193,41.016,-4.883,-41.504,60.547,0.000
1606129384.197,-53.711,-2.441,-50.293,-108.887,0.000
1606129384.201,-90.820,-13.184,-43.457,-156.250,0.000
1606129384.205,-23.926,-9.766,-39.551,-28.320,0.000
1606129384.209,56.152,-8.301,-41.504,99.609,0.000
1606129384.213,47.363,-10.254,-38.086,72.266,0.000
1606129384.217,-41.992,-10.254,-39.551,-90.332,0.000
1606129384.221,-84.473,-18.066,-36.133,-160.645,0.000
1606129384.225,-29.297,-18.066,-31.738,-49.805,0.000
1606129384.229,44.434,-9.766,-36.133,88.379,0.000
1606129384.233,41.992,-11.230,-31.250,79.102,0.000
1606129384.236,-45.898,4.883,-40.527,-79.102,0.000
1606129384.240,-96.191,-1.465,-48.340,-176.270,0.000
1606129384.244,-60.547,-33.203,-37.109,-89.844,0.000
1606129384.248,5.371,-29.297,-30.762,62.012,0.000
1606129384.252,14.648,-25.879,-33.691,67.871,0.000
1606129384.256,-65.918,-38.574,-41.016,-88.867,0.000
1606129384.260,-131.348,-50.293,-37.109,-193.848,0.000
1606129384.264,-105.957,-46.875,-23.926,-121.094,0.000
1606129384.268,-17.090,-40.527,-21.484,39.062,0.000
1606129384.272,11.230,-39.551,-20.020,83.984,0.000
1606129384.275,-47.852,-37.598,-22.949,-46.875,0.000
1606129384.279,-114.746,-40.039,-29.297,-170.410,0.000
1606129384.283,-109.375,-45.898,-27.832,-125.488,0.000
1606129384.287,-22.949,-48.828,-23.438,34.180,0.000
1606129384.291,12.207,-43.945,-22.949,89.355,0.000
1606129384.295,-54.199,-31.250,-27.344,-34.180,0.000
1606129384.299,-122.070,-31.738,-30.762,-170.898,0.000
1606129384.303,-103.027,-40.039,-30.273,-151.367,0.000
1606129384.307,-10.742,-34.180,-22.461,13.184,0.000
1606129384.311,40.039,-27.832,-18.066,96.680,0.000
1606129384.315,-13.184,-31.250,-26.855,-7.324,0.000
1606129384.318,-86.914,-34.180,-31.250,-151.367,0.000
1606129384.322,-91.797,-30.762,-30.273,-150.391,0.000
1606129384.326,-12.695,-23.438,-29.785,4.883,0.000
1606129384.330,48.828,-20.996,-24.902,101.074,0.000
1606129384.334,6.348,-19.043,-26.367,15.625,0.000
1606129384.338,-75.684,-14.160,-36.621,-140.625,0.000
1606129384.342,-81.055,-26.367,-40.039,-155.762,0.000
1606129384.346,-8.301,-28.809,-35.156,-6.348,0.000
1606129384.350,54.199,-21.484,-31.250,104.980,0.000
1606129384.354,28.320,-24.902,-33.203,41.992,0.000
1606129384.358,-73.730,-31.738,-41.016,-114.746,0.000
1606129384.361,-103.516,-30.762,-39.062,-146.973,0.000
1606129384.365,-36.133,-27.344,-31.738,-14.648,0.000
1606129384.369,30.273,-26.855,-26.367,104.004,0.000
1606129384.373,7.812,-24.414,-26.367,58.105,0.000
1606129384.377,-83.008,-27.344,-26.367,-107.910,0.000
1606129384.381,-120.117,-37.109,-28.809,-174.316,0.000
1606129384.385,-61.035,-37.109,-34.180,-67.871,0.000
1606129384.389,11.719,-34.180,-30.762,64.453,0.000
1606129384.393,1.465,-31.738,-31.738,46.387,0.000
1606129384.397,-84.473,-39.551,-38.086,-112.793,0.000
1606129384.400,-125.488,-47.852,-35.156,-192.383,0.000
1606129384.404,-77.148,-38.086,-28.320,-95.215,0.000
1606129384.408,5.371,-29.785,-19.043,52.246,0.000
1606129384.412,10.254,-27.344,-20.996,59.570,0.000
1606129384.416,-71.777,-28.320,-29.785,-90.332,0.000
1606129384.420,-113.770,-36.621,-24.902,-186.523,0.000
1606129384.424,-69.336,-35.156,-21.484,-107.422,0.000
1606129384.428,7.812,-26.367,-21.484,50.781,0.000
1606129384.432,20.508,-37.109,-22.949,78.613,0.000
1606129384.436,-48.340,-25.391,-29.785,-62.500,0.000
1606129384.440,-111.816,-15.625,-32.715,-177.246,0.000
1606129384.443,-89.844,-35.645,-29.297,-120.117,0.000
1606129384.447,4.395,-31.250,-19.043,50.781,0.000
1606129384.451,26.367,-30.273,-16.602,98.145,0.000
1606129384.455,-37.109,-34.180,-22.461,-37.109,0.000
1606129384.459,-90.332,-38.086,-19.043,-162.109,0.000
1606129384.463,-79.102,-32.715,-8.789,-113.770,0.000
1606129384.467,4.395,-20.996,-11.719,52.734,0.000
1606129384.471,46.875,-24.902,-15.625,113.281,0.000
1606129384.475,-20.020,-18.066,-14.160,-1.465,0.000
1606129384.479,-101.562,-21.484,-18.555,-143.555,0.000
1606129384.483,-90.332,-37.598,-19.531,-130.371,0.000
1606129384.486,-5.859,-34.180,-10.254,34.668,0.000
1606129384.490,44.922,-33.691,-6.348,122.559,0.000
1606129384.494,-5.371,-32.227,-8.789,18.066,0.000
1606129384.498,-91.309,-35.156,-15.625,-142.090,0.000
1606129384.502,-96.680,-36.133,-19.043,-149.902,0.000
1606129384.506,-21.484,-27.832,-10.254,5.859,0.000
1606129384.510,33.691,-25.391,-3.906,115.234,0.000
1606129384.514,7.324,-14.160,-10.742,45.410,0.000
1606129384.518,-88.379,2.930,-24.414,-120.117,0.000
1606129384.522,-121.582,-21.484,-31.250,-163.574,0.000
1606129384.525,-34.668,-41.504,-24.902,-17.578,0.000
1606129384.529,38.574,-31.738,-14.648,111.816,0.000
1606129384.533,19.531,-27.344,-9.766,56.152,0.000
1606129384.537,-62.012,-33.691,-18.066,-110.352,0.000
1606129384.541,-97.168,-35.645,-24.414,-167.969,0.000
1606129384.545,-38.086,-29.297,-15.625,-40.527,0.000
1606129384.549,38.086,-27.344,-8.301,101.074,0.000
1606129384.553,22.949,-29.785,-18.066,67.383,0.000
1606129384.557,-71.289,-31.250,-31.250,-101.074,0.000
1606129384.561,-106.445,-34.668,-34.668,-173.340,0.000
1606129384.565,-46.875,-36.133,-28.320,-70.312,0.000
1606129384.568,23.438,-31.250,-19.043,73.730,0.000
1606129384.572,24.414,-24.902,-22.949,69.824,0.000
1606129384.576,-58.105,-26.367,-30.762,-84.473,0.000
1606129384.580,-110.840,-32.715,-28.320,-171.387,0.000
1606129384.584,-64.941,-32.227,-20.508,-77.637,0.000
1606129384.588,24.902,-25.391,-16.602,83.496,0.000
1606129384.592,28.809,-28.809,-15.625,90.820,0.000
1606129384.596,-63.965,-38.574,-19.043,-73.242,0.000
1606129384.600,-117.676,-48.340,-24.902,-182.617,0.000
1606129384.604,-81.055,-47.363,-26.367,-112.305,0.000
1606129384.608,13.672,-34.180,-19.531,50.781,0.000
1606129384.611,34.180,-34.668,-22.461,87.402,0.000
1606129384.615,-40.039,-28.320,-34.668,-53.223,0.000
1606129384.619,-103.516,-19.531,-39.551,-177.246,0.000
1606129384.623,-85.938,-29.785,-37.598,-129.395,0.000
1606129384.627,-2.930,-33.691,-35.645,37.109,0.000
1606129384.631,36.133,-27.832,-33.203,99.609,0.000
1606129384.635,-21.973,-25.391,-33.203,-18.066,0.000
1606129384.639,-98.633,-35.156,-44.922,-155.273,0.000
1606129384.643,-82.031,-40.527,-45.898,-130.371,0.000
1606129384.647,15.625,-29.785,-29.785,41.504,0.000
1606129384.650,64.453,-23.926,-19.043,131.348,0.000
1606129384.654,3.418,-8.301,-24.902,27.832,0.000
1606129384.658,-87.891,-5.371,-34.180,-125.977,0.000
1606129384.662,-90.332,-32.715,-35.645,-128.418,0.000
1606129384.666,-7.812,-32.715,-24.902,28.809,0.000
1606129384.670,48.828,-24.414,-13.184,127.441,0.000
1606129384.674,8.301,-27.832,-17.090,40.039,0.000
1606129384.678,-76.172,-32.715,-27.832,-116.211,0.000
1606129384.682,-90.332,-32.715,-31.738,-138.184,0.000
1606129384.686,-8.789,-24.414,-16.602,8.789,0.000
1606129384.690,53.711,-16.113,-9.766,120.605,0.000
1606129384.693,19.531,-20.508,-20.996,53.223,0.000
1606129384.697,-60.547,-28.320,-21.973,-107.422,0.000
1606129384.701,-90.820,-31.738,-27.344,-148.926,0.000
1606129384.705,-21.973,-27.344,-25.879,-15.137,0.000
1606129384.709,54.199,-22.949,-17.578,113.770,0.000
1606129384.713,28.320,-27.344,-24.414,65.918,0.000
1606129384.717,-55.664,-21.484,-27.832,-95.703,0.000
1606129384.721,-78.125,-26.855,-20.508,-150.391,0.000
1606129384.725,-27.344,-36.621,-15.625,-31.738,0.000
1606129384.729,41.016,-30.762,-9.277,110.840,0.000
1606129384.733,37.109,-27.344,-6.348,94.727,0.000
1606129384.736,-46.387,-29.785,-13.672,-64.941,0.000
1606129384.740,-88.867,-39.062,-20.508,-145.996,0.000
1606129384.744,-43.457,-39.062,-20.508,-46.875,0.000
1606129384.748,37.109,-26.367,-15.137,99.121,0.000
1606129384.752,42.480,-23.926,-13.184,98.145,0.000
1606129384.756,-42.969,-25.879,-18.555,-60.547,0.000
1606129384.760,-100.098,-27.344,-29.297,-164.551,0.000
1606129384.764,-59.570,-31.250,-30.762,-88.379,0.000
1606129384.768,26.855,-23.438,-20.996,68.848,0.000
1606129384.772,31.250,-26.367,-27.832,88.379,0.000
1606129384.775,-48.340,-34.180,-36.133,-65.918,0.000
1606129384.779,-104.492,-36.133,-39.062,-182.617,0.000
1606129384.783,-73.242,-37.598,-36.621,-122.070,0.000
1606129384.787,11.719,-29.297,-32.715,37.598,0.000
1606129384.791,39.551,-26.855,-26.855,90.332,0.000
1606129384.795,-22.461,-11.719,-27.832,-31.250,0.000
1606129384.799,-92.773,-9.766,-42.480,-164.551,0.000
1606129384.803,-87.402,-27.832,-39.551,-128.418,0.000
1606129384.807,5.859,-24.414,-25.391,39.062,0.000
1606129384.811,49.805,-22.949,-20.020,112.793,0.000
1606129384.815,-11.719,-10.742,-27.344,1.465,0.000
1606129384.818,-82.520,-13.184,-36.133,-142.578,0.000
1606129384.822,-77.148,-27.832,-32.715,-125.488,0.000
1606129384.826,6.348,-20.508,-26.855,43.457,0.000
1606129384.830,57.129,-18.555,-20.996,123.535,0.000
1606129384.834,7.812,-20.996,-19.531,26.855,0.000
1606129384.838,-68.359,-23.926,-22.949,-115.723,0.000
1606129384.842,-68.359,-29.297,-24.414,-129.883,0.000
1606129384.846,-3.418,-30.762,-16.113,14.160,0.000
1606129384.850,42.480,-30.273,-12.207,113.281,0.000
1606129384.854,-0.488,-24.414,-17.090,33.691,0.000
1606129384.858,-86.426,-14.648,-22.949,-123.535,0.000
1606129384.861,-99.121,-32.227,-22.949,-150.879,0.000
1606129384.865,-25.879,-39.062,-13.672,-12.207,0.000
1606129384.869,36.621,-28.809,-7.324,107.910,0.000
1606129384.873,0.488,-29.297,-9.766,58.105,0.000
1606129384.877,-83.008,-37.598,-18.066,-109.863,0.000
1606129384.881,-104.492,-41.504,-22.461,-164.551,0.000
1606129384.885,-45.410,-37.109,-19.531,-38.086,0.000
1606129384.889,27.344,-29.785,-20.996,89.844,0.000
1606129384.893,18.555,-30.762,-21.484,57.129,0.000
1606129384.897,-71.777,-18.555,-27.832,-107.422,0.000
1606129384.900,-105.469,-21.484,-30.273,-174.805,0.000
1606129384.904,-41.504,-39.062,-21.973,-62.012,0.000
1606129384.908,24.902,-33.691,-17.578,81.055,0.000
1606129384.912,19.043,-37.109,-21.484,71.289,0.000
1606129384.916,-62.988,-41.992,-21.973,-86.914,0.000
1606129384.920,-115.723,-43.945,-22.949,-176.758,0.000
1606129384.924,-72.266,-47.363,-34.180,-87.891,0.000
1606129384.928,9.766,-42.480,-36.133,62.988,0.000
1606129384.932,20.508,-39.062,-30.273,78.613,0.000
1606129384.936,-56.641,-22.461,-37.598,-66.406,0.000
1606129384.940,-110.352,-27.832,-42.480,-171.875,0.000
1606129384.943,-67.383,-45.898,-33.691,-95.703,0.000
1606129384.947,15.137,-35.156,-24.414,68.848,0.000
1606129384.951,32.715,-32.227,-22.461,106.445,0.000
1606129384.955,-39.551,-36.621,-28.809,-33.203,0.000
1606129384.959,-101.074,-41.504,-29.297,-156.250,0.000
1606129384.963,-76.172,-40.039,-30.273,-108.887,0.000
1606129384.967,7.812,-33.203,-24.902,55.176,0.000
1606129384.971,37.109,-35.156,-22.461,110.840,0.000
1606129384.975,-23.926,-38.086,-23.438,-12.207,0.000
1606129384.979,-91.797,-42.969,-26.855,-145.508,0.000
1606129384.983,-78.125,-41.992,-25.879,-117.676,0.000
1606129384.986,11.230,-32.715,-17.090,41.504,0.000
1606129384.990,49.805,-37.109,-12.207,110.840,0.000
1606129384.994,-8.301,-15.137,-12.695,5.859,0.000
1606129384.998,-84.961,19.043,-20.996,-137.695,0.000
1606129385.002,-82.520,-10.742,-20.996,-135.742,0.000
1606129385.006,6.348,-30.273,-17.090,20.020,0.000
1606129385.010,47.363,-27.344,-13.184,106.934,0.000
1606129385.014,-8.789,-32.715,-15.625,13.672,0.000
1606129385.018,-88.379,-37.109,-20.020,-139.648,0.000
1606129385.022,-105.957,-41.992,-20.508,-161.133,0.000
1606129385.025,-36.133,-34.180,-20.508,-11.719,0.000
1606129385.029,29.297,-31.738,-15.137,102.539,0.000
1606129385.033,4.883,-27.344,-12.695,33.691,0.000
1606129385.037,-79.102,-15.137,-19.043,-131.836,0.000
1606129385.041,-105.469,-38.086,-22.949,-172.852,0.000
1606129385.045,-29.785,-43.457,-16.602,-31.250,0.000
1606129385.049,41.504,-37.598,-16.113,92.773,0.000
1606129385.053,14.160,-40.039,-20.996,41.992,0.000
1606129385.057,-75.195,-37.109,-22.949,-119.629,0.000
1606129385.061,-108.887,-41.504,-26.855,-177.246,0.000
1606129385.065,-37.109,-40.039,-20.020,-49.805,0.000
1606129385.068,46.875,-29.297,-9.277,95.703,0.000
1606129385.072,37.109,-33.691,-8.789,75.684,0.000
1606129385.076,-52.734,-16.113,-17.090,-78.125,0.000
1606129385.080,-99.609,-20.996,-24.414,-159.180,0.000
1606129385.084,-51.758,-41.992,-22.461,-61.035,0.000
1606129385.088,28.809,-33.203,-15.625,92.773,0.000
1606129385.092,29.297,-32.227,-19.531,93.262,0.000
1606129385.096,-59.082,-25.391,-28.809,-67.871,0.000
1606129385.100,-111.816,-36.621,-37.109,-164.551,0.000
1606129385.104,-74.707,-44.922,-33.691,-83.496,0.000
1606129385.108,4.395,-32.715,-26.367,71.289,0.000
1606129385.111,21.973,-33.203,-29.785,97.656,0.000
1606129385.115,-50.781,-41.016,-36.133,-51.758,0.000
1606129385.119,-113.281,-44.434,-37.109,-171.875,0.000
1606129385.123,-76.660,-40.527,-27.832,-103.027,0.000
1606129385.127,7.324,-31.250,-22.461,54.688,0.000
1606129385.131,23.926,-34.668,-24.414,88.867,0.000
1606129385.135,-39.062,-11.719,-26.855,-39.551,0.000
1606129385.139,-106.445,-5.371,-29.785,-165.527,0.000
1606129385.143,-88.867,-34.180,-29.297,-118.164,0.000
1606129385.147,1.465,-21.484,-21.973,44.434,0.000
1606129385.150,39.062,-17.578,-19.043,101.074,0.000
1606129385.154,-14.160,-26.367,-21.484,-6.348,0.000
1606129385.158,-83.496,-27.344,-20.996,-144.043,0.000
1606129385.162,-82.520,-24.902,-16.602,-133.301,0.000
1606129385.166,-9.766,-22.949,-17.090,29.297,0.000
1606129385.170,28.809,-20.996,-19.531,116.211,0.000
1606129385.174,-22.461,-16.602,-24.414,12.695,0.000
1606129385.178,-103.516,8.789,-25.391,-141.602,0.000
1606129385.182,-107.422,-7.324,-24.902,-148.438,0.000
1606129385.186,-22.949,-37.598,-22.461,10.742,0.000
1606129385.190,36.133,-37.109,-20.020,114.746,0.000
1606129385.193,-1.953,-35.156,-20.996,40.527,0.000
1606129385.197,-90.820,-40.527,-26.855,-115.234,0.000
1606129385.201,-98.633,-39.551,-28.809,-144.531,0.000
1606129385.205,-19.043,-31.738,-22.461,0.977,0.000
1606129385.209,38.086,-32.715,-19.531,116.211,0.000
1606129385.213,9.766,-28.320,-16.113,58.105,0.000
1606129385.217,-83.496,-25.391,-18.555,-104.004,0.000
1606129385.221,-124.512,-39.551,-23.926,-157.715,0.000
1606129385.225,-54.199,-37.598,-20.020,-31.738,0.000
1606129385.229,24.902,-30.762,-19.043,95.215,0.000
1606129385.233,11.719,-34.180,-20.996,52.246,0.000
1606129385.236,-73.242,-39.062,-26.367,-118.164,0.000
1606129385.240,-108.887,-40.039,-28.320,-179.688,0.000
1606129385.244,-53.223,-32.715,-23.438,-65.430,0.000
1606129385.248,22.949,-24.902,-24.414,75.684,0.000
1606129385.252,14.160,-29.297,-28.320,66.406,0.000
1606129385.256,-81.543,-37.598,-34.180,-104.980,0.000
1606129385.260,-125.488,-41.016,-36.133,-195.312,0.000
1606129385.264,-72.754,-32.227,-27.832,-87.891,0.000
1606129385.268,0.977,-27.344,-20.996,68.359,0.000
1606129385.272,1.465,-40.039,-23.926,69.336,0.000
1606129385.275,-77.637,-25.879,-32.715,-89.844,0.000
1606129385.279,-131.836,-7.812,-34.180,-193.359,0.000
1606129385.283,-94.238,-28.809,-27.832,-118.652,0.000
1606129385.287,-9.766,-35.156,-23.438,48.340,0.000
1606129385.291,0.977,-32.227,-22.461,84.961,0.000
1606129385.295,-72.754,-35.156,-23.438,-63.965,0.000
1606129385.299,-131.836,-41.992,-24.902,-190.918,0.000
1606129385.303,-105.469,-45.410,-20.020,-138.184,0.000
1606129385.307,-10.742,-31.250,-7.324,38.086,0.000
1606129385.311,18.555,-33.203,0.488,95.215,0.000
1606129385.315,-48.340,-25.391,-4.883,-38.574,0.000
1606129385.318,-121.094,-16.113,-18.555,-184.570,0.000
1606129385.322,-126.465,-36.133,-20.508,-169.434,0.000
1606129385.326,-45.898,-26.855,-11.230,-3.418,0.000
1606129385.330,-5.371,-20.996,-8.301,68.359,0.000
1606129385.334,-53.711,-28.320,-15.625,-49.316,0.000
1606129385.338,-125.977,-29.785,-20.020,-204.590,0.000
1606129385.342,-131.348,-26.367,-13.672,-204.590,0.000
1606129385.346,-52.734,-14.648,-14.160,-36.133,0.000
1606129385.350,-4.395,-19.531,-21.973,55.176,0.000
1606129385.354,-49.316,-10.254,-29.785,-40.527,0.000
1606129385.358,-124.023,2.930,-36.621,-186.523,0.000
1606129385.361,-125.977,-15.625,-35.645,-195.801,0.000
1606129385.365,-44.922,-17.090,-27.832,-35.156,0.000
1606129385.369,16.113,-19.531,-22.949,83.496,0.000
1606129385.373,-6.836,-20.508,-27.344,16.113,0.000
1606129385.377,-79.590,-21.973,-34.668,-143.066,0.000
1606129385.381,-98.145,-37.598,-32.715,-174.805,0.000
1606129385.385,-17.090,-37.109,-29.785,-24.902,0.000
1606129385.389,53.711,-27.832,-32.715,117.676,0.000
1606129385.393,36.133,-27.344,-33.203,74.219,0.000
1606129385.397,-48.828,-41.992,-34.668,-102.539,0.000
1606129385.400,-83.984,-49.805,-43.457,-163.574,0.000
1606129385.404,-17.090,-39.551,-40.039,-21.484,0.000
1606129385.408,56.641,-32.715,-24.902,138.672,0.000
1606129385.412,49.316,-37.109,-22.949,114.746,0.000
1606129385.416,-42.480,-48.340,-36.133,-66.406,0.000
1606129385.420,-86.914,-53.711,-41.504,-152.832,0.000
1606129385.424,-25.879,-47.363,-36.621,-31.738,0.000
1606129385.428,59.082,-38.086,-29.297,131.348,0.000
1606129385.432,65.430,-39.551,-23.438,128.418,0.000
1606129385.436,-16.113,-47.363,-29.785,-46.387,0.000
1606129385.440,-63.477,-54.688,-36.621,-157.227,0.000
1606129385.443,-18.066,-50.293,-36.133,-63.477,0.000
1606129385.447,65.430,-39.062,-29.785,117.676,0.000
1606129385.451,80.566,-35.156,-26.367,145.020,0.000
1606129385.455,-0.488,-34.180,-33.691,-27.832,0.000
1606129385.459,-62.500,-37.109,-36.621,-156.250,0.000
1606129385.463,-27.344,-46.387,-32.715,-84.961,0.000
1606129385.467,56.152,-42.969,-26.367,99.121,0.000
1606129385.471,77.148,-36.133,-26.855,150.391,0.000
1606129385.475,9.766,-39.062,-25.391,1.465,0.000
1606129385.479,-57.617,-42.969,-29.785,-145.508,0.000
1606129385.483,-37.109,-37.109,-37.109,-105.469,0.000
1606129385.486,46.387,-27.344,-31.250,77.148,0.000
1606129385.490,71.289,-26.367,-31.250,147.949,0.000
1606129385.494,4.883,-38.086,-38.086,14.648,0.000
1606129385.498,-63.965,-43.945,-41.016,-139.648,0.000
1606129385.502,-50.293,-38.574,-34.668,-122.559,0.000
1606129385.506,29.785,-29.297,-29.785,48.340,0.000
1606129385.510,71.777,-24.902,-21.973,145.508,0.000
1606129385.514,20.508,-25.879,-20.996,41.016,0.000
1606129385.518,-62.988,-33.203,-32.715,-122.559,0.000
1606129385.522,-62.988,-36.133,-33.203,-134.277,0.000
1606129385.525,7.324,-32.227,-23.926,27.832,0.000
1606129385.529,58.594,-23.926,-19.043,136.719,0.000
1606129385.533,31.250,-24.902,-26.855,40.039,0.000
1606129385.537,-57.617,-39.062,-34.180,-141.602,0.000
1606129385.541,-79.590,-41.016,-36.621,-170.410,0.000
1606129385.545,-2.930,-27.832,-34.180,3.418,0.000
1606129385.549,63.477,-18.555,-26.855,132.812,0.000
1606129385.553,34.180,-25.391,-29.297,60.059,0.000
1606129385.557,-56.641,-25.391,-44.922,-126.465,0.000
1606129385.561,-76.172,-19.043,-49.316,-175.293,0.000
1606129385.565,0.000,-21.484,-40.527,-12.207,0.000
1606129385.568,44.434,-27.344,-31.250,129.395,0.000
1606129385.572,14.648,-32.715,-29.297,72.754,0.000
1606129385.576,-52.734,-37.109,-33.203,-106.445,0.000
1606129385.580,-81.543,-40.039,-36.133,-179.688,0.000
1606129385.584,-20.020,-32.227,-29.297,-50.293,0.000
1606129385.588,48.340,-26.367,-25.391,110.840,0.000
1606129385.592,45.410,-22.461,-22.949,106.445,0.000
1606129385.596,-32.715,-21.973,-26.855,-73.242,0.000
1606129385.600,-82.031,-33.203,-32.715,-176.270,0.000
1606129385.604,-30.273,-31.250,-25.391,-58.594,0.000
1606129385.608,46.875,-20.020,-20.508,115.234,0.000
1606129385.611,52.246,-22.949,-27.344,120.605,0.000
1606129385.615,-19.043,-30.273,-27.344,-51.270,0.000
1606129385.619,-69.824,-32.715,-25.391,-156.738,0.000
1606129385.623,-33.691,-28.320,-27.832,-70.312,0.000
1606129385.627,47.363,-18.555,-20.996,102.539,0.000
1606129385.631,61.035,-22.461,-18.555,136.719,0.000
1606129385.635,-9.766,-18.066,-25.879,-26.367,0.000
1606129385.639,-73.242,-19.531,-32.227,-164.062,0.000
1606129385.643,-54.199,-31.738,-30.273,-107.910,0.000
1606129385.647,27.344,-21.973,-24.414,76.660,0.000
1606129385.650,52.246,-24.902,-25.391,136.230,0.000
1606129385.654,-10.254,-22.949,-31.738,-12.207,0.000
1606129385.658,-73.730,-18.066,-34.668,-165.039,0.000
1606129385.662,-67.871,-32.715,-35.156,-129.883,0.000
1606129385.666,6.348,-33.691,-30.762,56.641,0.000
1606129385.670,44.434,-23.438,-31.250,140.625,0.000
1606129385.674,-10.742,-25.879,-35.645,20.996,0.000
1606129385.678,-80.566,-35.645,-38.086,-146.973,0.000
1606129385.682,-79.102,-37.109,-32.227,-145.508,0.000
1606129385.686,-6.836,-34.180,-29.297,35.156,0.000
1606129385.690,39.551,-32.715,-29.785,140.625,0.000
1606129385.693,-3.906,-31.250,-26.855,34.668,0.000
1606129385.697,-85.938,-35.156,-31.738,-144.043,0.000
1606129385.701,-94.238,-36.133,-32.715,-159.180,0.000
1606129385.705,-14.648,-23.926,-19.531,20.020,0.000
1606129385.709,43.945,-17.578,-14.648,145.996,0.000
1606129385.713,12.207,-24.414,-19.531,53.711,0.000
1606129385.717,-66.895,-30.762,-24.414,-134.766,0.000
1606129385.721,-87.891,-35.645,-25.879,-176.270,0.000
1606129385.725,-20.996,-34.180,-24.414,-19.043,0.000
1606129385.729,40.527,-24.414,-23.926,132.812,0.000
1606129385.733,23.438,-20.508,-18.066,91.797,0.000
1606129385.736,-57.617,-11.230,-23.926,-109.375,0.000
1606129385.740,-96.191,-13.672,-36.621,-189.453,0.000
1606129385.744,-34.668,-24.902,-29.785,-39.062,0.000
1606129385.748,40.527,-15.625,-16.113,124.023,0.000
1606129385.752,27.832,-18.066,-14.648,105.469,0.000
1606129385.756,-47.363,-28.320,-21.973,-71.289,0.000
1606129385.760,-84.473,-32.227,-27.832,-168.945,0.000
1606129385.764,-41.992,-27.344,-25.879,-67.383,0.000
1606129385.768,35.156,-21.973,-16.113,113.281,0.000
1606129385.772,36.621,-24.414,-15.137,117.188,0.000
1606129385.775,-49.805,-29.297,-23.926,-76.172,0.000
1606129385.779,-97.656,-41.504,-31.250,-186.523,0.000
1606129385.783,-47.363,-41.504,-26.855,-86.426,0.000
1606129385.787,36.621,-21.484,-16.113,103.027,0.000
1606129385.791,50.293,-20.020,-15.137,132.812,0.000
1606129385.795,-21.973,-13.672,-24.414,-46.875,0.000
1606129385.799,-79.590,-16.602,-33.203,-190.918,0.000
1606129385.803,-56.641,-32.227,-30.762,-118.164,0.000
1606129385.807,24.414,-25.391,-22.461,82.520,0.000
1606129385.811,50.781,-21.973,-19.043,138.184,0.000
1606129385.815,-18.066,-29.297,-26.855,-30.273,0.000
1606129385.818,-85.449,-39.062,-35.645,-186.523,0.000
1606129385.822,-66.895,-36.133,-37.109,-135.742,0.000
1606129385.826,13.672,-17.578,-26.855,68.359,0.000
1606129385.830,42.480,-20.508,-23.438,152.832,0.000
1606129385.834,-17.578,-22.949,-33.691,5.371,0.000
1606129385.838,-89.844,-16.602,-33.203,-164.551,0.000
1606129385.842,-71.777,-23.926,-21.973,-142.578,0.000
1606129385.846,12.207,-18.555,-15.625,47.852,0.000
1606129385.850,47.852,-17.090,-13.672,147.949,0.000
1606129385.854,-3.906,-18.066,-18.555,30.273,0.000
1606129385.858,-79.590,-13.672,-23.438,-145.508,0.000
1606129385.861,-83.984,-27.344,-27.344,-160.645,0.000
1606129385.865,-4.883,-27.832,-24.902,20.508,0.000
1606129385.869,46.875,-20.996,-17.090,145.996,0.000
1606129385.873,9.766,-17.090,-23.926,56.152,0.000
1606129385.877,-65.918,-9.766,-30.762,-135.254,0.000
1606129385.881,-86.426,-22.949,-32.227,-174.805,0.000
1606129385.885,-14.648,-24.902,-24.902,3.906,0.000
1606129385.889,46.387,-18.066,-17.578,151.855,0.000
1606129385.893,9.766,-24.902,-26.367,79.102,0.000
1606129385.897,-74.707,-37.109,-31.250,-120.117,0.000
1606129385.900,-99.609,-38.086,-24.414,-183.105,0.000
1606129385.904,-39.551,-31.250,-18.555,-38.086,0.000
1606129385.908,24.902,-21.973,-21.484,121.094,0.000
1606129385.912,4.395,-23.438,-26.855,79.102,0.000
1606129385.916,-76.172,-34.668,-35.156,-129.395,0.000
1606129385.920,-102.539,-37.109,-37.109,-212.891,0.000
1606129385.924,-50.781,-35.645,-32.227,-70.801,0.000
1606129385.928,9.277,-33.203,-28.320,101.074,0.000
1606129385.932,11.230,-30.273,-30.762,95.215,0.000
1606129385.936,-53.223,-29.297,-31.738,-91.309,0.000
1606129385.940,-91.309,-30.273,-31.738,-200.195,0.000
1606129385.943,-42.480,-26.855,-24.902,-87.891,0.000
1606129385.947,32.715,-19.043,-11.230,97.168,0.000
1606129385.951,34.180,-18.066,-13.184,114.746,0.000
1606129385.955,-38.086,-26.367,-18.555,-72.754,0.000
1606129385.959,-91.309,-37.598,-21.484,-202.148,0.000
1606129385.963,-62.012,-33.203,-15.137,-106.934,0.000
1606129385.967,16.602,-20.996,-14.160,89.844,0.000
1606129385.971,30.273,-28.320,-24.902,125.977,0.000
1606129385.975,-41.992,-30.273,-35.156,-54.199,0.000
1606129385.979,-103.516,-23.926,-37.598,-199.707,0.000
1606129385.983,-80.566,-33.203,-31.250,-133.301,0.000
1606129385.986,4.395,-29.785,-28.809,68.359,0.000
1606129385.990,42.480,-19.531,-23.438,144.043,0.000
1606129385.994,-25.391,-26.367,-26.855,-13.184,0.000
1606129385.998,-98.633,-34.180,-31.250,-177.734,0.000
1606129386.002,-78.125,-28.809,-30.762,-143.066,0.000
1606129386.006,2.441,-22.949,-27.344,55.176,0.000
1606129386.010,41.504,-21.484,-19.531,154.785,0.000
1606129386.014,-11.230,-15.137,-26.855,15.625,0.000
1606129386.018,-90.332,-6.836,-42.480,-176.758,0.000
1606129386.022,-95.215,-31.250,-41.992,-184.082,0.000
1606129386.025,-11.719,-43.945,-33.691,9.277,0.000
1606129386.029,46.875,-28.320,-25.391,134.277,0.000
1606129386.033,2.441,-26.367,-27.832,25.879,0.000
1606129386.037,-77.148,-34.180,-29.297,-161.133,0.000
1606129386.041,-79.590,-37.109,-30.273,-185.547,0.000
1606129386.045,-7.812,-31.738,-26.367,2.930,0.000
1606129386.049,43.945,-28.320,-19.531,145.508,0.000
1606129386.053,3.906,-32.715,-19.043,47.852,0.000
1606129386.057,-84.473,-35.645,-23.926,-150.391,0.000
1606129386.061,-101.074,-32.227,-24.902,-180.664,0.000
1606129386.065,-34.668,-30.762,-20.996,-13.672,0.000
1606129386.068,22.949,-32.227,-20.508,126.953,0.000
1606129386.072,-1.465,-32.715,-20.508,72.266,0.000
1606129386.076,-82.031,-25.391,-24.902,-125.000,0.000
1606129386.080,-115.234,-33.691,-25.879,-203.125,0.000
1606129386.084,-63.965,-43.457,-28.320,-56.641,0.000
1606129386.088,5.859,-29.297,-25.391,109.863,0.000
1606129386.092,0.977,-31.250,-28.320,78.613,0.000
1606129386.096,-72.266,-35.645,-34.180,-126.465,0.000
1606129386.100,-107.422,-37.109,-34.180,-222.656,0.000
1606129386.104,-56.152,-38.086,-33.203,-81.543,0.000
1606129386.108,19.043,-23.438,-26.367,109.375,0.000
1606129386.111,16.113,-30.273,-23.926,101.562,0.000
1606129386.115,-61.035,-23.438,-25.391,-97.656,0.000
1606129386.119,-104.004,-11.230,-36.133,-213.867,0.000
1606129386.123,-65.918,-31.250,-39.551,-110.840,0.000
1606129386.127,11.719,-29.297,-21.973,79.102,0.000
1606129386.131,23.926,-24.902,-22.461,104.980,0.000
1606129386.135,-47.852,-29.785,-31.250,-75.684,0.000
1606129386.139,-98.145,-31.250,-28.809,-201.660,0.000
1606129386.143,-60.547,-30.273,-23.438,-110.840,0.000
1606129386.147,19.531,-26.367,-19.531,89.355,0.000
1606129386.150,31.738,-28.809,-16.602,140.625,0.000
1606129386.154,-34.180,-27.344,-23.438,-23.926,0.000
1606129386.158,-103.516,-31.250,-31.738,-180.176,0.000
1606129386.162,-89.844,-40.527,-26.855,-126.465,0.000
1606129386.166,-7.324,-34.180,-24.902,67.383,0.000
1606129386.170,24.902,-31.738,-26.367,123.047,0.000
1606129386.174,-29.785,-33.691,-22.461,-20.508,0.000
1606129386.178,-91.309,-34.668,-20.508,-171.387,0.000
1606129386.182,-79.590,-36.133,-28.809,-153.320,0.000
1606129386.186,-4.883,-30.273,-26.367,32.715,0.000
1606129386.190,27.832,-28.320,-20.508,123.535,0.000
1606129386.193,-19.043,-30.762,-20.020,2.930,0.000
1606129386.197,-87.891,-33.203,-29.785,-164.062,0.000
1606129386.201,-92.773,-34.180,-32.227,-163.086,0.000
1606129386.205,-18.555,-29.785,-22.461,20.020,0.000
1606129386.209,28.320,-30.762,-22.461,128.906,0.000
1606129386.213,-8.789,-31.250,-24.902,22.461,0.000
1606129386.217,-81.055,-1.465,-32.227,-157.227,0.000
1606129386.221,-94.727,-6.836,-29.297,-177.734,0.000
1606129386.225,-27.344,-33.691,-27.344,-4.883,0.000
1606129386.229,30.273,-25.391,-27.832,128.418,0.000
1606129386.233,7.324,-21.973,-28.809,53.711,0.000
1606129386.236,-67.871,-29.785,-27.832,-137.207,0.000
1606129386.240,-94.238,-41.504,-28.809,-192.871,0.000
1606129386.244,-30.762,-37.109,-30.273,-38.574,0.000
1606129386.248,35.156,-31.250,-23.926,122.070,0.000
1606129386.252,15.625,-39.062,-20.996,82.520,0.000
1606129386.256,-64.941,-25.391,-26.855,-113.281,0.000
1606129386.260,-97.168,-25.879,-30.273,-191.895,0.000
1606129386.264,-40.527,-40.039,-21.484,-56.152,0.000
1606129386.268,20.996,-31.738,-20.996,105.469,0.000
1606129386.272,10.742,-31.250,-29.297,84.473,0.000
1606129386.275,-58.105,-32.227,-25.879,-100.098,0.000
1606129386.279,-99.609,-34.668,-27.344,-198.242,0.000
1606129386.283,-56.152,-34.668,-37.109,-86.914,0.000
1606129386.287,17.578,-28.809,-33.203,85.449,0.000
1606129386.291,23.438,-29.785,-27.832,94.238,0.000
1606129386.295,-47.852,-18.555,-32.715,-81.543,0.000
1606129386.299,-99.121,-14.160,-33.691,-198.730,0.000
1606129386.303,-62.012,-31.738,-27.832,-105.957,0.000
1606129386.307,17.578,-28.809,-22.949,83.008,0.000
1606129386.311,37.109,-20.508,-19.531,121.094,0.000
1606129386.315,-30.273,-25.391,-24.902,-44.922,0.000
1606129386.318,-91.309,-33.203,-28.320,-185.547,0.000
1606129386.322,-67.871,-31.738,-24.414,-118.164,0.000
1606129386.326,7.324,-24.902,-30.762,76.172,0.000
1606129386.330,24.902,-22.461,-35.156,136.230,0.000
1606129386.334,-37.598,-27.832,-29.785,-20.020,0.000
1606129386.338,-102.051,-33.203,-31.250,-189.453,0.000
1606129386.342,-85.938,-31.738,-31.738,-149.414,0.000
1606129386.346,-4.883,-26.367,-21.484,55.664,0.000
1606129386.350,31.250,-31.738,-19.043,133.789,0.000
1606129386.354,-20.996,-26.855,-26.367,2.930,0.000
1606129386.358,-92.285,-15.137,-36.133,-171.875,0.000
1606129386.361,-85.449,-33.203,-29.785,-168.945,0.000
1606129386.365,-6.348,-35.645,-19.043,29.297,0.000
1606129386.369,39.551,-27.832,-17.578,140.137,0.000
1606129386.373,-4.883,-29.785,-27.344,26.367,0.000
