timestamps,TP9,AF7,AF8,TP10,Right AUX
1606131276.938,0.000,0.000,0.000,0.000,0.000
1606131276.941,-1.465,-0.488,-0.488,-3.418,0.000
1606131276.945,5.371,-0.488,0.000,12.207,0.000
1606131276.949,-0.977,0.977,0.000,3.418,0.000
1606131276.953,-4.883,-9.277,-4.883,-29.297,0.000
1606131276.957,217.773,-8.789,6.348,514.160,0.000
1606131276.961,274.902,-8.301,2.441,742.188,0.000
1606131276.965,-110.352,-36.621,-29.785,-159.668,0.000
1606131276.969,-372.070,-51.758,-50.293,-868.652,0.000
1606131276.973,-186.523,-32.715,-42.480,-500.000,0.000
1606131276.977,199.707,-10.742,-16.602,468.262,0.000
1606131276.981,286.133,-11.230,-16.113,768.066,0.000
1606131276.984,-56.152,-29.297,-34.668,-32.227,0.000
1606131276.988,-357.422,-47.852,-52.246,-815.918,0.000
1606131276.992,-228.027,-38.574,-42.480,-584.961,0.000
1606131276.996,170.410,-13.672,-6.836,395.020,0.000
1606131277.000,307.617,0.977,-4.395,814.453,0.000
1606131277.004,-2.930,-16.602,-33.203,107.910,0.000
1606131277.008,-331.055,-44.434,-46.875,-740.234,0.000
1606131277.012,-262.207,-43.945,-36.621,-657.715,0.000
1606131277.016,132.324,-16.113,-12.207,297.852,0.000
1606131277.020,318.848,0.977,-6.836,830.078,0.000
1606131277.023,46.387,-23.438,-25.391,231.445,0.000
1606131277.027,-308.105,-50.293,-41.016,-687.500,0.000
1606131277.031,-297.363,-50.293,-42.969,-756.836,0.000
1606131277.035,82.520,-22.461,-20.020,172.363,0.000
1606131277.039,310.547,-3.418,-3.418,812.012,0.000
1606131277.043,87.402,-16.602,-16.113,340.332,0.000
1606131277.047,-288.574,-45.410,-37.109,-604.492,0.000
1606131277.051,-331.055,-45.410,-41.992,-805.176,0.000
1606131277.055,26.855,9.277,-30.273,53.223,0.000
1606131277.059,290.527,24.902,-18.555,773.438,0.000
1606131277.063,129.883,-26.367,-17.090,444.824,0.000
1606131277.066,-249.512,-55.664,-30.762,-511.230,0.000
1606131277.070,-353.516,-56.152,-31.738,-850.098,0.000
1606131277.074,-23.926,-35.156,-15.625,-77.637,0.000
1606131277.078,286.621,-10.742,2.441,733.398,0.000
1606131277.082,174.316,-19.043,-5.371,536.133,0.000
1606131277.086,-220.703,-47.363,-40.039,-438.477,0.000
1606131277.090,-362.793,-52.734,-47.852,-886.230,0.000
1606131277.094,-56.641,-28.320,-29.785,-207.520,0.000
1606131277.098,269.531,-6.348,-14.648,667.969,0.000
1606131277.102,207.031,-3.418,-22.461,624.023,0.000
1606131277.106,-185.547,-32.227,-47.852,-325.684,0.000
1606131277.109,-381.348,-58.594,-49.316,-882.812,0.000
1606131277.113,-129.395,-42.969,-28.809,-332.520,0.000
1606131277.117,225.098,-20.020,-12.695,586.914,0.000
1606131277.121,227.539,-19.043,-15.625,688.477,0.000
1606131277.125,-153.320,-42.969,-37.598,-214.844,0.000
1606131277.129,-395.020,-59.082,-53.711,-869.629,0.000
1606131277.133,-189.453,-48.340,-40.039,-445.801,0.000
1606131277.137,190.430,-20.020,-15.137,506.348,0.000
1606131277.141,253.418,-16.113,-13.184,742.188,0.000
1606131277.145,-98.145,-43.457,-37.109,-91.797,0.000
1606131277.148,-371.094,-59.082,-41.504,-832.520,0.000
1606131277.152,-220.215,-39.551,-27.344,-548.340,0.000
1606131277.156,166.504,-7.324,-13.672,414.551,0.000
1606131277.160,285.645,-4.883,-8.301,780.762,0.000
1606131277.164,-46.875,-32.227,-40.527,34.668,0.000
1606131277.168,-363.281,-55.664,-54.688,-783.691,0.000
1606131277.172,-270.020,-51.270,-41.992,-645.996,0.000
1606131277.176,125.977,-24.414,-16.602,320.801,0.000
1606131277.180,291.504,-13.184,-5.371,807.617,0.000
1606131277.184,1.465,-30.273,-21.484,166.504,0.000
1606131277.188,-344.238,-50.293,-41.504,-723.145,0.000
1606131277.191,-308.105,-44.434,-41.504,-736.816,0.000
1606131277.195,85.938,-17.578,-23.926,211.426,0.000
1606131277.199,303.223,-7.324,-19.043,814.941,0.000
1606131277.203,61.523,-25.391,-32.715,293.945,0.000
1606131277.207,-321.777,-59.082,-45.898,-645.508,0.000
1606131277.211,-344.727,-58.105,-44.434,-791.504,0.000
1606131277.215,40.039,-23.926,-26.855,101.562,0.000
1606131277.219,300.293,-4.395,-7.324,792.969,0.000
1606131277.223,113.281,-17.090,-12.207,404.297,0.000
1606131277.227,-272.949,-44.922,-41.504,-551.270,0.000
1606131277.231,-351.074,-48.340,-47.363,-833.008,0.000
1606131277.234,12.695,-19.531,-26.367,-0.488,0.000
1606131277.238,286.621,0.000,-15.625,723.633,0.000
1606131277.242,137.207,-13.184,-26.367,447.754,0.000
1606131277.246,-215.820,-36.133,-36.621,-445.312,0.000
1606131277.250,-344.238,-48.828,-41.016,-860.840,0.000
1606131277.254,-46.875,-19.531,-42.480,-166.992,0.000
1606131277.258,273.438,0.977,-19.043,684.570,0.000
1606131277.262,202.637,-16.602,-16.602,595.215,0.000
1606131277.266,-195.312,-39.062,-47.852,-365.234,0.000
1606131277.270,-373.535,-47.363,-55.664,-883.301,0.000
1606131277.273,-98.633,-29.785,-38.086,-266.602,0.000
1606131277.277,257.812,-10.742,-20.996,634.277,0.000
1606131277.281,242.188,-12.695,-13.184,674.316,0.000
1606131277.285,-139.160,-36.133,-35.156,-238.770,0.000
1606131277.289,-366.699,-50.293,-58.105,-867.188,0.000
1606131277.293,-150.879,-39.062,-44.434,-398.438,0.000
1606131277.297,222.656,-16.113,-23.438,540.527,0.000
1606131277.301,257.812,-3.418,-23.926,724.121,0.000
1606131277.305,-118.164,-21.973,-50.293,-148.438,0.000
1606131277.309,-383.789,-57.617,-60.547,-869.629,0.000
1606131277.313,-209.473,-51.758,-41.992,-527.832,0.000
1606131277.316,178.223,-22.949,-18.555,439.453,0.000
1606131277.320,279.297,-12.207,-8.789,767.090,0.000
1606131277.324,-56.641,-31.250,-35.156,-16.602,0.000
1606131277.328,-363.281,-56.152,-61.523,-820.312,0.000
1606131277.332,-250.977,-52.246,-52.246,-617.676,0.000
1606131277.336,144.531,-17.090,-19.043,363.281,0.000
1606131277.340,289.062,-5.859,-2.441,808.105,0.000
1606131277.344,-19.531,-33.203,-23.926,117.676,0.000
1606131277.348,-347.656,-59.082,-41.504,-749.023,0.000
1606131277.352,-289.062,-42.480,-41.992,-693.848,0.000
1606131277.356,103.027,-0.977,-11.719,259.277,0.000
1606131277.359,304.199,-2.441,0.977,811.035,0.000
1606131277.363,53.711,-26.367,-38.574,241.211,0.000
1606131277.367,-303.711,-50.781,-56.641,-668.945,0.000
1606131277.371,-299.316,-53.711,-48.340,-750.977,0.000
1606131277.375,79.590,-32.227,-23.926,159.668,0.000
1606131277.379,310.059,-12.207,-3.906,814.453,0.000
1606131277.383,98.633,-21.973,-22.949,378.418,0.000
1606131277.387,-284.668,-49.805,-49.805,-579.590,0.000
1606131277.391,-334.473,-50.293,-51.270,-805.176,0.000
1606131277.395,26.367,-24.902,-28.809,39.551,0.000
1606131277.398,311.035,-3.906,-8.301,777.832,0.000
1606131277.402,152.832,-11.230,-21.484,469.238,0.000
1606131277.406,-246.582,-42.969,-41.992,-494.629,0.000
1606131277.410,-351.074,-43.945,-43.945,-842.773,0.000
1606131277.414,-18.555,-18.066,-27.344,-85.449,0.000
1606131277.418,297.363,-1.953,-12.207,732.910,0.000
1606131277.422,195.312,-9.766,-21.973,568.848,0.000
1606131277.426,-203.613,-40.527,-47.852,-397.461,0.000
1606131277.430,-359.375,-44.434,-46.387,-866.211,0.000
1606131277.434,-72.266,-14.648,-27.344,-215.332,0.000
1606131277.438,266.602,-3.906,-14.648,664.062,0.000
1606131277.441,227.051,-13.184,-16.113,645.508,0.000
1606131277.445,-163.574,-35.645,-37.598,-298.340,0.000
1606131277.449,-372.559,-57.129,-50.293,-886.230,0.000
1606131277.453,-124.023,-32.227,-34.668,-352.051,0.000
1606131277.457,238.281,-3.418,-10.254,575.684,0.000
1606131277.461,250.000,-7.812,-4.883,692.871,0.000
1606131277.465,-122.070,-33.691,-28.809,-196.777,0.000
1606131277.469,-374.512,-53.711,-45.898,-874.023,0.000
1606131277.473,-179.688,-36.621,-23.438,-468.750,0.000
1606131277.477,203.613,-12.695,-5.371,491.211,0.000
1606131277.481,271.484,-6.348,-9.766,753.418,0.000
1606131277.484,-89.844,-35.645,-31.250,-75.195,0.000
1606131277.488,-377.441,-56.641,-48.340,-841.797,0.000
1606131277.492,-220.703,-34.180,-36.133,-574.707,0.000
1606131277.496,176.758,-12.207,-8.789,388.672,0.000
1606131277.500,304.199,-10.254,-1.465,778.809,0.000
1606131277.504,-18.066,-32.227,-21.973,58.105,0.000
1606131277.508,-350.098,-58.594,-36.133,-779.785,0.000
1606131277.512,-267.578,-53.711,-36.133,-670.898,0.000
1606131277.516,123.535,-25.879,-20.996,282.227,0.000
1606131277.520,291.992,-9.766,-9.277,784.180,0.000
1606131277.523,21.484,-25.391,-28.320,176.758,0.000
1606131277.527,-319.824,-53.223,-50.293,-711.914,0.000
1606131277.531,-294.922,-54.199,-52.734,-746.094,0.000
1606131277.535,95.703,-23.438,-30.273,182.129,0.000
1606131277.539,323.242,-8.301,-8.301,802.246,0.000
1606131277.543,88.867,-32.227,-26.855,304.688,0.000
1606131277.547,-285.645,-57.129,-51.758,-629.395,0.000
1606131277.551,-318.359,-54.199,-50.293,-792.480,0.000
1606131277.555,56.641,-24.902,-27.344,82.031,0.000
1606131277.559,319.336,-4.395,-13.184,790.527,0.000
1606131277.563,136.719,-17.090,-23.438,425.781,0.000
1606131277.566,-249.023,-45.898,-44.434,-530.273,0.000
1606131277.570,-332.031,-44.434,-46.387,-820.312,0.000
1606131277.574,6.836,-22.461,-24.902,-30.762,0.000
1606131277.578,298.340,-9.277,-7.324,748.535,0.000
1606131277.582,179.199,-19.531,-11.719,529.785,0.000
1606131277.586,-206.543,-44.434,-31.250,-428.223,0.000
1606131277.590,-358.887,-49.805,-42.480,-853.516,0.000
1606131277.594,-60.547,-29.785,-25.879,-162.109,0.000
1606131277.598,277.344,-7.324,-11.230,687.988,0.000
1606131277.602,207.520,-14.648,-20.508,610.840,0.000
1606131277.606,-195.801,-47.852,-41.504,-340.332,0.000
1606131277.609,-386.719,-56.641,-53.711,-885.254,0.000
1606131277.613,-123.535,-32.227,-33.691,-299.805,0.000
1606131277.617,239.258,-8.301,-13.184,619.141,0.000
1606131277.621,234.375,-8.789,-7.812,689.941,0.000
1606131277.625,-152.344,-41.016,-30.273,-222.168,0.000
1606131277.629,-383.301,-56.152,-53.223,-857.422,0.000
1606131277.633,-167.969,-34.668,-40.039,-403.320,0.000
1606131277.637,206.543,-13.184,-22.461,540.039,0.000
1606131277.641,260.254,-16.602,-17.090,748.535,0.000
1606131277.645,-104.004,-41.504,-36.133,-104.492,0.000
1606131277.648,-378.906,-54.199,-53.223,-838.379,0.000
1606131277.652,-209.473,-41.504,-41.016,-522.461,0.000
1606131277.656,182.617,-19.531,-22.461,439.453,0.000
1606131277.660,282.227,-11.230,-9.277,776.855,0.000
1606131277.664,-41.992,-29.785,-22.461,13.184,0.000
1606131277.668,-360.352,-54.688,-53.711,-800.293,0.000
1606131277.672,-266.113,-50.293,-53.223,-631.836,0.000
1606131277.676,132.324,-24.902,-26.855,332.520,0.000
1606131277.680,297.363,-8.301,-14.160,799.316,0.000
1606131277.684,5.859,-28.320,-29.785,142.090,0.000
1606131277.688,-337.891,-54.199,-45.410,-729.980,0.000
1606131277.691,-291.504,-46.875,-42.969,-703.125,0.000
1606131277.695,102.051,-20.020,-20.508,235.840,0.000
1606131277.699,299.805,-6.836,-4.395,798.340,0.000
1606131277.703,51.758,-26.367,-19.043,257.324,0.000
1606131277.707,-299.805,-53.223,-43.945,-648.438,0.000
1606131277.711,-302.734,-45.898,-45.898,-752.441,0.000
1606131277.715,76.172,-9.766,-25.391,145.508,0.000
1606131277.719,310.059,-6.836,-13.672,811.035,0.000
1606131277.723,115.723,-32.715,-21.973,397.949,0.000
1606131277.727,-256.836,-51.758,-37.598,-549.805,0.000
1606131277.731,-331.055,-54.199,-42.480,-817.383,0.000
1606131277.734,28.320,-27.832,-12.695,8.789,0.000
1606131277.738,316.895,-6.348,4.395,773.438,0.000
1606131277.742,164.551,-17.578,-21.484,491.699,0.000
1606131277.746,-227.539,-46.875,-45.410,-472.656,0.000
1606131277.750,-346.680,-56.152,-41.992,-847.656,0.000
1606131277.754,-24.902,-33.691,-27.832,-108.887,0.000
1606131277.758,296.387,-11.719,-17.578,723.145,0.000
1606131277.762,205.078,-14.160,-18.066,584.961,0.000
1606131277.766,-188.965,-40.527,-38.086,-378.418,0.000
1606131277.770,-358.398,-49.316,-46.387,-871.582,0.000
1606131277.773,-78.613,-15.137,-30.762,-238.281,0.000
1606131277.777,274.414,3.418,-11.230,650.391,0.000
1606131277.781,233.398,-13.184,-24.414,651.855,0.000
1606131277.785,-161.621,-37.598,-49.316,-284.180,0.000
1606131277.789,-372.070,-50.781,-52.734,-880.371,0.000
1606131277.793,-130.859,-31.738,-31.250,-363.770,0.000
1606131277.797,244.141,-4.395,-9.277,567.871,0.000
1606131277.801,268.066,-6.348,-11.719,716.309,0.000
1606131277.805,-101.562,-32.227,-37.598,-159.668,0.000
1606131277.809,-360.840,-55.664,-53.711,-856.445,0.000
1606131277.813,-173.828,-32.227,-41.992,-480.469,0.000
1606131277.816,208.496,1.465,-22.461,479.980,0.000
1606131277.820,279.297,-8.789,-18.555,768.555,0.000
1606131277.824,-68.359,-37.109,-39.062,-37.109,0.000
1606131277.828,-364.746,-55.176,-47.852,-821.289,0.000
1606131277.832,-232.422,-46.387,-32.715,-581.055,0.000
1606131277.836,165.039,-21.484,-20.996,392.090,0.000
1606131277.840,292.480,-8.789,-17.090,800.781,0.000
1606131277.844,-25.391,-29.297,-32.227,92.285,0.000
1606131277.848,-346.191,-55.176,-52.734,-759.766,0.000
1606131277.852,-264.648,-36.621,-46.875,-668.457,0.000
1606131277.856,127.930,-2.930,-23.926,296.875,0.000
1606131277.859,309.570,-1.465,-16.602,821.777,0.000
1606131277.863,43.457,-21.484,-30.762,219.238,0.000
1606131277.867,-308.594,-46.387,-44.922,-678.711,0.000
1606131277.871,-294.922,-44.922,-45.898,-729.004,0.000
1606131277.875,93.750,-17.578,-22.461,191.895,0.000
1606131277.879,322.266,-8.301,-6.836,815.430,0.000
1606131277.883,102.539,-25.391,-23.926,342.773,0.000
1606131277.887,-270.996,-48.828,-47.363,-588.867,0.000
1606131277.891,-312.012,-43.945,-41.504,-781.250,0.000
1606131277.895,58.105,-10.742,-17.090,73.242,0.000
1606131277.898,317.383,4.395,-11.719,787.598,0.000
1606131277.902,140.625,-12.207,-20.508,446.777,0.000
1606131277.906,-244.629,-45.898,-37.598,-520.996,0.000
1606131277.910,-343.750,-53.711,-46.875,-847.656,0.000
1606131277.914,-12.695,-6.836,-23.438,-60.059,0.000
1606131277.918,294.922,11.719,2.441,750.488,0.000
1606131277.922,185.059,-16.113,-9.277,553.223,0.000
1606131277.926,-219.727,-46.875,-39.062,-416.992,0.000
1606131277.930,-368.164,-54.688,-47.852,-871.582,0.000
1606131277.934,-65.918,-32.227,-24.902,-196.777,0.000
1606131277.938,263.672,-10.742,-5.371,674.316,0.000
1606131277.941,203.125,-9.277,-11.719,628.418,0.000
1606131277.945,-189.941,-41.504,-38.086,-313.477,0.000
1606131277.949,-386.719,-66.406,-52.734,-869.629,0.000
1606131277.953,-128.418,-24.414,-29.785,-312.012,0.000
1606131277.957,252.930,5.371,-3.418,602.051,0.000
1606131277.961,257.324,-14.160,-7.324,698.242,0.000
1606131277.965,-144.531,-44.434,-31.250,-206.055,0.000
1606131277.969,-388.184,-63.477,-47.363,-862.793,0.000
1606131277.973,-179.688,-49.316,-28.809,-437.988,0.000
1606131277.977,203.613,-16.113,-9.277,514.160,0.000
1606131277.981,261.719,-6.836,-14.648,748.535,0.000
1606131277.984,-94.727,-36.621,-34.180,-98.633,0.000
1606131277.988,-370.117,-67.871,-50.781,-841.797,0.000
1606131277.992,-224.121,-34.180,-35.156,-542.969,0.000
1606131277.996,161.133,11.719,-10.742,420.410,0.000
1606131278.000,275.879,-16.602,-16.113,772.461,0.000
1606131278.004,-48.828,-48.340,-43.945,17.090,0.000
1606131278.008,-353.027,-55.664,-54.688,-797.852,0.000
1606131278.012,-238.281,-36.621,-32.715,-636.230,0.000
1606131278.016,170.898,-10.742,-6.836,337.402,0.000
1606131278.020,315.918,-11.230,-7.324,816.406,0.000
1606131278.023,14.648,-31.738,-23.438,173.828,0.000
1606131278.027,-323.242,-56.641,-39.551,-709.473,0.000
1606131278.031,-282.227,-53.711,-35.156,-708.008,0.000
1606131278.035,113.281,-23.438,-10.742,239.746,0.000
1606131278.039,325.684,-5.859,-1.953,833.496,0.000
1606131278.043,81.055,-18.066,-18.066,303.711,0.000
1606131278.047,-290.039,-48.340,-38.574,-633.789,0.000
1606131278.051,-309.082,-34.668,-41.504,-768.555,0.000
1606131278.055,69.336,9.766,-21.973,128.906,0.000
1606131278.059,318.848,4.883,-6.836,814.941,0.000
1606131278.063,119.141,-21.484,-17.578,417.480,0.000
1606131278.066,-270.020,-44.434,-43.457,-550.293,0.000
1606131278.070,-347.168,-53.223,-50.781,-827.637,0.000
1606131278.074,8.789,-29.297,-31.738,-5.859,0.000
1606131278.078,304.688,-11.230,-14.648,766.602,0.000
1606131278.082,160.645,-21.973,-27.344,505.859,0.000
1606131278.086,-234.863,-51.270,-58.105,-467.773,0.000
1606131278.090,-353.027,-60.059,-58.594,-868.652,0.000
1606131278.094,-41.992,-18.066,-37.598,-154.297,0.000
1606131278.098,281.250,3.906,-20.996,693.848,0.000
1606131278.102,210.449,-15.625,-18.555,599.121,0.000
1606131278.106,-183.594,-45.410,-42.969,-359.375,0.000
1606131278.109,-363.281,-61.523,-46.387,-872.559,0.000
1606131278.113,-91.797,-38.086,-28.320,-259.277,0.000
1606131278.117,253.418,-17.578,-17.578,635.254,0.000
1606131278.121,227.539,-21.973,-16.602,668.945,0.000
1606131278.125,-159.668,-43.945,-39.062,-255.859,0.000
1606131278.129,-381.348,-56.641,-52.734,-881.836,0.000
1606131278.133,-152.832,-36.621,-41.504,-405.762,0.000
1606131278.137,221.191,-10.254,-24.414,535.156,0.000
1606131278.141,255.371,-13.672,-20.996,710.449,0.000
1606131278.145,-111.328,-43.457,-34.668,-156.738,0.000
1606131278.148,-367.188,-61.523,-47.852,-863.281,0.000
1606131278.152,-192.383,-46.875,-42.480,-520.508,0.000
1606131278.156,197.266,-15.625,-19.531,444.824,0.000
1606131278.160,287.598,-16.602,-14.648,758.301,0.000
1606131278.164,-64.941,-45.410,-34.180,-29.297,0.000
1606131278.168,-368.164,-64.453,-48.828,-819.336,0.000
1606131278.172,-247.070,-57.129,-39.551,-611.816,0.000
1606131278.176,141.113,-33.691,-19.531,359.863,0.000
1606131278.180,277.344,-23.438,-14.160,798.340,0.000
1606131278.184,-18.066,-32.715,-31.738,115.723,0.000
1606131278.188,-343.262,-58.594,-50.781,-752.930,0.000
1606131278.191,-290.527,-54.199,-51.758,-708.008,0.000
1606131278.195,98.633,-14.160,-30.762,245.117,0.000
1606131278.199,297.852,-8.301,-16.113,797.363,0.000
1606131278.203,41.504,-38.086,-23.438,228.027,0.000
1606131278.207,-312.012,-59.570,-37.109,-676.270,0.000
1606131278.211,-303.711,-49.805,-43.457,-763.184,0.000
1606131278.215,87.402,-20.996,-13.672,151.367,0.000
1606131278.219,325.195,-1.465,5.371,808.105,0.000
1606131278.223,111.816,-10.254,-17.578,364.746,0.000
1606131278.227,-256.836,-34.668,-40.527,-579.590,0.000
1606131278.231,-317.871,-50.293,-49.316,-812.012,0.000
1606131278.234,33.203,-28.320,-28.809,30.762,0.000
1606131278.238,305.176,-14.648,-12.695,774.414,0.000
1606131278.242,144.531,-29.785,-25.879,469.238,0.000
1606131278.246,-237.305,-49.805,-44.922,-488.281,0.000
1606131278.250,-349.121,-52.734,-48.340,-849.609,0.000
1606131278.254,-25.391,-29.297,-25.391,-98.145,0.000
1606131278.258,292.969,-8.301,-15.137,726.562,0.000
1606131278.262,190.918,-12.695,-23.926,571.777,0.000
1606131278.266,-208.008,-40.527,-39.551,-386.719,0.000
1606131278.270,-361.328,-56.641,-46.387,-858.398,0.000
1606131278.273,-76.172,-10.254,-32.715,-206.055,0.000
1606131278.277,263.672,12.207,-18.555,672.852,0.000
1606131278.281,221.680,-24.902,-18.066,654.785,0.000
1606131278.285,-176.270,-51.270,-38.574,-284.668,0.000
1606131278.289,-373.535,-58.105,-53.711,-876.953,0.000
1606131278.293,-122.070,-34.180,-36.133,-338.867,0.000
1606131278.297,228.027,-13.184,-11.719,571.777,0.000
1606131278.301,233.887,-20.508,-15.625,684.082,0.000
1606131278.305,-129.883,-43.457,-39.551,-180.664,0.000
1606131278.309,-376.953,-55.664,-50.781,-863.770,0.000
1606131278.313,-170.898,-41.992,-37.109,-467.285,0.000
1606131278.316,222.168,-13.672,-16.113,493.164,0.000
1606131278.320,285.156,-5.859,-15.137,756.348,0.000
1606131278.324,-71.289,-40.039,-42.969,-73.242,0.000
1606131278.328,-354.980,-71.777,-52.246,-845.703,0.000
1606131278.332,-217.773,-33.691,-39.551,-580.078,0.000
1606131278.336,172.363,9.766,-20.508,391.113,0.000
1606131278.340,301.270,-7.324,-7.812,782.227,0.000
1606131278.344,-22.461,-31.250,-34.180,58.105,0.000
1606131278.348,-354.980,-53.711,-54.199,-783.203,0.000
1606131278.352,-271.973,-43.945,-39.062,-668.945,0.000
1606131278.356,125.977,-11.230,-20.020,292.969,0.000
1606131278.359,304.688,-2.441,-6.836,796.387,0.000
1606131278.363,17.578,-27.832,-17.578,178.711,0.000
1606131278.367,-338.867,-61.523,-46.387,-714.355,0.000
1606131278.371,-313.477,-49.316,-45.898,-749.512,0.000
1606131278.375,75.195,3.418,-25.391,171.875,0.000
1606131278.379,308.105,0.000,-9.277,791.992,0.000
1606131278.383,70.312,-35.645,-18.066,306.152,0.000
1606131278.387,-296.875,-60.059,-40.527,-627.930,0.000
1606131278.391,-322.266,-57.617,-45.410,-794.434,0.000
1606131278.395,35.645,-28.320,-19.043,71.289,0.000
1606131278.398,300.293,-9.277,-5.859,773.926,0.000
1606131278.402,121.094,-30.762,-30.762,411.621,0.000
1606131278.406,-264.160,-66.406,-46.875,-553.223,0.000
1606131278.410,-348.145,-56.152,-47.852,-848.633,0.000
1606131278.414,-3.418,-12.695,-33.203,-52.734,0.000
1606131278.418,298.340,-8.301,-11.230,734.375,0.000
1606131278.422,176.758,-25.391,-13.672,529.297,0.000
1606131278.426,-211.426,-49.805,-32.715,-428.711,0.000
1606131278.430,-345.703,-51.758,-26.855,-849.609,0.000
1606131278.434,-33.203,-21.484,-13.672,-157.227,0.000
1606131278.438,307.617,-7.812,-10.742,689.453,0.000
1606131278.441,230.469,-13.184,-11.719,615.723,0.000
1606131278.445,-176.270,-45.410,-35.156,-330.566,0.000
1606131278.449,-366.699,-63.477,-49.805,-868.652,0.000
1606131278.453,-106.445,-40.527,-34.668,-285.156,0.000
1606131278.457,254.883,-14.648,-7.324,627.441,0.000
1606131278.461,247.070,-12.695,-8.789,699.707,0.000
1606131278.465,-134.766,-39.062,-29.785,-208.496,0.000
1606131278.469,-370.117,-60.059,-38.086,-853.516,0.000
1606131278.473,-163.574,-36.621,-36.621,-412.598,0.000
1606131278.477,214.355,-1.953,-22.461,537.109,0.000
1606131278.481,267.090,-11.719,-15.625,753.906,0.000
1606131278.484,-93.262,-43.457,-34.180,-99.609,0.000
1606131278.488,-369.141,-58.594,-47.852,-833.984,0.000
1606131278.492,-203.125,-38.086,-33.203,-513.184,0.000
1606131278.496,193.848,-11.230,-6.836,459.473,0.000
1606131278.500,291.504,-7.812,-6.836,798.340,0.000
1606131278.504,-43.457,-29.785,-28.809,33.691,0.000
1606131278.508,-345.215,-54.199,-44.922,-773.438,0.000
1606131278.512,-245.117,-24.902,-47.363,-608.887,0.000
1606131278.516,145.020,6.836,-23.438,356.445,0.000
1606131278.520,304.688,-6.348,-8.301,821.777,0.000
1606131278.523,9.766,-34.668,-20.508,156.738,0.000
1606131278.527,-337.402,-63.477,-47.852,-730.469,0.000
1606131278.531,-290.039,-53.223,-47.363,-704.102,0.000
1606131278.535,103.027,-23.926,-20.020,247.559,0.000
1606131278.539,302.246,-12.695,-16.602,825.195,0.000
1606131278.543,49.805,-33.203,-22.949,282.227,0.000
1606131278.547,-314.941,-65.430,-41.016,-646.973,0.000
1606131278.551,-325.684,-52.734,-53.223,-765.137,0.000
1606131278.555,57.129,-6.348,-28.809,133.301,0.000
1606131278.559,310.059,-8.301,-12.207,802.734,0.000
1606131278.563,104.980,-28.809,-24.414,388.672,0.000
1606131278.566,-275.391,-50.781,-46.875,-569.336,0.000
1606131278.570,-338.867,-52.734,-47.852,-823.242,0.000
1606131278.574,14.648,-17.090,-33.203,4.395,0.000
1606131278.578,304.199,-3.418,-16.113,770.020,0.000
1606131278.582,160.156,-22.949,-18.555,491.211,0.000
1606131278.586,-227.539,-48.828,-41.504,-474.121,0.000
1606131278.590,-340.820,-52.734,-51.758,-850.098,0.000
1606131278.594,-23.926,-33.691,-31.738,-117.188,0.000
1606131278.598,295.410,-16.113,-14.160,722.168,0.000
1606131278.602,211.914,-18.066,-23.438,603.027,0.000
1606131278.606,-185.059,-44.434,-42.969,-359.863,0.000
1606131278.609,-363.281,-62.988,-51.270,-869.629,0.000
1606131278.613,-95.215,-34.668,-35.645,-242.676,0.000
1606131278.617,254.883,-10.254,-11.230,655.273,0.000
1606131278.621,227.051,-23.926,-10.742,668.945,0.000
1606131278.625,-161.621,-53.223,-40.039,-259.277,0.000
1606131278.629,-376.953,-73.242,-49.316,-853.516,0.000
1606131278.633,-141.602,-52.246,-32.715,-349.609,0.000
1606131278.637,234.863,-17.578,-16.602,578.613,0.000
1606131278.641,264.160,-20.020,-16.602,731.445,0.000
1606131278.645,-110.840,-43.457,-43.945,-153.320,0.000
1606131278.648,-367.188,-59.082,-62.988,-858.398,0.000
1606131278.652,-183.594,-34.180,-48.828,-496.094,0.000
1606131278.656,194.824,1.953,-28.320,461.426,0.000
1606131278.660,281.250,-13.672,-20.996,758.789,0.000
1606131278.664,-57.617,-44.922,-32.715,-43.457,0.000
1606131278.668,-354.492,-62.988,-45.410,-826.172,0.000
1606131278.672,-230.957,-53.711,-38.574,-594.727,0.000
1606131278.676,158.691,-27.344,-16.113,377.930,0.000
1606131278.680,299.805,-12.207,-4.883,800.293,0.000
1606131278.684,-6.836,-27.344,-26.367,98.145,0.000
1606131278.688,-337.402,-52.246,-50.781,-755.859,0.000
1606131278.691,-264.648,-42.480,-49.316,-669.434,0.000
1606131278.695,126.465,-12.695,-25.391,285.156,0.000
1606131278.699,317.383,-17.090,-14.648,808.105,0.000
1606131278.703,60.547,-34.180,-26.367,225.098,0.000
1606131278.707,-304.688,-52.734,-44.434,-678.711,0.000
1606131278.711,-303.711,-40.039,-44.922,-740.234,0.000
1606131278.715,73.242,-13.184,-19.043,183.105,0.000
1606131278.719,297.852,-10.742,-11.719,805.664,0.000
1606131278.723,80.566,-23.926,-27.832,334.961,0.000
1606131278.727,-294.434,-56.152,-50.781,-603.027,0.000
1606131278.731,-338.867,-56.152,-50.781,-800.293,0.000
1606131278.734,25.391,-25.391,-24.902,59.570,0.000
1606131278.738,297.852,-7.812,-10.254,784.668,0.000
1606131278.742,136.719,-16.602,-20.020,460.449,0.000
1606131278.746,-254.883,-45.898,-50.781,-505.859,0.000
1606131278.750,-351.074,-50.293,-56.152,-849.121,0.000
1606131278.754,-18.066,0.000,-30.762,-77.148,0.000
1606131278.758,287.598,18.066,-12.695,742.188,0.000
1606131278.762,186.035,-15.137,-18.066,560.059,0.000
1606131278.766,-207.031,-45.410,-45.410,-417.969,0.000
1606131278.770,-354.980,-59.082,-48.340,-866.211,0.000
1606131278.773,-55.664,-38.086,-19.043,-183.594,0.000
1606131278.777,272.949,-19.043,-10.254,687.012,0.000
1606131278.781,215.332,-21.484,-25.391,641.602,0.000
1606131278.785,-173.340,-47.363,-41.504,-304.199,0.000
1606131278.789,-374.023,-63.477,-47.852,-865.723,0.000
1606131278.793,-122.559,-19.531,-26.855,-308.594,0.000
1606131278.797,243.652,3.906,-12.695,608.887,0.000
1606131278.801,253.906,-17.578,-19.531,709.961,0.000
1606131278.805,-125.488,-34.668,-34.180,-190.430,0.000
1606131278.809,-370.117,-51.270,-38.086,-854.492,0.000
1606131278.813,-170.410,-36.621,-31.738,-430.664,0.000
1606131278.816,205.566,-12.207,-18.555,520.508,0.000
1606131278.820,266.113,-10.254,-14.160,758.789,0.000
1606131278.824,-89.844,-38.086,-33.691,-76.660,0.000
1606131278.828,-366.699,-59.082,-44.434,-832.520,0.000
1606131278.832,-208.008,-45.410,-29.785,-548.828,0.000
1606131278.836,182.129,-13.184,-8.789,430.664,0.000
1606131278.840,298.828,-4.883,-6.348,802.246,0.000
1606131278.844,-22.949,-28.320,-30.273,50.293,0.000
1606131278.848,-344.727,-58.105,-56.152,-794.434,0.000
1606131278.852,-255.371,-38.574,-51.270,-658.691,0.000
1606131278.856,135.742,12.207,-26.367,311.523,0.000
1606131278.859,295.898,-3.418,-13.184,802.246,0.000
1606131278.863,7.324,-42.480,-25.391,167.969,0.000
1606131278.867,-341.309,-61.523,-43.457,-726.074,0.000
1606131278.871,-307.129,-55.664,-36.621,-734.863,0.000
1606131278.875,86.914,-30.762,-20.508,202.148,0.000
1606131278.879,305.176,-16.113,-14.648,800.781,0.000
1606131278.883,65.430,-25.391,-19.531,291.992,0.000
1606131278.887,-310.547,-60.059,-45.410,-642.578,0.000
1606131278.891,-337.891,-50.293,-50.781,-791.504,0.000
1606131278.895,34.668,-3.418,-28.320,94.238,0.000
1606131278.898,294.922,-2.930,-12.695,785.156,0.000
1606131278.902,105.469,-33.203,-15.625,401.855,0.000
1606131278.906,-290.527,-67.383,-41.992,-562.500,0.000
1606131278.910,-360.840,-62.500,-45.898,-842.285,0.000
1606131278.914,-3.906,-33.691,-19.043,-16.602,0.000
1606131278.918,289.551,-16.113,-10.742,757.324,0.000
1606131278.922,161.621,-24.414,-24.414,501.953,0.000
1606131278.926,-231.445,-54.688,-50.781,-468.750,0.000
1606131278.930,-356.934,-60.547,-48.828,-870.605,0.000
1606131278.934,-53.711,-15.625,-37.598,-164.551,0.000
1606131278.938,267.090,8.789,-24.902,683.594,0.000
1606131278.941,204.590,-20.996,-19.531,598.633,0.000
1606131278.945,-194.824,-49.316,-40.527,-350.586,0.000
1606131278.949,-378.418,-61.523,-47.852,-863.281,0.000
1606131278.953,-100.586,-46.387,-21.973,-263.184,0.000
1606131278.957,253.906,-23.438,-4.883,634.766,0.000
1606131278.961,229.004,-22.949,-17.090,682.617,0.000
1606131278.965,-159.180,-50.781,-38.574,-236.816,0.000
1606131278.969,-382.324,-68.848,-49.805,-867.676,0.000
1606131278.973,-158.203,-42.969,-27.832,-393.066,0.000
1606131278.977,222.168,-11.230,-9.277,554.688,0.000
1606131278.981,267.090,-10.254,-13.184,744.141,0.000
1606131278.984,-101.562,-37.598,-34.180,-116.211,0.000
1606131278.988,-372.559,-62.500,-41.016,-834.473,0.000
1606131278.992,-209.473,-29.785,-38.086,-497.070,0.000
1606131278.996,180.176,-2.441,-28.809,464.355,0.000
1606131279.000,288.574,-17.090,-12.695,779.297,0.000
1606131279.004,-41.016,-41.504,-31.738,-7.812,0.000
1606131279.008,-355.469,-63.477,-55.176,-798.828,0.000
1606131279.012,-245.605,-49.805,-40.039,-600.586,0.000
1606131279.016,156.250,-19.043,-16.113,355.957,0.000
1606131279.020,307.617,-7.812,-11.230,801.758,0.000
1606131279.023,11.719,-27.832,-20.996,129.883,0.000
1606131279.027,-324.707,-54.688,-44.434,-742.188,0.000
1606131279.031,-275.391,-29.297,-45.410,-697.754,0.000
1606131279.035,116.211,38.574,-19.043,254.395,0.000
1606131279.039,304.199,20.020,-9.766,808.105,0.000
1606131279.043,28.320,-43.457,-28.809,243.652,0.000
1606131279.047,-327.637,-65.430,-55.176,-685.059,0.000
1606131279.051,-318.359,-55.176,-50.781,-787.109,0.000
1606131279.055,51.270,-30.273,-20.996,126.465,0.000
1606131279.059,289.062,-20.508,-14.648,789.551,0.000
1606131279.063,86.914,-35.156,-22.949,362.793,0.000
1606131279.066,-289.062,-61.035,-32.715,-583.984,0.000
1606131279.070,-337.402,-44.434,-41.504,-812.500,0.000
1606131279.074,31.738,-0.488,-25.391,28.320,0.000
1606131279.078,312.500,-8.789,-10.254,768.555,0.000
1606131279.082,151.855,-27.344,-20.020,472.168,0.000
1606131279.086,-240.234,-45.898,-38.574,-489.746,0.000
1606131279.090,-354.492,-58.594,-50.293,-856.445,0.000
1606131279.094,-27.832,-41.504,-30.762,-101.074,0.000
1606131279.098,291.504,-18.066,-6.836,728.516,0.000
1606131279.102,195.312,-20.996,-11.230,577.637,0.000
1606131279.106,-205.078,-51.758,-39.062,-383.789,0.000
1606131279.109,-371.094,-61.035,-55.176,-870.605,0.000
1606131279.113,-77.148,-30.762,-27.344,-228.516,0.000
1606131279.117,267.090,-4.883,-1.953,666.504,0.000
1606131279.121,226.074,-14.648,-14.160,656.738,0.000
1606131279.125,-166.016,-47.363,-40.527,-294.434,0.000
1606131279.129,-373.047,-62.988,-46.875,-878.906,0.000
1606131279.133,-130.371,-23.926,-36.133,-352.539,0.000
1606131279.137,234.375,12.207,-12.207,577.148,0.000
1606131279.141,255.859,-9.766,-10.254,718.750,0.000
1606131279.145,-118.164,-40.039,-38.574,-169.922,0.000
1606131279.148,-375.977,-53.223,-52.246,-860.840,0.000
1606131279.152,-178.711,-44.434,-38.574,-476.074,0.000
1606131279.156,213.379,-20.996,-18.555,483.398,0.000
1606131279.160,285.645,-17.090,-15.137,760.742,0.000
1606131279.164,-62.500,-37.598,-23.926,-50.781,0.000
1606131279.168,-352.539,-54.199,-38.086,-819.824,0.000
1606131279.172,-208.984,-38.086,-35.645,-574.219,0.000
1606131279.176,192.871,-11.719,-6.836,389.648,0.000
1606131279.180,309.082,-4.883,5.371,791.504,0.000
1606131279.184,-14.160,-22.949,-19.043,76.172,0.000
1606131279.188,-335.938,-53.711,-42.969,-764.648,0.000
1606131279.191,-259.277,-47.363,-42.480,-658.691,0.000
1606131279.195,134.277,-14.648,-16.113,300.781,0.000
1606131279.199,317.383,-8.301,-3.418,814.941,0.000
1606131279.203,41.992,-28.809,-17.090,204.102,0.000
1606131279.207,-320.312,-57.617,-39.551,-699.707,0.000
1606131279.211,-299.316,-45.410,-41.504,-738.281,0.000
1606131279.215,84.961,5.371,-25.879,182.617,0.000
1606131279.219,299.316,5.371,-15.137,789.551,0.000
1606131279.223,82.520,-22.461,-14.160,315.918,0.000
1606131279.227,-283.203,-47.852,-34.180,-612.793,0.000
1606131279.231,-326.660,-57.617,-42.480,-798.828,0.000
1606131279.234,37.109,-30.273,-25.879,64.941,0.000
1606131279.238,302.734,-9.277,-10.254,777.344,0.000
1606131279.242,131.348,-16.602,-16.113,441.406,0.000
1606131279.246,-251.465,-42.480,-39.551,-520.996,0.000
1606131279.250,-349.609,-52.246,-49.805,-846.191,0.000
1606131279.254,-12.695,-26.367,-30.273,-59.570,0.000
1606131279.258,298.340,-8.301,-12.695,735.352,0.000
1606131279.262,180.176,-23.926,-19.531,532.715,0.000
1606131279.266,-218.750,-55.176,-39.551,-430.664,0.000
1606131279.270,-360.840,-64.941,-52.246,-865.723,0.000
1606131279.273,-49.805,-15.625,-39.551,-169.434,0.000
1606131279.277,288.574,8.301,-22.461,689.941,0.000
1606131279.281,226.562,-15.137,-27.344,620.117,0.000
1606131279.285,-167.969,-42.969,-38.574,-326.172,0.000
1606131279.289,-357.910,-59.082,-48.340,-874.512,0.000
1606131279.293,-97.656,-34.668,-31.250,-295.898,0.000
1606131279.297,260.254,-9.277,-11.719,624.512,0.000
1606131279.301,258.301,-10.254,-17.578,708.008,0.000
1606131279.305,-124.023,-29.297,-31.250,-194.336,0.000
1606131279.309,-370.117,-59.082,-43.457,-845.703,0.000
1606131279.313,-170.898,-19.531,-37.109,-412.598,0.000
1606131279.316,207.031,28.809,-15.137,527.832,0.000
1606131279.320,280.762,2.930,-6.836,760.742,0.000
1606131279.324,-83.008,-33.203,-27.344,-74.219,0.000
1606131279.328,-374.512,-63.965,-40.527,-821.777,0.000
1606131279.332,-215.332,-58.594,-27.344,-522.949,0.000
1606131279.336,175.293,-27.344,-9.277,447.266,0.000
1606131279.340,283.203,-18.066,-6.348,803.223,0.000
1606131279.344,-49.805,-41.016,-22.949,38.574,0.000
1606131279.348,-361.328,-64.453,-39.062,-781.250,0.000
1606131279.352,-263.672,-38.574,-27.832,-616.699,0.000
1606131279.356,122.559,0.977,-5.371,334.473,0.000
1606131279.359,276.367,-12.207,-2.441,799.316,0.000
1606131279.363,-7.812,-38.574,-28.320,163.086,0.000
1606131279.367,-344.238,-60.059,-48.340,-714.844,0.000
1606131279.371,-296.387,-54.199,-35.645,-702.148,0.000
1606131279.375,100.098,-26.367,-13.184,232.910,0.000
1606131279.379,302.246,-12.695,-3.418,806.152,0.000
1606131279.383,55.176,-31.250,-19.531,272.461,0.000
1606131279.387,-307.617,-53.711,-45.410,-653.320,0.000
1606131279.391,-317.871,-48.340,-41.504,-781.738,0.000
1606131279.395,78.125,-20.996,-16.602,121.582,0.000
1606131279.398,312.012,-10.254,-8.301,798.340,0.000
1606131279.402,90.820,-29.297,-19.043,386.230,0.000
1606131279.406,-278.809,-52.734,-35.645,-563.965,0.000
1606131279.410,-339.844,-53.711,-36.621,-824.219,0.000
1606131279.414,9.277,4.883,-20.996,-2.441,0.000
1606131279.418,296.875,27.832,-11.230,764.160,0.000
1606131279.422,160.645,-17.578,-11.719,501.953,0.000
1606131279.426,-222.656,-52.246,-30.273,-464.844,0.000
1606131279.430,-349.609,-56.641,-51.270,-855.957,0.000
1606131279.434,-36.621,-28.809,-31.250,-128.418,0.000
1606131279.438,295.898,-8.301,-3.906,716.797,0.000
1606131279.441,206.055,-20.508,-9.277,598.145,0.000
1606131279.445,-191.406,-54.688,-36.133,-363.770,0.000
1606131279.449,-362.793,-73.242,-45.898,-867.188,0.000
1606131279.453,-97.168,-30.762,-30.273,-250.977,0.000
1606131279.457,251.953,0.000,-12.207,638.672,0.000
1606131279.461,226.562,-17.578,-18.066,667.969,0.000
1606131279.465,-163.086,-44.922,-44.922,-254.395,0.000
1606131279.469,-378.418,-60.547,-57.129,-868.652,0.000
1606131279.473,-146.973,-44.434,-43.457,-378.418,0.000
1606131279.477,224.609,-16.602,-22.949,560.059,0.000
1606131279.481,253.418,-20.020,-20.020,732.910,0.000
1606131279.484,-117.188,-51.758,-38.574,-138.672,0.000
1606131279.488,-376.465,-67.871,-49.316,-853.516,0.000
1606131279.492,-193.848,-25.391,-31.738,-492.188,0.000
1606131279.496,189.941,19.043,-12.207,465.332,0.000
1606131279.500,280.273,-4.395,-10.254,757.324,0.000
1606131279.504,-55.664,-40.039,-28.320,-31.250,0.000
1606131279.508,-348.145,-58.594,-46.387,-820.312,0.000
1606131279.512,-227.539,-48.340,-31.738,-601.074,0.000
1606131279.516,153.809,-21.484,-13.672,370.117,0.000
1606131279.520,292.480,-18.555,-14.160,790.527,0.000
1606131279.523,-9.766,-41.992,-30.273,93.262,0.000
1606131279.527,-349.609,-62.988,-52.246,-772.461,0.000
1606131279.531,-285.645,-52.734,-48.340,-701.172,0.000
1606131279.535,112.793,-23.438,-22.461,264.648,0.000
1606131279.539,309.082,-11.230,-8.301,805.664,0.000
1606131279.543,54.199,-25.879,-23.926,222.656,0.000
1606131279.547,-309.570,-52.734,-40.039,-680.664,0.000
1606131279.551,-303.711,-44.434,-36.621,-751.953,0.000
1606131279.555,82.031,-5.859,-24.902,159.180,0.000
1606131279.559,311.035,-7.812,-20.020,798.828,0.000
1606131279.563,96.191,-35.645,-31.250,343.750,0.000
1606131279.566,-289.551,-62.012,-48.828,-608.398,0.000
1606131279.570,-343.262,-57.129,-47.852,-819.824,0.000
1606131279.574,26.855,-24.414,-23.926,38.086,0.000
1606131279.578,295.410,-15.625,-10.254,769.043,0.000
1606131279.582,142.090,-23.438,-17.090,458.496,0.000
1606131279.586,-242.676,-43.945,-35.645,-501.953,0.000
1606131279.590,-367.676,-58.105,-44.434,-858.887,0.000
1606131279.594,-36.621,-5.371,-27.344,-99.121,0.000
1606131279.598,279.785,18.555,-13.672,721.680,0.000
1606131279.602,177.246,-22.461,-17.578,555.176,0.000
1606131279.606,-221.680,-45.410,-29.785,-408.203,0.000
1606131279.609,-377.441,-54.688,-40.039,-870.605,0.000
1606131279.613,-69.336,-33.691,-22.461,-201.660,0.000
1606131279.617,283.203,-5.859,-1.953,688.965,0.000
1606131279.621,227.539,-6.348,-9.277,649.902,0.000
1606131279.625,-175.781,-29.785,-32.227,-309.082,0.000
1606131279.629,-378.418,-48.828,-47.852,-881.836,0.000
1606131279.633,-136.230,-17.578,-32.715,-333.008,0.000
1606131279.637,220.703,14.648,-9.766,591.797,0.000
1606131279.641,238.281,-5.371,-16.113,708.008,0.000
1606131279.645,-140.625,-39.062,-38.086,-189.453,0.000
1606131279.648,-386.719,-54.199,-47.852,-863.770,0.000
1606131279.652,-172.363,-38.574,-27.832,-443.848,0.000
1606131279.656,219.727,-12.695,-2.441,518.066,0.000
1606131279.660,281.250,-10.742,-2.930,762.207,0.000
1606131279.664,-83.496,-36.133,-33.203,-74.707,0.000
1606131279.668,-374.512,-59.570,-52.734,-837.402,0.000
1606131279.672,-230.469,-52.734,-42.969,-570.801,0.000
1606131279.676,167.969,-24.902,-28.809,398.926,0.000
1606131279.680,291.992,-9.766,-21.484,787.598,0.000
1606131279.684,-32.227,-30.273,-36.133,51.758,0.000
1606131279.688,-353.516,-68.359,-49.805,-788.086,0.000
1606131279.691,-266.602,-55.176,-35.645,-660.156,0.000
1606131279.695,142.578,5.371,-17.090,308.594,0.000
1606131279.699,313.477,-4.395,-17.578,809.570,0.000
1606131279.703,17.578,-43.457,-25.879,186.035,0.000
1606131279.707,-320.312,-56.152,-42.969,-708.496,0.000
1606131279.711,-289.551,-52.734,-45.898,-729.980,0.000
1606131279.715,93.750,-27.832,-23.926,206.055,0.000
1606131279.719,311.523,-11.230,-13.184,812.012,0.000
1606131279.723,74.707,-23.926,-23.926,310.059,0.000
1606131279.727,-296.387,-46.875,-33.203,-624.512,0.000
1606131279.731,-321.289,-41.504,-35.645,-792.480,0.000
1606131279.734,54.688,-6.348,-26.367,95.215,0.000
1606131279.738,307.617,-0.977,-13.672,798.828,0.000
1606131279.742,119.629,-23.926,-23.926,427.246,0.000
1606131279.746,-262.207,-48.340,-44.922,-534.180,0.000
1606131279.750,-345.703,-49.805,-48.828,-836.914,0.000
1606131279.754,1.953,-21.484,-21.484,-33.203,0.000
1606131279.758,300.293,-2.441,-11.230,753.906,0.000
1606131279.762,169.434,-16.113,-21.973,520.996,0.000
1606131279.766,-224.121,-48.340,-39.062,-453.125,0.000
1606131279.770,-363.770,-58.105,-51.758,-867.188,0.000
1606131279.773,-55.664,-0.488,-29.785,-154.297,0.000
1606131279.777,272.949,22.461,-16.113,696.777,0.000
1606131279.781,196.289,-18.555,-25.391,604.980,0.000
1606131279.785,-194.336,-42.969,-45.410,-348.633,0.000
1606131279.789,-374.512,-49.805,-53.711,-881.348,0.000
1606131279.793,-105.469,-32.715,-35.156,-291.016,0.000
1606131279.797,247.559,-13.672,-11.719,627.930,0.000
1606131279.801,225.586,-15.137,-18.066,692.383,0.000
1606131279.805,-155.762,-41.504,-40.039,-226.074,0.000
1606131279.809,-385.742,-55.664,-49.316,-866.699,0.000
1606131279.813,-164.062,-42.969,-34.180,-409.668,0.000
1606131279.816,215.820,-16.113,-14.160,542.480,0.000
1606131279.820,253.418,-13.672,-22.949,744.141,0.000
1606131279.824,-111.816,-38.086,-43.945,-119.629,0.000
1606131279.828,-379.883,-62.500,-47.363,-850.586,0.000
1606131279.832,-208.008,-29.297,-31.250,-523.926,0.000
1606131279.836,192.383,14.648,-14.648,454.590,0.000
1606131279.840,286.133,-3.906,-12.207,785.156,0.000
1606131279.844,-58.594,-35.645,-30.762,1.465,0.000
1606131279.848,-363.281,-60.059,-42.480,-800.781,0.000
1606131279.852,-250.000,-49.316,-33.203,-612.305,0.000
1606131279.856,143.555,-19.531,-11.230,350.586,0.000
1606131279.859,293.457,-12.207,-5.371,799.316,0.000
1606131279.863,-3.418,-39.062,-27.344,134.277,0.000
1606131279.867,-341.797,-72.754,-50.781,-744.141,0.000
1606131279.871,-288.086,-50.293,-48.828,-721.191,0.000
1606131279.875,105.469,20.508,-21.973,231.445,0.000
1606131279.879,311.523,14.160,-10.742,801.758,0.000
1606131279.883,59.082,-31.738,-20.020,251.465,0.000
1606131279.887,-317.383,-51.758,-38.574,-671.875,0.000
1606131279.891,-326.172,-51.758,-44.922,-784.180,0.000
1606131279.895,59.082,-30.762,-23.438,124.023,0.000
1606131279.898,304.688,-17.090,-3.418,796.387,0.000
1606131279.902,103.516,-26.367,-19.043,370.117,0.000
1606131279.906,-280.273,-53.711,-48.828,-593.262,0.000
1606131279.910,-341.797,-52.246,-43.457,-830.566,0.000
1606131279.914,21.484,-15.137,-20.508,13.672,0.000
1606131279.918,305.176,-2.930,-5.859,760.742,0.000
1606131279.922,151.367,-27.832,-16.113,470.703,0.000
1606131279.926,-240.234,-55.176,-44.922,-492.188,0.000
1606131279.930,-350.586,-52.734,-42.969,-858.398,0.000
1606131279.934,-28.809,-28.320,-19.531,-111.816,0.000
1606131279.938,279.297,-14.648,-3.418,723.633,0.000
1606131279.941,177.246,-28.320,-15.625,576.172,0.000
1606131279.945,-221.680,-54.199,-35.156,-394.043,0.000
1606131279.949,-379.883,-55.176,-37.109,-881.348,0.000
1606131279.953,-87.891,-38.086,-24.902,-250.000,0.000
1606131279.957,258.789,-21.484,-10.254,639.648,0.000
1606131279.961,227.539,-20.508,-9.277,658.691,0.000
1606131279.965,-158.203,-41.992,-26.367,-270.996,0.000
1606131279.969,-372.559,-66.895,-41.992,-875.977,0.000
1606131279.973,-136.230,-28.320,-33.203,-372.559,0.000
1606131279.977,230.469,22.949,-7.812,563.965,0.000
1606131279.981,257.812,-12.207,-13.672,716.309,0.000
1606131279.984,-120.117,-52.246,-41.016,-175.293,0.000
1606131279.988,-389.648,-62.988,-49.316,-871.094,0.000
1606131279.992,-203.125,-51.758,-39.551,-489.258,0.000
1606131279.996,179.199,-26.367,-20.020,472.656,0.000
1606131280.000,260.254,-20.020,-15.625,750.977,0.000
1606131280.004,-75.684,-36.621,-29.297,-54.688,0.000
1606131280.008,-355.469,-59.082,-41.504,-818.848,0.000
1606131280.012,-225.098,-36.621,-42.480,-584.473,0.000
1606131280.016,161.133,1.465,-17.578,375.488,0.000
1606131280.020,301.270,-12.695,-5.371,787.598,0.000
1606131280.023,-2.441,-37.109,-32.227,80.078,0.000
1606131280.027,-338.867,-53.711,-52.246,-765.137,0.000
1606131280.031,-268.066,-51.270,-41.992,-671.387,0.000
1606131280.035,134.277,-22.949,-14.160,292.969,0.000
1606131280.039,317.383,-4.883,-5.371,819.336,0.000
1606131280.043,42.969,-27.832,-21.973,220.215,0.000
1606131280.047,-319.824,-64.941,-43.457,-681.641,0.000
1606131280.051,-314.453,-52.734,-39.551,-734.863,0.000
1606131280.055,77.148,23.438,-21.484,187.988,0.000
1606131280.059,308.105,24.414,-12.695,806.641,0.000
1606131280.063,86.914,-22.949,-27.832,332.031,0.000
1606131280.066,-283.691,-45.410,-49.316,-603.516,0.000
1606131280.070,-327.148,-44.434,-44.922,-804.199,0.000
1606131280.074,32.227,-20.508,-29.297,49.805,0.000
1606131280.078,301.270,-17.090,-13.184,769.531,0.000
1606131280.082,133.789,-29.785,-22.949,444.336,0.000
1606131280.086,-247.559,-52.734,-56.152,-502.930,0.000
1606131280.090,-331.543,-58.105,-57.129,-826.172,0.000
1606131280.094,4.883,-31.250,-27.832,-65.918,0.000
1606131280.098,287.109,-12.695,-12.207,725.098,0.000
1606131280.102,176.270,-22.461,-20.508,541.992,0.000
1606131280.106,-207.031,-51.758,-44.922,-407.227,0.000
1606131280.109,-354.492,-62.988,-49.316,-844.238,0.000
1606131280.113,-65.918,-29.785,-34.668,-189.941,0.000
1606131280.117,261.719,-10.742,-13.672,653.320,0.000
1606131280.121,219.727,-22.949,-13.672,624.512,0.000
1606131280.125,-150.879,-45.410,-43.945,-278.320,0.000
1606131280.129,-341.309,-52.734,-54.688,-827.148,0.000
1606131280.133,-105.957,-37.598,-34.668,-307.129,0.000
1606131280.137,233.887,-20.996,-7.812,574.219,0.000
1606131280.141,239.258,-15.137,-14.160,679.199,0.000
1606131280.145,-104.492,-40.039,-42.969,-143.066,0.000
1606131280.148,-318.848,-53.223,-53.711,-735.352,0.000
1606131280.152,-152.832,-35.156,-37.598,-394.043,0.000
1606131280.156,145.020,-17.578,-15.625,349.609,0.000
1606131280.160,197.754,-18.066,-13.672,544.434,0.000
1606131280.164,-39.551,-29.785,-30.273,-16.602,0.000
1606131280.168,-218.262,-46.875,-41.504,-498.047,0.000
1606131280.172,-126.465,-28.809,-36.133,-296.387,0.000
1606131280.176,93.262,15.137,-18.555,263.672,0.000
1606131280.180,144.531,-1.953,-17.578,443.848,0.000
1606131280.184,-27.832,-39.551,-36.133,39.551,0.000
1606131280.188,-174.316,-53.223,-41.504,-378.906,0.000
1606131280.191,-109.375,-29.297,-35.156,-256.348,0.000
1606131280.195,99.121,-9.277,-20.996,277.344,0.000
1606131280.199,174.316,-24.902,-21.973,508.789,0.000
1606131280.203,13.672,-32.227,-24.902,146.484,0.000
1606131280.207,-163.086,-43.945,-23.926,-306.152,0.000
1606131280.211,-131.348,-34.180,-35.156,-252.930,0.000
1606131280.215,73.730,-13.184,-28.809,264.648,0.000
1606131280.219,174.805,-19.531,-18.066,546.387,0.000
1606131280.223,33.203,-33.691,-22.949,229.492,0.000
1606131280.227,-163.574,-47.852,-38.574,-271.973,0.000
1606131280.231,-168.457,-49.805,-38.086,-321.777,0.000
1606131280.234,20.508,-32.715,-27.344,143.555,0.000
1606131280.238,137.695,-21.973,-23.926,459.473,0.000
1606131280.242,23.438,-30.762,-24.414,201.660,0.000
1606131280.246,-176.270,-43.457,-31.250,-310.547,0.000
1606131280.250,-205.078,-50.293,-38.574,-430.176,0.000
1606131280.254,-29.297,-19.043,-32.715,-8.301,0.000
1606131280.258,111.816,2.441,-14.160,358.887,0.000
1606131280.262,40.527,-23.926,-18.066,185.059,0.000
1606131280.266,-158.691,-41.992,-38.574,-324.219,0.000
1606131280.270,-207.031,-41.992,-36.133,-485.840,0.000
1606131280.273,-44.434,-28.320,-20.508,-83.984,0.000
1606131280.277,105.469,-18.066,-12.695,326.660,0.000
1606131280.281,55.664,-24.414,-19.531,218.750,0.000
1606131280.285,-137.695,-43.945,-30.762,-285.156,0.000
1606131280.289,-209.473,-58.105,-28.809,-503.418,0.000
1606131280.293,-66.406,-24.902,-25.391,-168.457,0.000
1606131280.297,88.379,-13.672,-20.996,256.836,0.000
1606131280.301,58.105,-43.457,-17.090,221.191,0.000
1606131280.305,-123.535,-47.852,-31.250,-251.465,0.000
1606131280.309,-206.543,-51.270,-32.715,-518.066,0.000
1606131280.313,-82.031,-41.992,-18.555,-233.887,0.000
1606131280.316,84.961,-29.297,-16.602,212.891,0.000
1606131280.320,81.543,-33.691,-17.578,246.094,0.000
1606131280.324,-97.168,-41.992,-28.320,-184.570,0.000
1606131280.328,-207.031,-44.922,-37.109,-492.188,0.000
1606131280.332,-106.934,-37.109,-25.879,-271.484,0.000
1606131280.336,68.848,-19.531,-17.578,192.871,0.000
1606131280.340,83.008,-21.973,-17.578,288.574,0.000
1606131280.344,-79.102,-39.062,-24.902,-112.793,0.000
1606131280.348,-204.590,-51.270,-32.227,-464.844,0.000
1606131280.352,-135.742,-39.062,-26.367,-313.477,0.000
1606131280.356,45.410,-19.043,-18.066,139.160,0.000
1606131280.359,91.309,-27.344,-21.484,299.805,0.000
1606131280.363,-59.082,-38.086,-28.809,-45.898,0.000
1606131280.367,-195.801,-43.945,-32.227,-435.059,0.000
1606131280.371,-142.090,-39.551,-30.762,-348.633,0.000
1606131280.375,32.715,-23.438,-23.438,115.723,0.000
1606131280.379,106.445,-21.484,-16.113,337.891,0.000
1606131280.383,-17.578,-28.320,-20.508,38.086,0.000
1606131280.387,-174.805,-34.668,-31.738,-377.930,0.000
1606131280.391,-157.227,-31.250,-28.320,-366.211,0.000
1606131280.395,18.555,-12.207,-15.625,83.008,0.000
1606131280.398,108.398,-13.672,-12.695,347.656,0.000
1606131280.402,-6.348,-23.926,-24.902,83.496,0.000
1606131280.406,-162.109,-36.621,-32.227,-347.168,0.000
1606131280.410,-161.621,-39.062,-28.809,-399.414,0.000
1606131280.414,2.441,-20.996,-16.602,17.578,0.000
1606131280.418,114.746,-12.207,-11.719,343.262,0.000
1606131280.422,23.926,-23.438,-26.367,145.996,0.000
1606131280.426,-145.996,-37.598,-39.062,-301.270,0.000
1606131280.430,-168.945,-36.621,-40.527,-406.250,0.000
1606131280.434,-16.113,-23.926,-31.738,-23.926,0.000
1606131280.438,109.863,-22.949,-24.902,330.566,0.000
1606131280.441,46.387,-36.621,-28.320,205.566,0.000
1606131280.445,-132.812,-47.852,-36.621,-249.023,0.000
1606131280.449,-179.199,-41.992,-34.668,-426.758,0.000
1606131280.453,-37.109,-27.344,-27.832,-82.031,0.000
1606131280.457,103.027,-18.066,-21.484,313.965,0.000
1606131280.461,56.152,-24.902,-15.625,251.465,0.000
1606131280.465,-131.348,-42.480,-21.973,-208.008,0.000
1606131280.469,-209.473,-46.387,-32.227,-446.777,0.000
1606131280.473,-81.543,-35.156,-30.273,-152.832,0.000
1606131280.477,84.473,-21.484,-12.207,283.691,0.000
1606131280.481,76.172,-22.949,-3.906,297.852,0.000
1606131280.484,-101.074,-41.016,-29.297,-153.809,0.000
1606131280.488,-201.660,-48.340,-38.574,-442.871,0.000
1606131280.492,-92.285,-29.785,-26.367,-197.266,0.000
1606131280.496,78.125,-12.207,-26.367,253.418,0.000
1606131280.500,91.797,-20.020,-30.762,330.078,0.000
1606131280.504,-65.918,-37.598,-35.156,-80.566,0.000
1606131280.508,-179.199,-40.039,-32.227,-416.504,0.000
1606131280.512,-95.215,-29.785,-31.250,-246.094,0.000
1606131280.516,76.172,-20.020,-22.949,212.402,0.000
1606131280.520,109.375,-17.090,-20.020,344.238,0.000
1606131280.523,-40.039,-22.949,-34.668,-28.809,0.000
1606131280.527,-178.223,-33.203,-33.691,-413.086,0.000
1606131280.531,-128.906,-40.039,-33.203,-317.383,0.000
1606131280.535,52.734,-24.902,-26.367,159.180,0.000
1606131280.539,118.164,-18.066,-18.066,368.164,0.000
1606131280.543,-27.344,-35.156,-30.762,30.273,0.000
1606131280.547,-181.152,-42.969,-37.109,-391.113,0.000
1606131280.551,-149.902,-39.062,-31.250,-362.793,0.000
1606131280.555,33.203,-23.438,-20.996,100.586,0.000
1606131280.559,118.164,-17.578,-15.137,366.699,0.000
1606131280.563,1.953,-25.879,-25.879,86.914,0.000
1606131280.566,-155.273,-38.574,-31.250,-352.051,0.000
1606131280.570,-151.367,-41.504,-27.344,-384.277,0.000
1606131280.574,13.672,-31.250,-23.438,43.945,0.000
1606131280.578,115.234,-29.785,-20.020,351.562,0.000
1606131280.582,19.043,-39.062,-24.414,135.742,0.000
1606131280.586,-146.973,-48.828,-35.645,-312.988,0.000
1606131280.590,-162.598,-45.898,-32.715,-398.926,0.000
1606131280.594,0.488,-31.738,-17.578,1.953,0.000
1606131280.598,121.094,-20.508,-19.531,355.957,0.000
1606131280.602,49.316,-22.949,-32.227,208.984,0.000
1606131280.606,-121.582,-35.156,-32.715,-248.047,0.000
1606131280.609,-173.828,-37.598,-31.738,-403.809,0.000
1606131280.613,-37.109,-22.461,-31.738,-57.129,0.000
1606131280.617,106.934,-12.207,-20.020,335.449,0.000
1606131280.621,68.359,-20.508,-17.578,260.742,0.000
1606131280.625,-108.887,-34.180,-40.039,-205.566,0.000
1606131280.629,-180.176,-42.969,-43.945,-425.781,0.000
1606131280.633,-53.223,-24.414,-37.598,-113.281,0.000
1606131280.637,99.609,-2.441,-32.227,314.453,0.000
1606131280.641,83.984,-8.301,-29.297,298.828,0.000
1606131280.645,-82.031,-22.461,-32.227,-158.691,0.000
1606131280.648,-177.734,-32.227,-30.273,-426.270,0.000
1606131280.652,-78.125,-28.809,-28.320,-170.898,0.000
1606131280.656,90.820,-18.555,-18.066,269.043,0.000
1606131280.660,93.750,-16.113,-20.996,313.965,0.000
1606131280.664,-74.219,-24.902,-37.109,-104.492,0.000
1606131280.668,-178.711,-36.621,-36.621,-412.109,0.000
1606131280.672,-89.844,-34.180,-35.156,-221.191,0.000
1606131280.676,84.473,-24.414,-32.227,230.469,0.000
1606131280.680,113.281,-26.367,-20.508,350.586,0.000
1606131280.684,-41.992,-35.156,-31.250,-36.621,0.000
1606131280.688,-170.898,-45.410,-45.898,-405.273,0.000
1606131280.691,-109.863,-42.480,-38.086,-286.133,0.000
1606131280.695,63.477,-29.785,-26.855,177.246,0.000
1606131280.699,111.328,-27.832,-21.973,358.887,0.000
1606131280.703,-32.715,-38.086,-28.320,15.625,0.000
1606131280.707,-174.805,-37.598,-36.621,-387.207,0.000
1606131280.711,-141.113,-35.156,-43.945,-325.195,0.000
1606131280.715,32.227,-20.020,-41.016,137.695,0.000
1606131280.719,110.840,-13.184,-30.273,370.605,0.000
1606131280.723,-6.348,-32.715,-32.715,78.613,0.000
1606131280.727,-147.461,-45.898,-38.574,-344.727,0.000
1606131280.731,-130.859,-38.086,-34.668,-353.516,0.000
1606131280.734,35.645,-20.508,-28.320,87.402,0.000
1606131280.738,131.836,-17.090,-25.391,371.094,0.000
1606131280.742,24.902,-24.414,-31.250,128.906,0.000
1606131280.746,-148.926,-38.574,-40.527,-327.148,0.000
1606131280.750,-156.250,-42.969,-41.016,-393.066,0.000
1606131280.754,12.695,-32.227,-32.715,41.016,0.000
1606131280.758,124.023,-23.926,-24.414,379.395,0.000
1606131280.762,41.992,-27.344,-33.691,188.965,0.000
1606131280.766,-132.812,-41.016,-46.875,-289.551,0.000
1606131280.770,-173.828,-47.852,-42.969,-431.641,0.000
1606131280.773,-19.531,-22.461,-25.879,-30.762,0.000
1606131280.777,118.652,-6.836,-19.531,362.305,0.000
1606131280.781,49.805,-26.367,-25.391,236.816,0.000
1606131280.785,-132.812,-42.480,-32.227,-245.605,0.000
1606131280.789,-186.523,-45.898,-40.039,-439.453,0.000
1606131280.793,-53.223,-37.598,-39.551,-102.051,0.000
1606131280.797,98.633,-28.809,-25.391,314.453,0.000
1606131280.801,71.777,-31.738,-23.438,276.367,0.000
1606131280.805,-114.746,-43.945,-39.551,-197.754,0.000
1606131280.809,-198.730,-54.688,-43.945,-457.520,0.000
1606131280.813,-84.961,-34.180,-42.969,-173.340,0.000
1606131280.816,74.219,-11.719,-35.156,273.438,0.000
1606131280.820,86.426,-19.043,-21.973,313.477,0.000
1606131280.824,-80.078,-33.691,-31.250,-125.977,0.000
1606131280.828,-189.941,-42.480,-40.039,-439.941,0.000
1606131280.832,-86.914,-31.250,-25.391,-211.426,0.000
1606131280.836,82.520,-19.531,-20.020,257.812,0.000
1606131280.840,98.145,-19.531,-24.902,352.539,0.000
1606131280.844,-59.082,-26.855,-33.203,-67.383,0.000
1606131280.848,-174.805,-30.273,-39.062,-426.758,0.000
1606131280.852,-101.074,-26.367,-27.832,-266.113,0.000
1606131280.856,66.406,-20.996,-21.973,198.242,0.000
1606131280.859,114.746,-15.625,-19.043,358.398,0.000
1606131280.863,-30.762,-23.926,-26.367,-4.883,0.000
1606131280.867,-170.898,-34.668,-42.480,-405.273,0.000
1606131280.871,-125.000,-34.180,-35.156,-320.801,0.000
1606131280.875,56.641,-21.973,-22.949,162.598,0.000
1606131280.879,125.488,-15.137,-20.508,384.766,0.000
1606131280.883,-6.836,-31.250,-25.879,61.035,0.000
1606131280.887,-160.645,-42.969,-35.156,-360.840,0.000
1606131280.891,-144.531,-34.668,-34.180,-345.703,0.000
1606131280.895,30.273,-22.949,-25.879,117.676,0.000
1606131280.898,115.234,-18.555,-17.090,393.066,0.000
1606131280.902,0.977,-25.391,-20.996,116.211,0.000
1606131280.906,-159.180,-45.898,-39.062,-338.867,0.000
1606131280.910,-159.180,-47.852,-45.410,-387.207,0.000
1606131280.914,7.324,-18.555,-33.691,46.875,0.000
1606131280.918,117.188,-8.301,-20.020,365.723,0.000
1606131280.922,25.391,-26.367,-23.438,158.691,0.000
1606131280.926,-141.113,-42.480,-48.340,-306.641,0.000
1606131280.930,-166.504,-41.992,-46.387,-420.410,0.000
1606131280.934,-17.090,-31.738,-30.762,-14.648,0.000
1606131280.938,115.234,-21.973,-26.367,354.492,0.000
1606131280.941,57.129,-21.973,-25.879,219.727,0.000
1606131280.945,-117.676,-33.691,-34.668,-243.164,0.000
1606131280.949,-172.852,-42.969,-37.598,-420.898,0.000
1606131280.953,-39.551,-29.297,-28.809,-75.684,0.000
1606131280.957,104.980,-12.207,-18.066,330.078,0.000
1606131280.961,70.312,-23.926,-20.020,263.672,0.000
1606131280.965,-109.375,-36.133,-33.691,-199.707,0.000
1606131280.969,-183.594,-37.598,-36.133,-430.664,0.000
1606131280.973,-60.547,-32.715,-25.391,-137.207,0.000
1606131280.977,101.562,-20.508,-16.602,296.387,0.000
1606131280.981,86.914,-20.508,-28.809,298.828,0.000
1606131280.984,-88.867,-34.668,-42.480,-152.344,0.000
1606131280.988,-177.246,-40.039,-37.109,-430.664,0.000
1606131280.992,-72.754,-20.996,-31.738,-180.176,0.000
1606131280.996,88.867,-0.488,-31.738,266.113,0.000
1606131281.000,98.145,-14.648,-32.227,324.219,0.000
1606131281.004,-69.336,-36.621,-41.016,-100.586,0.000
1606131281.008,-183.594,-41.016,-49.316,-425.293,0.000
1606131281.012,-99.121,-32.715,-39.062,-241.699,0.000
1606131281.016,76.660,-22.949,-26.367,220.215,0.000
1606131281.020,108.887,-19.531,-16.602,356.445,0.000
1606131281.023,-45.898,-28.320,-25.879,-25.391,0.000
1606131281.027,-176.758,-37.598,-47.852,-404.785,0.000
1606131281.031,-125.000,-36.621,-41.016,-296.387,0.000
1606131281.035,55.176,-22.461,-23.438,183.105,0.000
1606131281.039,116.211,-18.555,-25.879,381.836,0.000
1606131281.043,-21.973,-32.715,-34.180,38.086,0.000
1606131281.047,-172.852,-44.434,-39.062,-377.441,0.000
1606131281.051,-147.461,-40.039,-38.086,-333.008,0.000
1606131281.055,36.133,-15.137,-28.809,133.789,0.000
1606131281.059,123.047,-9.277,-13.184,387.207,0.000
1606131281.063,5.859,-24.414,-14.160,112.305,0.000
1606131281.066,-151.855,-41.504,-29.785,-325.195,0.000
1606131281.070,-148.438,-39.551,-36.133,-355.469,0.000
1606131281.074,21.973,-26.855,-23.438,80.566,0.000
1606131281.078,130.859,-24.902,-16.602,382.812,0.000
1606131281.082,32.715,-30.762,-25.391,161.621,0.000
1606131281.086,-142.090,-39.062,-36.621,-300.781,0.000
1606131281.090,-164.062,-42.969,-40.039,-392.578,0.000
1606131281.094,-10.254,-8.301,-27.344,18.066,0.000
1606131281.098,115.234,2.930,-13.184,372.070,0.000
1606131281.102,49.316,-23.438,-16.113,223.145,0.000
1606131281.106,-129.395,-36.133,-26.855,-245.117,0.000
1606131281.109,-178.223,-48.340,-25.391,-402.832,0.000
1606131281.113,-27.832,-35.645,-19.043,-31.738,0.000
1606131281.117,116.699,-18.555,-12.207,369.629,0.000
1606131281.121,64.453,-24.414,-20.508,276.367,0.000
1606131281.125,-118.652,-34.180,-32.227,-204.102,0.000
1606131281.129,-186.035,-36.133,-33.691,-425.293,0.000
1606131281.133,-57.617,-18.555,-21.484,-106.445,0.000
1606131281.137,96.680,-12.207,-4.883,322.266,0.000
1606131281.141,72.266,-31.738,-11.230,294.434,0.000
1606131281.145,-106.445,-40.527,-22.949,-171.387,0.000
1606131281.148,-189.941,-40.039,-37.109,-439.453,0.000
1606131281.152,-79.102,-32.227,-39.551,-179.199,0.000
1606131281.156,89.844,-29.297,-27.832,267.578,0.000
1606131281.160,104.980,-33.203,-30.273,318.848,0.000
1606131281.164,-65.918,-39.551,-35.645,-114.258,0.000
1606131281.168,-183.594,-42.969,-32.715,-436.523,0.000
1606131281.172,-88.379,-28.809,-23.438,-226.074,0.000
1606131281.176,86.914,-16.113,-12.695,248.535,0.000
1606131281.180,111.816,-14.648,-15.137,361.816,0.000
1606131281.184,-49.805,-25.879,-30.273,-53.711,0.000
1606131281.188,-177.734,-40.039,-43.457,-428.223,0.000
1606131281.191,-115.234,-32.715,-44.434,-291.016,0.000
1606131281.195,57.617,-12.695,-34.180,183.594,0.000
1606131281.199,114.746,-12.695,-21.484,366.211,0.000
1606131281.203,-20.996,-22.461,-16.113,23.926,0.000
1606131281.207,-168.945,-30.273,-26.855,-380.859,0.000
1606131281.211,-143.066,-35.645,-37.598,-324.707,0.000
1606131281.215,37.109,-22.949,-26.855,143.066,0.000
1606131281.219,118.652,-12.695,-17.578,374.023,0.000
1606131281.223,-8.789,-20.508,-24.414,79.590,0.000
1606131281.227,-164.551,-43.457,-31.738,-336.426,0.000
1606131281.231,-146.484,-49.316,-33.691,-335.449,0.000
1606131281.234,34.180,-13.184,-24.902,114.746,0.000
1606131281.238,136.719,-2.441,-18.555,388.184,0.000
1606131281.242,25.391,-16.113,-35.156,138.184,0.000
1606131281.246,-152.344,-27.832,-48.340,-323.730,0.000
1606131281.250,-164.551,-27.832,-48.340,-412.109,0.000
1606131281.254,9.277,-12.695,-43.945,8.301,0.000
1606131281.258,126.465,-5.859,-39.551,349.609,0.000
1606131281.262,35.156,-12.207,-44.434,168.457,0.000
1606131281.266,-144.043,-28.809,-46.875,-291.504,0.000
1606131281.270,-169.434,-36.621,-38.574,-420.410,0.000
1606131281.273,-17.578,-11.230,-33.203,-40.039,0.000
1606131281.277,111.816,-0.977,-34.180,335.449,0.000
1606131281.281,63.965,-26.367,-41.504,219.727,0.000
1606131281.285,-109.375,-44.434,-51.270,-251.465,0.000
1606131281.289,-170.898,-43.945,-46.875,-443.359,0.000
1606131281.293,-31.250,-28.320,-38.086,-96.680,0.000
1606131281.297,130.859,-12.695,-28.809,328.125,0.000
1606131281.301,101.562,-12.207,-22.461,282.227,0.000
1606131281.305,-87.402,-26.367,-35.156,-187.012,0.000
1606131281.309,-172.852,-40.039,-45.410,-445.312,0.000
1606131281.313,-49.805,-28.809,-33.691,-156.738,0.000
1606131281.316,115.234,-6.836,-17.090,291.992,0.000
1606131281.320,115.234,-4.395,-21.484,325.195,0.000
1606131281.324,-60.547,-23.926,-40.527,-119.141,0.000
1606131281.328,-171.387,-43.457,-40.527,-432.617,0.000
1606131281.332,-77.148,-25.879,-32.715,-205.566,0.000
1606131281.336,90.332,-5.371,-34.668,258.789,0.000
1606131281.340,108.887,-20.508,-35.156,345.215,0.000
1606131281.344,-49.316,-34.668,-33.691,-66.406,0.000
1606131281.348,-174.316,-41.504,-37.598,-415.039,0.000
1606131281.352,-101.562,-36.621,-39.551,-256.348,0.000
1606131281.356,65.918,-22.461,-16.113,206.055,0.000
1606131281.359,108.887,-18.066,-8.301,361.816,0.000
1606131281.363,-29.297,-30.273,-27.344,8.301,0.000
1606131281.367,-166.992,-35.645,-37.598,-378.906,0.000
1606131281.371,-121.582,-34.180,-40.039,-296.387,0.000
1606131281.375,41.504,-28.320,-34.668,157.715,0.000
1606131281.379,111.328,-20.996,-24.414,374.512,0.000
1606131281.383,-8.301,-26.855,-19.531,71.777,0.000
1606131281.387,-155.762,-38.574,-26.855,-338.867,0.000
1606131281.391,-134.277,-39.062,-31.738,-324.219,0.000
1606131281.395,38.574,-23.438,-20.020,125.488,0.000
1606131281.398,128.418,-13.184,-15.137,387.695,0.000
1606131281.402,12.695,-23.926,-30.273,129.883,0.000
1606131281.406,-142.578,-35.645,-43.945,-300.293,0.000
1606131281.410,-140.137,-21.973,-42.480,-352.539,0.000
1606131281.414,27.832,2.930,-28.809,67.383,0.000
1606131281.418,136.230,1.953,-15.137,375.488,0.000
1606131281.422,43.945,-14.160,-16.602,168.945,0.000
1606131281.426,-127.930,-28.320,-28.320,-286.133,0.000
1606131281.430,-157.227,-31.250,-22.949,-391.113,0.000
1606131281.434,-1.953,-19.043,-5.371,-1.465,0.000
1606131281.438,121.582,-10.742,-9.277,358.398,0.000
1606131281.441,52.734,-22.949,-15.137,220.215,0.000
1606131281.445,-117.188,-30.762,-21.973,-239.258,0.000
1606131281.449,-169.434,-30.273,-32.227,-417.480,0.000
1606131281.453,-27.344,-22.949,-19.043,-54.199,0.000
1606131281.457,121.582,-14.160,-12.695,355.957,0.000
1606131281.461,73.730,-24.902,-14.648,267.090,0.000
1606131281.465,-106.934,-34.180,-24.902,-200.684,0.000
1606131281.469,-178.223,-35.645,-26.855,-434.570,0.000
1606131281.473,-55.176,-32.715,-20.020,-131.836,0.000
1606131281.477,105.469,-16.113,-20.996,307.129,0.000
1606131281.481,88.379,-20.508,-24.902,307.617,0.000
1606131281.484,-94.238,-42.480,-36.621,-145.020,0.000
1606131281.488,-185.547,-42.480,-39.551,-432.617,0.000
1606131281.492,-72.754,-32.227,-35.156,-191.895,0.000
1606131281.496,92.773,-19.043,-27.344,267.578,0.000
1606131281.500,98.633,-9.766,-26.367,333.984,0.000
1606131281.504,-69.336,-20.020,-34.668,-94.727,0.000
1606131281.508,-192.871,-40.527,-37.109,-431.152,0.000
1606131281.512,-126.953,-34.668,-41.992,-253.418,0.000
1606131281.516,41.992,-14.160,-36.621,217.285,0.000
1606131281.520,81.055,-23.438,-25.879,344.238,0.000
1606131281.523,-72.754,-40.527,-32.227,-51.270,0.000
1606131281.527,-198.242,-45.410,-36.133,-423.340,0.000
1606131281.531,-130.859,-36.133,-36.133,-303.711,0.000
1606131281.535,52.246,-18.555,-33.203,162.109,0.000
1606131281.539,116.211,-12.207,-29.785,367.188,0.000
1606131281.543,-26.855,-24.414,-25.879,25.391,0.000
1606131281.547,-189.453,-42.480,-24.902,-392.578,0.000
1606131281.551,-153.320,-35.645,-30.273,-338.867,0.000
1606131281.555,36.621,-15.625,-20.996,125.000,0.000
1606131281.559,113.281,-24.414,-23.438,363.770,0.000
1606131281.563,-9.277,-38.574,-33.691,76.660,0.000
1606131281.566,-163.086,-51.270,-41.992,-359.375,0.000
1606131281.570,-151.367,-39.062,-35.156,-380.371,0.000
1606131281.574,18.066,-16.113,-15.625,65.918,0.000
1606131281.578,119.141,-17.090,-14.648,366.211,0.000
1606131281.582,21.973,-24.902,-24.414,140.625,0.000
1606131281.586,-144.531,-31.738,-42.480,-314.453,0.000
1606131281.590,-168.457,-34.180,-42.969,-403.320,0.000
1606131281.594,-16.113,-26.367,-30.273,-7.324,0.000
1606131281.598,103.516,-19.043,-25.879,336.914,0.000
1606131281.602,34.668,-20.508,-31.738,194.336,0.000
1606131281.606,-129.395,-35.156,-42.480,-260.254,0.000
1606131281.609,-166.016,-45.898,-42.480,-413.086,0.000
1606131281.613,-9.766,-23.438,-26.855,-49.316,0.000
1606131281.617,134.277,-7.324,-23.438,339.844,0.000
1606131281.621,86.426,-20.996,-24.414,263.184,0.000
1606131281.625,-97.656,-38.086,-35.156,-200.684,0.000
1606131281.629,-174.316,-45.898,-37.109,-416.992,0.000
1606131281.633,-47.852,-28.809,-19.043,-95.703,0.000
1606131281.637,99.609,-16.113,-20.020,323.242,0.000
1606131281.641,70.801,-25.391,-24.414,292.969,0.000
1606131281.645,-103.516,-39.062,-23.926,-164.062,0.000
1606131281.648,-187.500,-48.828,-23.926,-429.199,0.000
1606131281.652,-69.336,-19.531,-24.414,-156.738,0.000
1606131281.656,104.980,17.090,-14.160,295.410,0.000
1606131281.660,102.539,-10.742,-23.438,329.590,0.000
1606131281.664,-73.730,-38.086,-39.551,-104.492,0.000
1606131281.668,-189.453,-41.992,-40.039,-425.293,0.000
1606131281.672,-99.121,-37.598,-33.203,-232.422,0.000
1606131281.676,79.590,-19.531,-20.020,235.840,0.000
1606131281.680,109.375,-11.719,-18.555,348.145,0.000
1606131281.684,-44.434,-22.461,-29.297,-53.223,0.000
1606131281.688,-175.293,-37.598,-33.203,-423.828,0.000
1606131281.691,-115.234,-23.926,-30.273,-292.480,0.000
1606131281.695,61.035,-0.977,-20.508,184.570,0.000
1606131281.699,114.746,-10.742,-17.578,361.816,0.000
1606131281.703,-31.738,-21.973,-37.109,-2.930,0.000
1606131281.707,-179.688,-41.016,-49.316,-414.551,0.000
1606131281.711,-136.230,-32.715,-43.945,-341.797,0.000
1606131281.715,37.598,-10.742,-25.391,134.766,0.000
1606131281.719,104.004,-12.695,-23.438,354.004,0.000
1606131281.723,-21.973,-24.902,-34.668,43.457,0.000
1606131281.727,-170.410,-36.621,-32.227,-372.070,0.000
1606131281.731,-157.227,-42.480,-26.855,-375.488,0.000
1606131281.734,12.695,-24.902,-20.996,69.336,0.000
1606131281.738,114.258,-15.625,-11.719,360.840,0.000
1606131281.742,7.812,-30.273,-27.344,126.465,0.000
1606131281.746,-159.180,-40.039,-42.480,-320.801,0.000
1606131281.750,-166.992,-42.480,-32.715,-395.508,0.000
1606131281.754,-2.930,-36.621,-23.926,23.438,0.000
1606131281.758,109.863,-24.414,-20.996,358.887,0.000
1606131281.762,36.621,-26.367,-22.461,182.129,0.000
1606131281.766,-129.395,-40.527,-29.297,-272.461,0.000
1606131281.770,-163.086,-36.621,-31.250,-403.320,0.000
1606131281.773,-12.207,-22.461,-24.902,-28.320,0.000
1606131281.777,116.699,-18.066,-25.391,333.984,0.000
1606131281.781,59.082,-25.391,-33.691,224.609,0.000
1606131281.785,-116.211,-36.621,-40.527,-225.586,0.000
1606131281.789,-169.922,-41.016,-43.945,-416.504,0.000
1606131281.793,-36.621,-14.160,-38.574,-87.891,0.000
1606131281.797,100.098,5.371,-29.785,318.848,0.000
1606131281.801,66.406,-18.555,-27.832,275.391,0.000
1606131281.805,-106.445,-41.016,-36.133,-177.246,0.000
1606131281.809,-185.059,-46.387,-34.180,-423.340,0.000
1606131281.813,-68.359,-35.156,-28.320,-150.879,0.000
1606131281.816,94.727,-19.531,-15.137,279.297,0.000
1606131281.820,86.914,-18.555,-17.578,303.711,0.000
1606131281.824,-87.891,-32.715,-37.109,-138.672,0.000
1606131281.828,-192.871,-44.922,-35.156,-434.570,0.000
1606131281.832,-94.727,-36.621,-27.344,-202.637,0.000
1606131281.836,83.984,-14.160,-22.949,248.535,0.000
1606131281.840,105.469,-15.137,-21.484,331.543,0.000
1606131281.844,-62.500,-32.227,-28.320,-79.102,0.000
1606131281.848,-182.617,-48.340,-36.621,-433.105,0.000
1606131281.852,-115.723,-31.738,-39.551,-285.645,0.000
1606131281.856,51.270,-7.812,-28.809,183.594,0.000
1606131281.859,100.098,-24.902,-18.066,350.586,0.000
1606131281.863,-39.062,-44.434,-29.785,-20.508,0.000
1606131281.867,-178.223,-48.340,-36.133,-403.320,0.000
1606131281.871,-135.254,-44.922,-27.832,-312.012,0.000
1606131281.875,44.434,-28.809,-17.578,156.738,0.000
1606131281.879,115.234,-15.625,-15.137,377.930,0.000
1606131281.883,-15.625,-23.926,-23.438,50.293,0.000
1606131281.887,-173.828,-39.551,-28.809,-373.535,0.000
1606131281.891,-148.438,-34.668,-32.715,-347.656,0.000
1606131281.895,31.250,-9.766,-31.738,105.957,0.000
1606131281.898,116.699,-10.254,-21.973,371.582,0.000
1606131281.902,0.977,-30.273,-28.809,106.445,0.000
1606131281.906,-165.527,-38.574,-39.551,-340.820,0.000
1606131281.910,-165.039,-42.969,-30.762,-393.555,0.000
1606131281.914,7.324,-35.645,-21.973,40.039,0.000
1606131281.918,115.723,-21.973,-19.043,354.980,0.000
1606131281.922,21.973,-30.273,-22.949,155.762,0.000
1606131281.926,-149.902,-42.480,-26.367,-278.809,0.000
1606131281.930,-172.852,-44.434,-22.461,-381.836,0.000
1606131281.934,-19.531,-17.090,-20.508,4.883,0.000
1606131281.938,106.934,-1.465,-16.113,357.910,0.000
1606131281.941,44.922,-23.926,-16.113,221.680,0.000
1606131281.945,-129.395,-38.086,-26.367,-228.516,0.000
1606131281.949,-176.270,-40.527,-35.645,-389.648,0.000
1606131281.953,-35.156,-26.855,-32.715,-52.734,0.000
1606131281.957,102.539,-16.602,-24.902,329.590,0.000
1606131281.961,58.594,-25.879,-30.273,265.137,0.000
1606131281.965,-111.816,-37.598,-41.992,-186.035,0.000
1606131281.969,-177.734,-41.992,-41.016,-412.109,0.000
1606131281.973,-51.758,-23.438,-22.949,-115.234,0.000
1606131281.977,103.516,-4.883,-12.695,304.688,0.000
1606131281.981,84.473,-18.555,-18.555,302.734,0.000
1606131281.984,-81.055,-26.855,-30.762,-132.812,0.000
1606131281.988,-170.410,-28.809,-30.762,-411.133,0.000
1606131281.992,-74.219,-31.738,-18.066,-173.340,0.000
1606131281.996,87.402,-23.438,-18.066,263.672,0.000
1606131282.000,102.051,-18.555,-25.391,326.172,0.000
1606131282.004,-61.523,-29.297,-35.645,-91.309,0.000
1606131282.008,-169.434,-36.133,-35.156,-411.133,0.000
1606131282.012,-89.355,-31.738,-27.344,-229.980,0.000
1606131282.016,75.684,-19.531,-20.020,225.098,0.000
1606131282.020,117.188,-15.137,-21.973,356.934,0.000
1606131282.023,-26.855,-21.484,-29.785,-15.137,0.000
1606131282.027,-170.410,-31.250,-40.039,-398.438,0.000
1606131282.031,-124.512,-39.062,-42.969,-298.340,0.000
1606131282.035,59.082,-23.438,-29.785,175.781,0.000
1606131282.039,123.047,-17.578,-25.879,372.070,0.000
1606131282.043,-11.719,-29.297,-36.133,35.645,0.000
1606131282.047,-163.086,-35.156,-39.062,-375.977,0.000
1606131282.051,-131.836,-38.086,-33.203,-333.496,0.000
1606131282.055,45.410,-28.809,-18.066,132.812,0.000
1606131282.059,119.141,-22.949,-13.672,383.301,0.000
1606131282.063,-0.488,-32.715,-22.949,94.238,0.000
1606131282.066,-164.551,-46.387,-30.273,-354.492,0.000
1606131282.070,-162.109,-46.387,-28.809,-373.047,0.000
1606131282.074,10.254,-34.668,-17.578,69.336,0.000
1606131282.078,114.258,-25.391,-18.555,364.746,0.000
1606131282.082,15.137,-33.691,-30.273,141.113,0.000
1606131282.086,-152.832,-48.828,-34.668,-307.129,0.000
1606131282.090,-165.527,-45.410,-29.297,-391.113,0.000
1606131282.094,-1.465,-32.227,-20.508,12.207,0.000
1606131282.098,121.094,-25.391,-13.184,359.375,0.000
1606131282.102,49.805,-30.762,-15.137,200.195,0.000
1606131282.106,-130.371,-43.945,-31.738,-270.508,0.000
1606131282.109,-174.805,-46.387,-32.227,-422.852,0.000
1606131282.113,-20.996,-32.227,-15.625,-41.504,0.000
1606131282.117,116.211,-21.973,-10.742,349.609,0.000
1606131282.121,62.500,-26.855,-11.719,250.000,0.000
1606131282.125,-110.840,-37.109,-23.438,-210.938,0.000
1606131282.129,-175.781,-41.016,-33.203,-419.922,0.000
1606131282.133,-45.410,-29.297,-23.926,-106.445,0.000
1606131282.137,105.469,-17.578,-11.719,305.176,0.000
1606131282.141,83.984,-16.113,-9.277,281.738,0.000
1606131282.145,-82.520,-22.461,-15.625,-159.180,0.000
1606131282.148,-166.992,-23.926,-21.484,-423.828,0.000
1606131282.152,-56.641,-18.066,-18.555,-174.316,0.000
1606131282.156,99.121,-13.672,-12.695,256.836,0.000
1606131282.160,94.238,-13.672,-11.230,306.641,0.000
1606131282.164,-61.523,-25.391,-16.602,-106.934,0.000
1606131282.168,-168.457,-42.480,-26.367,-418.945,0.000
1606131282.172,-81.055,-21.484,-27.832,-223.633,0.000
1606131282.176,83.496,-0.488,-21.973,223.145,0.000
1606131282.180,103.027,-15.137,-16.602,327.148,0.000
1606131282.184,-50.781,-28.809,-22.949,-57.129,0.000
1606131282.188,-177.246,-35.645,-26.367,-405.273,0.000
1606131282.191,-110.840,-30.273,-23.438,-274.902,0.000
1606131282.195,69.824,-15.137,-22.949,185.059,0.000
1606131282.199,125.488,-10.254,-16.602,354.492,0.000
1606131282.203,-17.090,-20.020,-27.344,3.906,0.000
1606131282.207,-165.527,-37.109,-40.039,-392.090,0.000
1606131282.211,-131.836,-27.344,-34.180,-315.918,0.000
1606131282.215,38.574,7.812,-28.320,136.230,0.000
1606131282.219,105.957,2.930,-23.926,350.586,0.000
1606131282.223,-18.555,-32.227,-27.832,55.176,0.000
1606131282.227,-166.504,-44.922,-36.133,-354.980,0.000
1606131282.231,-149.902,-35.645,-36.133,-345.215,0.000
1606131282.234,26.367,-25.879,-25.391,94.727,0.000
1606131282.238,126.953,-24.414,-19.531,372.070,0.000
1606131282.242,24.414,-23.438,-23.926,131.348,0.000
1606131282.246,-140.625,-34.668,-30.762,-312.500,0.000
1606131282.250,-151.367,-44.922,-30.762,-380.371,0.000
1606131282.254,8.789,-28.809,-28.320,40.527,0.000
1606131282.258,123.047,-23.926,-20.020,373.535,0.000
1606131282.262,41.016,-30.762,-19.043,191.406,0.000
1606131282.266,-130.371,-37.598,-33.691,-273.926,0.000
1606131282.270,-173.340,-49.805,-38.086,-410.645,0.000
1606131282.273,-29.297,-19.531,-27.832,-27.344,0.000
1606131282.277,109.863,-6.348,-22.461,339.844,0.000
1606131282.281,50.781,-34.180,-20.020,221.680,0.000
1606131282.285,-129.883,-41.504,-28.809,-236.328,0.000
1606131282.289,-188.477,-41.992,-34.668,-431.152,0.000
1606131282.293,-50.293,-30.762,-11.230,-95.703,0.000
1606131282.297,103.027,-17.578,1.465,319.824,0.000
1606131282.301,65.430,-22.461,-14.160,263.184,0.000
1606131282.305,-115.234,-34.668,-26.367,-189.453,0.000
1606131282.309,-188.477,-41.992,-32.715,-425.293,0.000
1606131282.313,-64.941,-31.738,-31.250,-152.344,0.000
1606131282.316,93.262,-11.719,-20.020,270.020,0.000
1606131282.320,83.984,-17.090,-15.137,292.969,0.000
1606131282.324,-83.008,-37.598,-24.902,-131.836,0.000
1606131282.328,-186.035,-44.922,-33.691,-423.340,0.000
1606131282.332,-93.262,-38.086,-26.855,-206.543,0.000
1606131282.336,74.219,-20.508,-7.324,239.258,0.000
1606131282.340,96.680,-17.578,-0.977,320.312,0.000
1606131282.344,-62.500,-34.180,-23.926,-81.543,0.000
1606131282.348,-182.617,-47.852,-40.527,-410.156,0.000
1606131282.352,-106.934,-31.250,-26.367,-250.000,0.000
1606131282.356,60.059,-13.184,-10.742,191.406,0.000
1606131282.359,107.910,-18.066,-7.812,338.379,0.000
1606131282.363,-30.273,-27.344,-19.531,-8.789,0.000
1606131282.367,-172.852,-45.898,-30.762,-386.230,0.000
1606131282.371,-126.953,-39.062,-24.414,-298.340,0.000
1606131282.375,48.828,-24.902,-10.254,163.086,0.000
1606131282.379,113.281,-28.809,-4.395,369.141,0.000
1606131282.383,-12.695,-31.738,-14.648,56.641,0.000
1606131282.387,-155.273,-33.691,-27.344,-347.168,0.000
1606131282.391,-129.395,-36.133,-35.156,-331.055,0.000
1606131282.395,36.621,-22.461,-28.320,109.375,0.000
1606131282.398,124.512,-12.695,-17.090,379.883,0.000
1606131282.402,14.160,-22.949,-25.879,121.582,0.000
1606131282.406,-152.344,-36.133,-34.180,-322.754,0.000
1606131282.410,-148.926,-41.504,-32.227,-365.234,0.000
1606131282.414,16.113,-7.812,-29.297,60.059,0.000
1606131282.418,117.676,5.859,-25.879,370.117,0.000
1606131282.422,32.715,-25.879,-19.043,174.316,0.000
1606131282.426,-136.230,-40.039,-20.508,-282.227,0.000
1606131282.430,-154.297,-43.945,-27.832,-397.949,0.000
1606131282.434,-3.418,-27.832,-22.461,0.977,0.000
1606131282.438,111.816,-12.695,-18.555,362.793,0.000
1606131282.441,55.176,-15.625,-23.926,218.750,0.000
1606131282.445,-120.117,-26.367,-24.902,-247.070,0.000
1606131282.449,-174.316,-35.156,-23.926,-426.758,0.000
1606131282.453,-28.809,-22.461,-24.414,-76.660,0.000
1606131282.457,117.188,-12.695,-16.602,325.195,0.000
1606131282.461,78.613,-20.508,-21.484,255.371,0.000
1606131282.465,-100.586,-30.762,-33.203,-209.961,0.000
1606131282.469,-175.293,-36.133,-35.645,-437.012,0.000
1606131282.473,-47.852,-27.344,-31.738,-135.254,0.000
1606131282.477,107.910,-14.648,-20.996,291.016,0.000
1606131282.481,92.773,-23.438,-18.066,292.969,0.000
1606131282.484,-81.055,-39.062,-28.809,-163.574,0.000
1606131282.488,-175.293,-40.039,-40.039,-445.801,0.000
1606131282.492,-66.895,-6.348,-37.598,-191.406,0.000
1606131282.496,102.051,22.949,-30.762,257.324,0.000
1606131282.500,105.469,-7.812,-31.250,307.617,0.000
1606131282.504,-62.500,-35.156,-34.180,-107.910,0.000
1606131282.508,-175.781,-40.527,-42.480,-431.641,0.000
1606131282.512,-97.656,-33.691,-39.062,-249.023,0.000
1606131282.516,76.172,-20.508,-16.113,227.051,0.000
1606131282.520,109.863,-21.484,-8.789,354.980,0.000
1606131282.523,-48.828,-36.621,-29.297,-28.809,0.000
1606131282.527,-177.734,-48.340,-45.410,-404.785,0.000
1606131282.531,-120.605,-37.109,-43.945,-302.246,0.000
1606131282.535,48.828,-20.996,-34.668,158.691,0.000
1606131282.539,104.980,-16.602,-27.344,348.145,0.000
1606131282.543,-30.762,-25.391,-36.621,19.043,0.000
1606131282.547,-176.270,-45.898,-45.898,-378.418,0.000
1606131282.551,-142.090,-35.645,-33.691,-324.219,0.000
1606131282.555,32.227,0.977,-17.090,129.395,0.000
1606131282.559,115.234,-10.742,-8.789,363.281,0.000
1606131282.563,-0.488,-37.598,-19.043,82.031,0.000
1606131282.566,-153.809,-48.828,-35.645,-339.355,0.000
1606131282.570,-148.926,-45.898,-37.109,-355.957,0.000
1606131282.574,20.020,-35.645,-34.668,64.453,0.000
1606131282.578,113.281,-27.832,-29.297,354.492,0.000
1606131282.582,12.207,-29.297,-27.344,137.207,0.000
1606131282.586,-141.113,-37.109,-28.809,-294.922,0.000
1606131282.590,-159.668,-41.016,-34.180,-375.488,0.000
1606131282.594,-7.324,-11.230,-33.203,8.789,0.000
1606131282.598,114.258,0.488,-27.832,348.633,0.000
1606131282.602,47.363,-32.227,-26.855,192.871,0.000
1606131282.606,-120.117,-50.781,-34.180,-271.484,0.000
1606131282.609,-164.551,-49.805,-37.109,-418.945,0.000
1606131282.613,-21.484,-39.062,-34.180,-56.152,0.000
1606131282.617,119.141,-30.762,-18.555,327.637,0.000
1606131282.621,68.359,-32.227,-18.066,241.699,0.000
1606131282.625,-110.840,-41.992,-30.273,-223.145,0.000
1606131282.629,-174.805,-41.504,-31.738,-427.246,0.000
1606131282.633,-41.504,-13.184,-32.715,-103.516,0.000
1606131282.637,114.258,-6.348,-20.508,306.152,0.000
1606131282.641,87.891,-29.297,-21.484,274.414,0.000
1606131282.645,-85.938,-41.016,-37.598,-177.246,0.000
1606131282.648,-172.852,-48.828,-44.922,-432.617,0.000
1606131282.652,-68.359,-38.086,-35.156,-156.250,0.000
1606131282.656,102.051,-22.461,-20.020,283.203,0.000
1606131282.660,108.887,-29.785,-24.414,320.312,0.000
1606131282.664,-62.500,-45.410,-31.250,-104.492,0.000
1606131282.668,-169.922,-51.758,-36.133,-415.039,0.000
1606131282.672,-90.332,-42.480,-40.039,-214.355,0.000
1606131282.676,75.684,-30.762,-26.367,241.699,0.000
1606131282.680,115.234,-24.414,-17.090,355.469,0.000
1606131282.684,-38.086,-32.227,-31.738,-38.086,0.000
1606131282.688,-173.828,-46.875,-35.645,-398.926,0.000
1606131282.691,-104.492,-23.438,-31.250,-263.672,0.000
1606131282.695,74.219,23.438,-27.832,197.754,0.000
1606131282.699,119.629,3.418,-25.391,365.234,0.000
1606131282.703,-18.555,-30.762,-33.203,8.301,0.000
1606131282.707,-154.297,-40.527,-37.598,-372.070,0.000
1606131282.711,-119.141,-37.598,-34.668,-301.270,0.000
1606131282.715,48.828,-25.391,-21.973,137.207,0.000
1606131282.719,123.535,-22.461,-14.648,369.141,0.000
1606131282.723,-1.465,-25.879,-27.344,77.637,0.000
1606131282.727,-149.902,-38.086,-35.645,-343.262,0.000
1606131282.731,-130.859,-41.504,-37.109,-343.750,0.000
1606131282.734,39.062,-22.461,-28.809,92.285,0.000
1606131282.738,127.930,-22.949,-22.949,369.629,0.000
1606131282.742,21.973,-36.621,-29.297,139.160,0.000
1606131282.746,-136.719,-46.387,-32.715,-294.922,0.000
1606131282.750,-148.438,-46.875,-30.273,-364.258,0.000
1606131282.754,13.184,-27.344,-18.555,45.410,0.000
1606131282.758,123.535,-21.484,-9.277,367.188,0.000
1606131282.762,34.180,-32.715,-13.184,187.500,0.000
1606131282.766,-136.719,-40.527,-18.066,-263.672,0.000
1606131282.770,-156.738,-43.945,-19.531,-390.625,0.000
1606131282.773,-12.695,-19.531,-21.484,-13.184,0.000
1606131282.777,100.586,-5.371,-12.207,350.586,0.000
1606131282.781,46.875,-29.785,-17.090,227.051,0.000
1606131282.785,-123.535,-43.457,-32.227,-235.840,0.000
1606131282.789,-167.969,-36.133,-29.297,-412.598,0.000
1606131282.793,-26.855,-25.879,-19.531,-78.613,0.000
1606131282.797,112.305,-15.625,-12.207,318.359,0.000
1606131282.801,79.102,-22.949,-12.695,274.902,0.000
1606131282.805,-95.703,-40.039,-20.020,-180.176,0.000
1606131282.809,-176.270,-42.969,-22.461,-416.016,0.000
1606131282.813,-60.547,-31.738,-31.738,-139.160,0.000
1606131282.816,95.703,-13.184,-26.855,283.691,0.000
1606131282.820,91.309,-8.789,-21.484,310.547,0.000
1606131282.824,-73.242,-20.508,-27.832,-125.488,0.000
1606131282.828,-174.805,-39.551,-33.691,-418.945,0.000
1606131282.832,-77.637,-10.742,-32.715,-193.359,0.000
1606131282.836,96.191,20.020,-21.973,256.348,0.000
1606131282.840,111.816,-17.090,-16.113,337.402,0.000
1606131282.844,-53.711,-37.598,-23.926,-73.242,0.000
1606131282.848,-174.316,-42.969,-30.762,-416.016,0.000
1606131282.852,-103.027,-32.715,-30.762,-253.418,0.000
1606131282.856,76.172,-18.066,-20.996,211.426,0.000
1606131282.859,118.652,-20.020,-26.367,352.539,0.000
1606131282.863,-38.086,-27.344,-35.645,-16.113,0.000
1606131282.867,-176.270,-37.598,-41.992,-388.672,0.000
1606131282.871,-131.348,-38.086,-42.480,-304.199,0.000
1606131282.875,30.762,-12.695,-30.273,146.973,0.000
1606131282.879,98.145,-11.230,-29.785,354.980,0.000
1606131282.883,-20.996,-35.156,-33.691,38.086,0.000
1606131282.887,-160.156,-41.992,-35.156,-365.723,0.000
1606131282.891,-122.070,-39.551,-36.621,-327.148,0.000
1606131282.895,51.758,-30.273,-20.996,117.188,0.000
1606131282.898,117.188,-29.297,-4.395,361.816,0.000
1606131282.902,-9.277,-36.621,-12.695,86.426,0.000
1606131282.906,-164.551,-44.922,-25.879,-339.355,0.000
1606131282.910,-158.691,-40.527,-20.996,-373.047,0.000
1606131282.914,2.930,-13.672,-12.207,43.945,0.000
1606131282.918,107.910,-12.695,-7.324,348.145,0.000
1606131282.922,24.902,-25.879,-6.836,149.414,0.000
1606131282.926,-138.184,-41.504,-18.066,-292.480,0.000
1606131282.930,-164.062,-47.852,-22.461,-391.113,0.000
1606131282.934,-13.672,-27.344,-19.531,-11.719,0.000
1606131282.938,108.398,-20.020,-10.742,327.148,0.000
1606131282.941,46.875,-33.203,-15.137,198.242,0.000
1606131282.945,-119.629,-46.875,-29.297,-237.305,0.000
1606131282.949,-166.992,-40.039,-30.273,-395.508,0.000
1606131282.953,-34.668,-25.879,-23.926,-66.895,0.000
1606131282.957,100.586,-17.578,-18.066,320.312,0.000
1606131282.961,64.453,-20.508,-12.207,262.695,0.000
1606131282.965,-102.539,-34.668,-20.996,-189.453,0.000
1606131282.969,-173.828,-44.434,-37.109,-422.363,0.000
1606131282.973,-51.270,-25.391,-37.109,-131.348,0.000
1606131282.977,100.586,-6.836,-24.902,285.645,0.000
1606131282.981,86.426,-27.832,-22.461,282.715,0.000
1606131282.984,-84.473,-48.828,-31.738,-153.809,0.000
1606131282.988,-179.199,-52.734,-32.227,-426.758,0.000
1606131282.992,-75.195,-39.062,-23.926,-181.641,0.000
1606131282.996,88.867,-15.137,-10.254,260.254,0.000
1606131283.000,99.121,-12.207,-10.742,314.453,0.000
1606131283.004,-61.035,-29.297,-26.855,-92.285,0.000
1606131283.008,-175.781,-39.062,-36.621,-402.344,0.000
1606131283.012,-102.051,-15.137,-28.320,-228.516,0.000
1606131283.016,70.312,6.836,-20.508,220.703,0.000
1606131283.020,106.445,-22.461,-16.113,353.516,0.000
1606131283.023,-48.340,-42.969,-22.949,-27.344,0.000
1606131283.027,-176.270,-49.316,-31.738,-405.273,0.000
1606131283.031,-111.328,-35.645,-23.438,-285.645,0.000
1606131283.035,64.453,-23.438,-12.695,180.176,0.000
1606131283.039,118.164,-24.414,-24.414,368.164,0.000
1606131283.043,-14.648,-30.273,-34.180,31.250,0.000
1606131283.047,-160.156,-48.340,-32.715,-378.906,0.000
1606131283.051,-131.836,-40.527,-34.668,-328.613,0.000
1606131283.055,44.434,-9.277,-26.855,129.395,0.000
1606131283.059,122.559,-14.160,-26.855,372.070,0.000
1606131283.063,-3.418,-37.598,-34.180,85.449,0.000
1606131283.066,-159.180,-48.340,-41.016,-342.285,0.000
1606131283.070,-139.160,-37.598,-37.109,-355.957,0.000
1606131283.074,31.738,-11.719,-22.949,73.242,0.000
1606131283.078,129.883,-9.766,-19.531,364.258,0.000
1606131283.082,32.715,-20.020,-30.273,149.414,0.000
1606131283.086,-134.766,-32.715,-36.621,-296.875,0.000
1606131283.090,-151.855,-40.527,-25.879,-392.090,0.000
1606131283.094,2.930,-30.273,-19.531,-0.488,0.000
1606131283.098,117.188,-25.391,-28.809,336.426,0.000
1606131283.102,41.504,-30.273,-33.691,184.082,0.000
1606131283.106,-127.930,-46.875,-41.992,-268.555,0.000
1606131283.109,-164.062,-54.199,-44.434,-412.109,0.000
1606131283.113,-27.344,-24.414,-35.645,-53.223,0.000
1606131283.117,104.980,-14.160,-25.391,324.707,0.000
1606131283.121,59.570,-36.621,-30.273,238.281,0.000
1606131283.125,-111.816,-44.922,-41.504,-211.914,0.000
1606131283.129,-174.805,-47.852,-40.039,-413.574,0.000
1606131283.133,-54.199,-38.086,-32.227,-108.398,0.000
1606131283.137,94.727,-18.066,-23.926,297.363,0.000
1606131283.141,77.637,-20.020,-28.320,282.227,0.000
1606131283.145,-95.215,-38.574,-44.922,-158.203,0.000
1606131283.148,-174.316,-43.457,-44.434,-414.062,0.000
1606131283.152,-67.383,-18.066,-32.715,-152.832,0.000
1606131283.156,82.031,-8.789,-21.484,269.043,0.000
1606131283.160,86.426,-28.809,-16.602,311.035,0.000
1606131283.164,-75.195,-37.598,-24.902,-100.586,0.000
1606131283.168,-182.129,-49.316,-31.250,-411.621,0.000
1606131283.172,-92.285,-23.926,-32.227,-220.215,0.000
1606131283.176,80.078,-4.883,-23.926,224.121,0.000
1606131283.180,104.980,-28.320,-16.602,333.984,0.000
1606131283.184,-48.340,-33.203,-27.832,-52.246,0.000
1606131283.188,-171.387,-39.551,-37.598,-413.574,0.000
1606131283.191,-107.422,-25.879,-34.180,-277.344,0.000
1606131283.195,74.707,2.441,-24.902,189.941,0.000
1606131283.199,128.906,-7.324,-16.113,358.398,0.000
1606131283.203,-20.020,-29.785,-27.832,9.277,0.000
1606131283.207,-161.133,-35.156,-33.203,-386.719,0.000
1606131283.211,-111.816,-31.250,-27.344,-314.453,0.000
1606131283.215,71.289,-26.855,-18.066,149.414,0.000
1606131283.219,143.555,-11.719,-9.277,382.324,0.000
1606131283.223,16.602,-14.160,-15.137,80.566,0.000
1606131283.227,-136.719,-34.668,-38.574,-351.074,0.000
1606131283.231,-124.023,-41.016,-43.945,-350.098,0.000
1606131283.234,45.898,-32.227,-22.949,90.820,0.000
1606131283.238,141.602,-20.996,-13.184,378.906,0.000
1606131283.242,32.227,-24.902,-17.090,143.066,0.000
1606131283.246,-133.789,-35.645,-23.438,-306.641,0.000
1606131283.250,-137.207,-38.574,-17.578,-371.094,0.000
1606131283.254,26.367,-6.836,-14.648,35.156,0.000
1606131283.258,131.836,5.371,-20.996,355.957,0.000
1606131283.262,41.504,-26.855,-27.832,184.570,0.000
1606131283.266,-133.789,-43.945,-29.297,-270.508,0.000
1606131283.270,-166.504,-40.527,-31.250,-395.508,0.000
1606131283.273,-14.160,-25.391,-24.902,-14.648,0.000
1606131283.277,115.723,-20.020,-14.648,347.656,0.000
1606131283.281,57.617,-32.715,-22.949,230.957,0.000
1606131283.285,-120.605,-45.898,-35.645,-230.469,0.000
1606131283.289,-176.270,-47.363,-33.203,-414.551,0.000
1606131283.293,-43.945,-19.043,-20.508,-83.984,0.000
1606131283.297,99.121,-6.348,-14.648,312.500,0.000
1606131283.301,74.707,-27.832,-17.090,264.648,0.000
1606131283.305,-97.656,-41.992,-32.227,-171.387,0.000
1606131283.309,-181.152,-55.176,-38.574,-412.598,0.000
1606131283.313,-66.895,-46.387,-22.461,-148.438,0.000
1606131283.316,89.844,-26.367,-18.066,274.414,0.000
1606131283.320,83.008,-25.879,-26.367,300.293,0.000
1606131283.324,-83.984,-42.480,-31.250,-120.117,0.000
1606131283.328,-180.176,-50.781,-35.156,-425.781,0.000
1606131283.332,-79.102,-33.203,-23.926,-203.613,0.000
1606131283.336,89.844,-15.625,-14.160,252.930,0.000
1606131283.340,100.586,-23.438,-14.160,325.684,0.000
1606131283.344,-62.012,-36.133,-26.855,-77.148,0.000
1606131283.348,-183.105,-45.410,-34.180,-419.922,0.000
1606131283.352,-108.398,-36.621,-25.879,-267.090,0.000
1606131283.356,63.965,-15.137,-22.461,188.965,0.000
1606131283.359,101.074,-9.277,-23.438,337.891,0.000
1606131283.363,-38.574,-26.367,-33.203,-19.043,0.000
1606131283.367,-166.016,-43.457,-38.086,-395.996,0.000
1606131283.371,-104.980,-32.715,-30.762,-302.734,0.000
1606131283.375,76.660,-17.090,-17.090,156.250,0.000
1606131283.379,136.230,-14.160,-17.578,361.328,0.000
1606131283.383,4.883,-22.461,-24.902,57.617,0.000
1606131283.387,-151.855,-42.969,-33.203,-349.121,0.000
1606131283.391,-131.348,-41.992,-40.039,-341.309,0.000
1606131283.395,46.387,-6.836,-30.273,111.328,0.000
1606131283.398,137.207,-2.441,-19.531,376.953,0.000
1606131283.402,19.043,-22.461,-25.391,101.562,0.000
1606131283.406,-150.879,-39.551,-33.691,-340.332,0.000
1606131283.410,-148.438,-43.945,-36.621,-386.719,0.000
1606131283.414,23.438,-29.785,-33.203,43.457,0.000
1606131283.418,132.324,-17.090,-25.391,358.887,0.000
1606131283.422,41.016,-20.996,-29.297,153.320,0.000
1606131283.426,-128.906,-31.738,-34.180,-297.363,0.000
1606131283.430,-155.273,-37.598,-27.344,-394.531,0.000
1606131283.434,1.465,-12.695,-25.391,1.465,0.000
1606131283.438,126.953,5.371,-25.879,345.703,0.000
1606131283.441,44.434,-27.832,-21.973,203.125,0.000
1606131283.445,-133.789,-44.922,-25.391,-258.301,0.000
1606131283.449,-178.223,-40.527,-24.902,-427.734,0.000
1606131283.453,-35.156,-26.855,-17.578,-77.637,0.000
1606131283.457,101.562,-18.066,-13.184,312.012,0.000
1606131283.461,59.082,-20.020,-19.043,239.258,0.000
1606131283.465,-113.770,-31.738,-26.855,-209.961,0.000
1606131283.469,-189.941,-49.316,-27.832,-436.523,0.000
1606131283.473,-64.453,-36.621,-25.391,-128.418,0.000
1606131283.477,99.121,-19.043,-20.996,308.105,0.000
1606131283.481,82.031,-31.250,-24.902,292.480,0.000
1606131283.484,-98.633,-45.898,-35.645,-154.785,0.000
1606131283.488,-188.477,-47.852,-26.855,-428.223,0.000
1606131283.492,-79.590,-19.043,-16.602,-186.523,0.000
1606131283.496,79.590,-7.812,-15.137,247.070,0.000
1606131283.500,85.449,-27.344,-16.602,309.570,0.000
1606131283.504,-78.613,-35.156,-25.391,-93.262,0.000
1606131283.508,-184.570,-36.621,-26.367,-408.691,0.000
1606131283.512,-100.098,-30.273,-27.344,-231.934,0.000
1606131283.516,74.219,-21.484,-20.996,217.773,0.000
1606131283.520,110.840,-24.414,-11.230,343.750,0.000
1606131283.523,-41.504,-30.762,-23.926,-18.066,0.000
1606131283.527,-170.410,-37.109,-33.691,-382.812,0.000
1606131283.531,-117.188,-34.180,-28.320,-285.645,0.000
1606131283.535,55.176,6.836,-19.531,170.898,0.000
1606131283.539,115.234,2.930,-14.160,362.305,0.000
1606131283.543,-17.578,-34.180,-21.973,32.227,0.000
1606131283.547,-157.227,-41.016,-28.809,-370.117,0.000
1606131283.551,-125.000,-34.668,-24.414,-326.660,0.000
1606131283.555,53.711,-22.949,-19.043,123.047,0.000
1606131283.559,138.672,-15.625,-17.578,367.188,0.000
1606131283.563,12.695,-21.973,-32.227,90.820,0.000
1606131283.566,-154.297,-37.598,-50.293,-344.238,0.000
1606131283.570,-141.113,-42.480,-47.852,-365.234,0.000
1606131283.574,32.227,-20.996,-34.668,60.547,0.000
1606131283.578,129.395,-19.043,-28.809,352.051,0.000
1606131283.582,32.227,-37.109,-30.273,140.625,0.000
1606131283.586,-135.742,-44.922,-36.133,-302.246,0.000
1606131283.590,-156.250,-41.992,-34.180,-391.602,0.000
1606131283.594,8.789,-23.438,-28.320,7.812,0.000
1606131283.598,138.672,-18.066,-15.625,354.980,0.000
1606131283.602,62.012,-29.297,-16.113,190.918,0.000
1606131283.606,-118.652,-42.969,-37.598,-274.902,0.000
1606131283.609,-163.574,-44.922,-41.504,-421.875,0.000
1606131283.613,-16.602,-28.809,-28.320,-48.828,0.000
1606131283.617,125.977,-19.043,-19.043,342.285,0.000
1606131283.621,75.684,-20.996,-22.949,246.094,0.000
1606131283.625,-109.375,-29.297,-34.668,-225.098,0.000
1606131283.629,-176.270,-40.039,-39.551,-437.988,0.000
1606131283.633,-44.922,-15.137,-32.715,-120.117,0.000
1606131283.637,110.840,8.789,-18.555,305.176,0.000
1606131283.641,89.355,-15.137,-14.160,283.691,0.000
1606131283.645,-89.355,-32.715,-26.855,-167.969,0.000
1606131283.648,-178.223,-39.062,-29.297,-423.828,0.000
1606131283.652,-70.801,-30.762,-24.902,-160.156,0.000
1606131283.656,91.797,-14.160,-18.066,279.297,0.000
1606131283.660,90.332,-15.625,-15.625,317.871,0.000
1606131283.664,-77.637,-34.180,-26.367,-104.492,0.000
1606131283.668,-179.688,-48.828,-34.180,-405.762,0.000
1606131283.672,-89.844,-33.203,-34.180,-210.449,0.000
1606131283.676,82.031,-7.812,-19.043,238.281,0.000
1606131283.680,114.746,-6.836,-8.301,354.492,0.000
1606131283.684,-46.875,-20.996,-26.367,-32.227,0.000
1606131283.688,-180.664,-38.574,-39.062,-385.742,0.000
1606131283.691,-115.723,-35.645,-30.273,-248.047,0.000
1606131283.695,62.012,-22.461,-24.414,202.637,0.000
1606131283.699,111.816,-23.438,-16.113,366.699,0.000
1606131283.703,-22.461,-36.621,-20.996,35.645,0.000
1606131283.707,-149.902,-47.363,-31.738,-344.727,0.000
1606131283.711,-111.328,-39.551,-22.949,-271.973,0.000
1606131283.715,59.082,-12.207,-16.113,179.688,0.000
1606131283.719,132.812,-10.254,-14.648,388.184,0.000
1606131283.723,5.859,-34.668,-28.320,84.473,0.000
1606131283.727,-145.508,-42.480,-33.691,-317.383,0.000
1606131283.731,-130.371,-41.016,-28.320,-312.988,0.000
1606131283.734,40.527,-32.227,-21.484,113.281,0.000
1606131283.738,133.301,-22.949,-20.020,391.602,0.000
1606131283.742,22.949,-30.273,-34.668,142.578,0.000
1606131283.746,-134.277,-47.852,-39.062,-294.922,0.000
1606131283.750,-140.137,-49.805,-38.086,-342.773,0.000
1606131283.754,20.020,-31.738,-31.738,59.082,0.000
1606131283.758,125.977,-26.855,-22.949,373.047,0.000
1606131283.762,45.898,-36.621,-35.156,190.918,0.000
1606131283.766,-125.000,-43.945,-41.992,-266.602,0.000
1606131283.770,-178.711,-45.410,-34.668,-401.367,0.000
1606131283.773,-22.461,-20.508,-29.785,-16.602,0.000
1606131283.777,121.582,-9.766,-23.438,360.840,0.000
1606131283.781,58.105,-30.273,-20.020,249.512,0.000
1606131283.785,-123.535,-47.363,-32.227,-220.703,0.000
1606131283.789,-179.688,-51.270,-40.039,-416.016,0.000
1606131283.793,-36.621,-40.039,-26.367,-76.660,0.000
1606131283.797,115.234,-25.391,-19.531,320.801,0.000
1606131283.801,85.938,-27.344,-20.020,280.762,0.000
1606131283.805,-92.773,-36.621,-22.949,-158.691,0.000
1606131283.809,-178.711,-43.457,-25.879,-407.227,0.000
1606131283.813,-54.688,-28.809,-21.484,-129.883,0.000
1606131283.816,104.492,-0.977,-16.602,301.758,0.000
1606131283.820,88.379,-19.531,-13.184,318.848,0.000
1606131283.824,-86.426,-44.922,-20.508,-119.629,0.000
1606131283.828,-187.500,-44.922,-32.715,-419.434,0.000
1606131283.832,-85.938,-33.691,-34.668,-200.684,0.000
1606131283.836,87.891,-27.344,-19.043,251.953,0.000
1606131283.840,106.934,-20.508,-10.742,340.332,0.000
1606131283.844,-61.523,-27.832,-26.855,-66.895,0.000
1606131283.848,-187.988,-43.945,-32.227,-415.039,0.000
1606131283.852,-111.816,-32.227,-27.832,-258.301,0.000
1606131283.856,60.059,-14.648,-22.461,197.754,0.000
1606131283.859,94.238,-29.785,-21.484,344.238,0.000
1606131283.863,-50.293,-49.316,-29.785,-16.602,0.000
1606131283.867,-174.805,-47.852,-25.879,-385.742,0.000
1606131283.871,-119.141,-44.434,-28.320,-299.805,0.000
1606131283.875,51.758,-35.156,-27.832,146.973,0.000
1606131283.879,115.234,-20.996,-15.137,346.680,0.000
1606131283.883,-13.672,-27.344,-24.414,28.809,0.000
1606131283.887,-163.086,-44.434,-37.598,-371.094,0.000
1606131283.891,-138.672,-44.434,-40.527,-348.145,0.000
1606131283.895,31.738,-28.320,-28.320,100.098,0.000
1606131283.898,125.488,-20.508,-16.113,371.094,0.000
1606131283.902,20.020,-28.320,-22.461,106.934,0.000
1606131283.906,-144.531,-38.574,-37.598,-332.520,0.000
1606131283.910,-147.461,-38.574,-40.527,-374.512,0.000
1606131283.914,19.531,-13.184,-24.414,57.129,0.000
1606131283.918,131.348,9.277,-13.672,376.953,0.000
1606131283.922,43.457,-14.160,-21.484,177.734,0.000
1606131283.926,-131.348,-42.969,-32.715,-270.508,0.000
1606131283.930,-157.227,-45.898,-29.297,-379.395,0.000
1606131283.934,-4.883,-36.133,-17.578,-0.488,0.000
1606131283.938,115.234,-31.250,-16.113,352.051,0.000
1606131283.941,54.688,-28.809,-20.508,226.074,0.000
1606131283.945,-120.117,-39.062,-31.250,-229.492,0.000
1606131283.949,-179.199,-53.711,-38.086,-410.645,0.000
1606131283.953,-40.039,-27.832,-27.344,-68.359,0.000
1606131283.957,105.957,-7.324,-18.066,329.102,0.000
1606131283.961,71.777,-20.508,-20.996,267.578,0.000
1606131283.965,-106.445,-34.180,-29.297,-187.988,0.000
1606131283.969,-190.918,-44.922,-37.598,-423.828,0.000
1606131283.973,-62.500,-37.598,-29.297,-123.047,0.000
1606131283.977,97.168,-27.832,-15.625,304.199,0.000
1606131283.981,85.938,-31.738,-19.043,298.828,0.000
1606131283.984,-88.379,-42.480,-35.156,-149.902,0.000
1606131283.988,-180.664,-51.270,-39.062,-439.941,0.000
1606131283.992,-64.941,-20.020,-39.551,-201.172,0.000
1606131283.996,95.215,15.625,-29.297,249.023,0.000
1606131284.000,104.004,-15.625,-17.090,311.035,0.000
1606131284.004,-66.406,-40.527,-36.621,-114.258,0.000
1606131284.008,-188.477,-41.992,-47.363,-440.918,0.000
1606131284.012,-101.562,-39.062,-38.086,-259.277,0.000
1606131284.016,74.707,-29.297,-21.973,197.754,0.000
1606131284.020,104.004,-21.484,-26.855,322.754,0.000
1606131284.023,-50.781,-33.691,-38.574,-56.152,0.000
1606131284.027,-179.688,-47.852,-39.551,-419.922,0.000
1606131284.031,-124.023,-42.480,-33.691,-302.246,0.000
1606131284.035,52.734,-29.785,-18.555,177.734,0.000
1606131284.039,113.770,-26.855,-17.090,364.746,0.000
1606131284.043,-32.227,-42.969,-33.203,7.812,0.000
1606131284.047,-193.848,-56.641,-44.434,-405.762,0.000
1606131284.051,-166.992,-40.527,-36.621,-355.957,0.000
1606131284.055,10.254,-14.648,-20.996,98.145,0.000
1606131284.059,86.914,-12.695,-16.113,333.496,0.000
1606131284.063,-28.320,-23.926,-24.414,58.594,0.000
1606131284.066,-185.547,-34.668,-28.809,-365.234,0.000
1606131284.070,-197.754,-35.156,-19.043,-403.809,0.000
1606131284.074,-36.621,-20.996,-7.812,17.578,0.000
1606131284.078,66.895,-16.113,0.000,312.988,0.000
1606131284.082,-26.367,-24.902,-3.906,100.586,0.000
1606131284.086,-189.941,-32.227,-17.578,-338.379,0.000
1606131284.090,-210.449,-34.668,-20.020,-433.105,0.000
1606131284.094,-67.383,-23.438,-15.137,-44.434,0.000
1606131284.098,45.410,-15.625,-8.789,291.992,0.000
1606131284.102,-18.555,-23.438,-9.766,145.508,0.000
1606131284.106,-185.547,-31.738,-20.020,-301.270,0.000
1606131284.109,-217.773,-33.203,-26.367,-446.777,0.000
1606131284.113,-69.336,-25.391,-23.926,-88.379,0.000
1606131284.117,68.359,-17.090,-11.719,300.781,0.000
1606131284.121,29.297,-21.484,-11.719,221.191,0.000
1606131284.125,-144.043,-30.273,-20.508,-232.910,0.000
1606131284.129,-210.449,-33.203,-21.484,-436.035,0.000
1606131284.133,-75.195,-6.836,-15.137,-121.094,0.000
1606131284.137,88.867,3.418,-18.555,281.738,0.000
1606131284.141,72.266,-18.066,-30.273,249.512,0.000
1606131284.145,-98.145,-30.762,-34.668,-185.547,0.000
1606131284.148,-180.176,-41.504,-38.086,-434.082,0.000
1606131284.152,-65.918,-30.762,-34.180,-163.086,0.000
1606131284.156,97.168,-17.090,-29.297,281.738,0.000
1606131284.160,102.539,-20.508,-25.391,329.590,0.000
1606131284.164,-62.500,-31.738,-26.855,-91.309,0.000
1606131284.168,-166.016,-34.668,-30.762,-402.344,0.000
1606131284.172,-74.219,-30.762,-31.250,-200.195,0.000
1606131284.176,103.027,-19.531,-32.227,259.277,0.000
1606131284.180,132.812,-10.742,-29.297,374.512,0.000
1606131284.184,-26.367,-22.461,-35.645,-23.926,0.000
1606131284.188,-152.832,-38.086,-44.434,-392.090,0.000
1606131284.191,-91.797,-33.691,-36.133,-255.859,0.000
1606131284.195,85.449,-6.348,-29.297,211.426,0.000
1606131284.199,136.719,-11.719,-26.855,382.812,0.000
1606131284.203,-6.348,-31.738,-26.855,24.414,0.000
1606131284.207,-156.738,-35.645,-37.598,-371.094,0.000
1606131284.211,-122.559,-33.691,-37.109,-295.898,0.000
1606131284.215,62.012,-21.484,-22.949,163.086,0.000
1606131284.219,137.695,-16.113,-21.484,389.160,0.000
1606131284.223,20.508,-24.902,-26.855,89.355,0.000
1606131284.227,-128.418,-35.645,-30.273,-330.078,0.000
1606131284.231,-127.441,-35.645,-26.855,-333.008,0.000
1606131284.234,48.340,-20.020,-24.902,105.957,0.000
1606131284.238,146.973,-11.719,-22.949,379.883,0.000
1606131284.242,34.668,-22.949,-27.832,135.254,0.000
1606131284.246,-133.301,-37.109,-43.945,-308.105,0.000
1606131284.250,-141.113,-39.062,-42.969,-376.953,0.000
1606131284.254,26.367,-23.438,-31.250,31.738,0.000
1606131284.258,135.742,-15.625,-32.227,354.492,0.000
1606131284.262,48.828,-26.367,-39.551,179.199,0.000
1606131284.266,-123.535,-38.574,-39.551,-268.555,0.000
1606131284.270,-156.738,-38.574,-25.879,-385.742,0.000
1606131284.273,-2.930,-13.672,-20.020,-11.230,0.000
1606131284.277,120.117,-7.812,-20.996,341.797,0.000
1606131284.281,59.082,-29.297,-22.461,223.633,0.000
1606131284.285,-111.328,-41.992,-36.621,-223.633,0.000
1606131284.289,-164.062,-40.039,-41.504,-396.973,0.000
1606131284.293,-27.344,-26.855,-29.785,-68.359,0.000
1606131284.297,115.723,-19.043,-23.438,327.148,0.000
1606131284.301,83.008,-25.879,-25.391,282.715,0.000
1606131284.305,-82.520,-32.715,-28.320,-164.062,0.000
1606131284.309,-159.180,-33.691,-26.367,-416.504,0.000
1606131284.313,-53.223,-33.691,-22.461,-151.367,0.000
1606131284.316,112.305,-20.508,-14.648,281.250,0.000
1606131284.320,109.375,-19.531,-15.625,305.664,0.000
1606131284.324,-65.430,-37.109,-32.227,-124.023,0.000
1606131284.328,-165.039,-46.875,-36.621,-418.945,0.000
1606131284.332,-69.824,-13.672,-27.344,-203.613,0.000
1606131284.336,91.797,17.090,-19.043,244.629,0.000
1606131284.340,107.422,-5.859,-23.926,328.613,0.000
1606131284.344,-54.199,-30.273,-30.273,-73.242,0.000
1606131284.348,-168.945,-35.156,-29.297,-405.273,0.000
1606131284.352,-96.680,-25.391,-33.691,-250.977,0.000
1606131284.356,77.148,-18.555,-19.531,206.055,0.000
1606131284.359,126.953,-16.113,-11.230,362.793,0.000
1606131284.363,-22.949,-26.855,-32.715,3.418,0.000
1606131284.367,-166.016,-40.527,-36.133,-372.559,0.000
1606131284.371,-113.281,-33.203,-31.738,-286.133,0.000
1606131284.375,62.500,11.230,-32.715,163.574,0.000
1606131284.379,123.535,4.395,-31.250,369.629,0.000
1606131284.383,-11.230,-40.527,-36.133,49.805,0.000
1606131284.387,-170.898,-55.664,-42.969,-366.211,0.000
1606131284.391,-147.461,-51.758,-40.039,-331.543,0.000
1606131284.395,29.785,-34.180,-18.555,120.605,0.000
1606131284.398,128.418,-23.926,-11.719,382.324,0.000
1606131284.402,4.883,-34.668,-33.691,118.164,0.000
1606131284.406,-174.805,-52.734,-44.434,-322.266,0.000
1606131284.410,-173.340,-52.246,-37.109,-365.234,0.000
1606131284.414,-2.441,-28.320,-29.297,51.758,0.000
1606131284.418,109.375,-17.578,-24.902,354.004,0.000
1606131284.422,25.879,-29.297,-24.414,155.762,0.000
1606131284.426,-144.531,-45.898,-30.762,-295.898,0.000
1606131284.430,-163.086,-44.922,-25.391,-399.414,0.000
1606131284.434,1.953,-30.273,-3.906,2.930,0.000
1606131284.438,126.953,-19.531,0.977,361.328,0.000
1606131284.441,53.711,-22.949,-19.043,220.703,0.000
1606131284.445,-120.117,-32.715,-35.156,-233.398,0.000
1606131284.449,-165.039,-34.180,-39.551,-392.090,0.000
1606131284.453,-21.973,-29.785,-36.133,-47.852,0.000
1606131284.457,124.023,-21.484,-27.344,337.402,0.000
1606131284.461,91.309,-20.996,-23.438,271.484,0.000
1606131284.465,-83.008,-31.738,-30.762,-174.805,0.000
1606131284.469,-160.645,-49.316,-28.320,-397.949,0.000
1606131284.473,-39.551,-18.066,-16.113,-100.586,0.000
1606131284.477,113.281,20.020,-21.484,317.383,0.000
1606131284.481,97.168,-11.719,-30.273,307.617,0.000
1606131284.484,-78.125,-35.156,-33.203,-135.742,0.000
1606131284.488,-177.734,-42.969,-38.574,-413.086,0.000
1606131284.492,-76.172,-38.574,-35.645,-167.480,0.000
1606131284.496,93.750,-22.461,-22.949,268.555,0.000
1606131284.500,105.957,-20.508,-16.602,330.566,0.000
1606131284.504,-61.523,-30.273,-23.438,-73.730,0.000
1606131284.508,-175.781,-39.062,-22.949,-395.996,0.000
1606131284.512,-87.402,-24.414,-18.555,-228.516,0.000
1606131284.516,85.938,-6.836,-20.508,218.262,0.000
1606131284.520,115.723,-20.508,-20.020,339.844,0.000
1606131284.523,-34.668,-31.738,-23.926,-32.715,0.000
1606131284.527,-171.387,-41.992,-29.785,-400.391,0.000
1606131284.531,-107.910,-37.109,-30.273,-274.414,0.000
1606131284.535,74.707,-18.555,-21.484,192.383,0.000
1606131284.539,125.488,-12.695,-13.672,366.211,0.000
1606131284.543,-12.207,-22.461,-19.043,32.227,0.000
1606131284.547,-165.527,-34.668,-31.738,-385.742,0.000
1606131284.551,-127.930,-35.645,-38.086,-329.102,0.000
1606131284.555,52.734,-19.531,-25.391,131.836,0.000
1606131284.559,127.930,-15.137,-18.066,353.516,0.000
1606131284.563,4.395,-30.273,-24.414,74.707,0.000
1606131284.566,-162.598,-44.434,-31.250,-357.422,0.000
1606131284.570,-152.344,-36.621,-28.320,-375.000,0.000
1606131284.574,28.809,-13.672,-11.230,69.336,0.000
1606131284.578,130.371,-15.137,-6.836,370.117,0.000
1606131284.582,25.391,-33.691,-17.090,144.043,0.000
1606131284.586,-150.879,-45.898,-30.273,-311.523,0.000
1606131284.590,-173.340,-41.016,-41.016,-401.855,0.000
1606131284.594,-3.906,-22.949,-25.391,12.695,0.000
1606131284.598,121.094,-16.113,-6.348,361.816,0.000
1606131284.602,43.457,-17.578,-16.602,201.172,0.000
1606131284.606,-126.953,-29.297,-28.809,-256.836,0.000
1606131284.609,-171.875,-43.457,-29.297,-411.133,0.000
1606131284.613,-26.367,-14.648,-22.461,-53.223,0.000
1606131284.617,115.723,0.000,-15.137,332.031,0.000
1606131284.621,69.336,-24.414,-12.207,238.281,0.000
1606131284.625,-110.352,-35.156,-24.902,-223.633,0.000
1606131284.629,-190.430,-40.039,-36.621,-428.223,0.000
1606131284.633,-58.594,-29.785,-28.320,-110.840,0.000
1606131284.637,101.562,-18.555,-22.949,294.434,0.000
1606131284.641,75.195,-20.996,-25.391,268.066,0.000
1606131284.645,-103.516,-32.227,-31.738,-171.875,0.000
1606131284.648,-189.453,-46.875,-35.156,-424.805,0.000
1606131284.652,-75.684,-32.715,-25.391,-163.574,0.000
1606131284.656,81.055,-0.977,-19.531,263.184,0.000
1606131284.660,83.984,-10.742,-14.160,309.570,0.000
1606131284.664,-79.102,-34.180,-25.879,-104.980,0.000
1606131284.668,-185.547,-43.945,-41.016,-412.598,0.000
1606131284.672,-94.727,-41.992,-34.668,-210.449,0.000
1606131284.676,76.172,-24.902,-16.602,238.281,0.000
1606131284.680,100.098,-18.066,-13.184,337.891,0.000
1606131284.684,-57.617,-35.156,-26.367,-47.363,0.000
1606131284.688,-178.711,-50.293,-28.809,-390.137,0.000
1606131284.691,-112.305,-31.250,-27.832,-259.766,0.000
1606131284.695,67.871,-9.766,-18.555,183.105,0.000
1606131284.699,118.164,-19.531,-17.578,346.680,0.000
1606131284.703,-28.320,-33.691,-23.926,19.531,0.000
1606131284.707,-162.109,-47.363,-30.273,-359.863,0.000
1606131284.711,-122.070,-41.504,-36.133,-298.340,0.000
1606131284.715,50.293,-25.391,-25.391,139.160,0.000
1606131284.719,127.441,-21.973,-18.066,359.863,0.000
1606131284.723,0.000,-32.715,-30.273,76.660,0.000
1606131284.727,-150.879,-43.457,-35.645,-326.660,0.000
1606131284.731,-130.859,-42.480,-25.879,-322.754,0.000
1606131284.734,36.133,-33.691,-22.949,106.445,0.000
1606131284.738,131.836,-25.879,-20.996,377.441,0.000
1606131284.742,33.691,-27.832,-19.043,141.602,0.000
1606131284.746,-137.695,-43.457,-30.273,-300.293,0.000
1606131284.750,-155.273,-57.129,-40.527,-377.930,0.000
1606131284.754,11.719,-21.973,-27.344,35.645,0.000
1606131284.758,132.812,7.324,-12.695,370.605,0.000
1606131284.762,45.898,-21.484,-15.625,183.594,0.000
1606131284.766,-132.812,-40.527,-25.879,-275.391,0.000
1606131284.770,-170.410,-40.527,-31.250,-399.414,0.000
1606131284.773,-15.625,-28.320,-24.902,-28.809,0.000
1606131284.777,123.047,-17.578,-22.461,331.543,0.000
1606131284.781,62.012,-23.438,-22.949,219.238,0.000
1606131284.785,-120.605,-33.691,-24.902,-225.098,0.000
1606131284.789,-172.363,-45.410,-30.762,-405.273,0.000
1606131284.793,-31.738,-28.320,-27.832,-74.219,0.000
1606131284.797,118.164,-6.348,-22.461,327.148,0.000
1606131284.801,83.984,-19.531,-23.438,278.320,0.000
1606131284.805,-100.586,-37.109,-26.367,-176.758,0.000
1606131284.809,-174.805,-47.363,-31.250,-423.828,0.000
1606131284.813,-53.223,-40.039,-33.203,-137.207,0.000
1606131284.816,99.609,-29.297,-26.367,289.551,0.000
1606131284.820,93.750,-29.297,-20.020,308.105,0.000
1606131284.824,-76.660,-40.527,-25.391,-124.023,0.000
1606131284.828,-180.176,-48.828,-34.668,-416.016,0.000
1606131284.832,-79.590,-34.668,-30.762,-188.477,0.000
1606131284.836,87.402,-20.508,-21.973,251.465,0.000
1606131284.840,108.887,-23.926,-16.113,330.566,0.000
1606131284.844,-52.734,-35.645,-20.996,-66.406,0.000
1606131284.848,-182.617,-47.852,-37.109,-405.273,0.000
1606131284.852,-109.375,-37.598,-41.504,-256.348,0.000
1606131284.856,58.594,-18.555,-34.668,194.824,0.000
1606131284.859,104.980,-21.973,-25.391,348.145,0.000
1606131284.863,-36.621,-41.016,-22.949,-6.348,0.000
1606131284.867,-174.805,-49.316,-32.715,-378.418,0.000
1606131284.871,-125.488,-40.039,-35.156,-285.645,0.000
1606131284.875,41.992,-28.320,-27.344,150.391,0.000
1606131284.879,100.586,-21.973,-24.902,351.074,0.000
1606131284.883,-33.203,-31.250,-28.320,45.410,0.000
1606131284.887,-184.082,-46.387,-42.480,-366.699,0.000
1606131284.891,-155.273,-40.039,-39.551,-342.773,0.000
1606131284.895,21.973,-20.020,-22.461,104.492,0.000
1606131284.898,111.328,-20.996,-24.414,359.863,0.000
1606131284.902,9.277,-30.273,-30.762,95.215,0.000
1606131284.906,-147.461,-40.039,-36.133,-333.496,0.000
1606131284.910,-153.320,-44.434,-33.691,-375.977,0.000
1606131284.914,13.672,-30.762,-33.203,49.805,0.000
1606131284.918,128.906,-17.090,-28.809,367.676,0.000
1606131284.922,39.551,-20.020,-24.902,169.922,0.000
1606131284.926,-133.301,-36.133,-36.133,-277.344,0.000
1606131284.930,-160.645,-46.875,-40.527,-382.812,0.000
1606131284.934,-3.418,-9.277,-28.809,10.254,0.000
1606131284.938,123.535,10.742,-24.902,362.793,0.000
1606131284.941,56.641,-27.344,-33.691,229.004,0.000
1606131284.945,-120.605,-45.410,-43.457,-233.398,0.000
1606131284.949,-171.875,-38.574,-43.457,-413.574,0.000
1606131284.953,-24.414,-28.320,-36.621,-59.570,0.000
1606131284.957,120.117,-22.949,-29.297,333.008,0.000
1606131284.961,68.848,-25.879,-27.344,261.719,0.000
1606131284.965,-116.211,-38.086,-41.016,-194.824,0.000
1606131284.969,-195.312,-50.293,-39.551,-421.387,0.000
1606131284.973,-63.477,-34.668,-23.926,-123.047,0.000
1606131284.977,100.098,-16.602,-21.973,288.086,0.000
1606131284.981,79.102,-20.996,-18.555,280.762,0.000
1606131284.984,-95.215,-33.203,-22.949,-158.691,0.000
1606131284.988,-187.012,-44.434,-32.227,-438.965,0.000
1606131284.992,-76.172,-24.902,-27.832,-195.312,0.000
1606131284.996,87.402,-12.207,-20.508,248.047,0.000
1606131285.000,92.285,-24.414,-14.648,310.059,0.000
1606131285.004,-79.590,-39.551,-22.461,-106.934,0.000
1606131285.008,-188.965,-46.387,-30.762,-426.758,0.000
1606131285.012,-96.680,-31.250,-20.508,-237.793,0.000
1606131285.016,68.848,-18.555,-14.648,214.844,0.000
1606131285.020,106.445,-25.391,-20.020,332.520,0.000
1606131285.023,-43.457,-39.062,-31.250,-35.645,0.000
1606131285.027,-177.246,-50.293,-37.109,-401.367,0.000
1606131285.031,-118.164,-47.363,-34.668,-303.711,0.000
1606131285.035,53.223,-10.742,-32.227,151.367,0.000
1606131285.039,110.840,-2.930,-30.762,346.191,0.000
1606131285.043,-18.066,-27.832,-28.320,23.926,0.000
1606131285.047,-159.668,-36.133,-27.344,-368.652,0.000
1606131285.051,-139.160,-35.645,-32.715,-327.148,0.000
1606131285.055,25.879,-25.391,-22.949,116.699,0.000
1606131285.059,110.352,-20.020,-12.695,364.258,0.000
1606131285.063,1.465,-29.297,-24.902,90.820,0.000
1606131285.066,-150.879,-44.434,-31.738,-330.566,0.000
1606131285.070,-137.207,-38.086,-29.785,-336.914,0.000
1606131285.074,29.297,-13.672,-28.809,87.891,0.000
1606131285.078,123.535,-12.207,-22.949,365.723,0.000
1606131285.082,35.645,-26.367,-17.578,147.949,0.000
1606131285.086,-130.371,-37.598,-24.414,-295.410,0.000
1606131285.090,-152.832,-37.109,-28.320,-378.906,0.000
1606131285.094,13.672,-25.391,-18.066,27.344,0.000
1606131285.098,132.812,-18.066,-11.230,359.863,0.000
1606131285.102,55.664,-25.879,-12.695,196.289,0.000
1606131285.106,-108.887,-37.598,-28.320,-260.254,0.000
1606131285.109,-157.715,-36.133,-34.668,-411.133,0.000
1606131285.113,-23.926,-18.555,-22.461,-47.363,0.000
1606131285.117,121.582,-7.812,-18.066,340.820,0.000
1606131285.121,71.777,-19.531,-21.973,245.117,0.000
1606131285.125,-112.793,-25.879,-27.344,-221.191,0.000
1606131285.129,-178.711,-34.180,-30.273,-427.734,0.000
1606131285.133,-51.758,-10.254,-31.738,-114.258,0.000
1606131285.137,104.492,14.160,-25.879,302.246,0.000
1606131285.141,82.031,-24.902,-20.508,278.320,0.000
1606131285.145,-108.398,-45.898,-31.738,-176.758,0.000
1606131285.148,-199.219,-41.504,-32.715,-436.035,0.000
1606131285.152,-74.707,-34.180,-22.949,-172.363,0.000
1606131285.156,93.262,-25.391,-15.137,260.742,0.000
1606131285.160,86.914,-19.531,-9.277,301.270,0.000
1606131285.164,-83.008,-26.367,-20.996,-121.582,0.000
1606131285.168,-189.941,-41.016,-30.762,-431.641,0.000
1606131285.172,-99.609,-23.926,-22.461,-229.004,0.000
1606131285.176,75.684,-0.488,-16.602,231.445,0.000
1606131285.180,114.746,-18.066,-14.160,350.098,0.000
1606131285.184,-46.875,-37.109,-20.996,-43.457,0.000
1606131285.188,-181.641,-44.434,-33.203,-400.391,0.000
1606131285.191,-105.469,-32.715,-34.668,-261.719,0.000
1606131285.195,78.613,-16.602,-24.414,197.754,0.000
1606131285.199,123.535,-19.043,-13.672,365.234,0.000
1606131285.203,-25.879,-27.832,-21.484,17.090,0.000
1606131285.207,-166.504,-37.598,-29.297,-373.047,0.000
1606131285.211,-125.000,-36.621,-21.973,-297.852,0.000
1606131285.215,44.922,0.977,-18.555,153.320,0.000
1606131285.219,109.863,-1.953,-15.137,359.863,0.000
1606131285.223,-12.207,-38.574,-14.648,62.500,0.000
1606131285.227,-164.062,-44.922,-34.180,-344.238,0.000
1606131285.231,-153.320,-46.387,-47.852,-343.750,0.000
1606131285.234,17.578,-40.527,-35.156,86.914,0.000
1606131285.238,109.863,-32.715,-19.043,364.258,0.000
1606131285.242,5.371,-36.133,-17.090,135.254,0.000
1606131285.246,-152.344,-46.387,-31.250,-298.340,0.000
1606131285.250,-162.109,-42.480,-29.785,-367.188,0.000
1606131285.254,0.488,-32.227,-23.438,35.645,0.000
1606131285.258,119.141,-26.855,-23.438,355.469,0.000
1606131285.262,44.922,-26.367,-26.855,180.176,0.000
1606131285.266,-121.094,-42.480,-37.109,-267.090,0.000
1606131285.270,-156.250,-49.805,-44.922,-385.742,0.000
1606131285.273,-6.348,-30.273,-39.062,-8.301,0.000
1606131285.277,125.488,-22.949,-25.879,350.586,0.000
1606131285.281,65.430,-32.715,-25.879,237.793,0.000
1606131285.285,-111.816,-38.086,-33.691,-216.309,0.000
1606131285.289,-177.734,-40.527,-32.715,-402.344,0.000
1606131285.293,-38.086,-28.320,-22.949,-71.289,0.000
1606131285.297,108.887,-21.973,-18.066,320.801,0.000
1606131285.301,66.895,-27.832,-25.879,276.367,0.000
1606131285.305,-93.750,-32.715,-34.668,-171.387,0.000
1606131285.309,-169.922,-44.922,-36.133,-414.062,0.000
1606131285.313,-66.406,-20.020,-43.457,-140.625,0.000
1606131285.316,91.797,19.043,-37.598,277.344,0.000
1606131285.320,91.309,-8.789,-26.367,302.734,0.000
1606131285.324,-78.613,-37.109,-31.738,-124.023,0.000
1606131285.328,-187.012,-50.781,-35.156,-420.410,0.000
1606131285.332,-86.914,-48.340,-33.203,-195.312,0.000
1606131285.336,91.797,-29.297,-28.320,259.766,0.000
1606131285.340,109.375,-23.926,-23.926,342.773,0.000
1606131285.344,-49.316,-31.738,-22.949,-67.383,0.000
1606131285.348,-170.410,-46.387,-31.250,-411.621,0.000
1606131285.352,-97.656,-23.926,-38.574,-248.535,0.000
1606131285.356,78.125,3.418,-29.297,213.379,0.000
1606131285.359,125.977,-23.438,-23.438,356.445,0.000
1606131285.363,-28.320,-43.945,-27.832,-11.230,0.000
1606131285.367,-176.758,-51.270,-32.715,-397.949,0.000
1606131285.371,-125.000,-45.410,-27.832,-307.129,0.000
1606131285.375,53.711,-28.809,-19.531,157.715,0.000
1606131285.379,117.188,-19.531,-25.391,358.398,0.000
1606131285.383,-15.137,-24.902,-24.414,41.992,0.000
1606131285.387,-165.039,-38.574,-21.973,-367.188,0.000
1606131285.391,-143.555,-39.062,-27.344,-349.609,0.000
1606131285.395,29.785,-26.367,-21.484,101.074,0.000
1606131285.398,123.047,-16.602,-15.625,372.070,0.000
1606131285.402,7.324,-27.832,-24.902,97.656,0.000
1606131285.406,-161.621,-43.457,-35.156,-347.168,0.000
1606131285.410,-164.062,-46.875,-35.156,-388.184,0.000
1606131285.414,7.812,-7.324,-26.367,36.133,0.000
1606131285.418,115.723,6.836,-18.066,348.633,0.000
1606131285.422,25.879,-29.297,-22.461,149.902,0.000
1606131285.426,-148.926,-50.781,-28.809,-301.758,0.000
1606131285.430,-180.664,-55.664,-22.949,-400.391,0.000
1606131285.434,-9.766,-45.410,-16.113,5.371,0.000
1606131285.438,130.859,-23.926,-27.344,351.562,0.000
1606131285.441,61.035,-14.648,-38.086,201.660,0.000
1606131285.445,-131.836,-29.785,-46.387,-267.578,0.000
1606131285.449,-179.199,-40.039,-50.781,-451.172,0.000
1606131285.453,-25.391,0.977,-44.434,-103.027,0.000
1606131285.457,105.957,20.020,-38.574,286.133,0.000
1606131285.461,66.406,-2.930,-45.898,220.703,0.000
1606131285.465,-106.934,-9.766,-56.152,-229.492,0.000
1606131285.469,-183.105,-16.113,-63.965,-464.844,0.000
1606131285.473,-51.270,-10.254,-62.012,-166.504,0.000
1606131285.477,122.070,5.371,-48.340,262.695,0.000
1606131285.481,107.910,6.348,-41.504,264.160,0.000
1606131285.484,-74.219,-12.695,-56.641,-174.805,0.000
1606131285.488,-171.387,-26.855,-64.453,-444.336,0.000
1606131285.492,-73.730,-13.672,-55.664,-193.848,0.000
1606131285.496,102.539,10.742,-50.781,243.164,0.000
1606131285.500,119.141,-6.348,-46.387,298.340,0.000
1606131285.504,-58.105,-35.156,-49.805,-118.164,0.000
1606131285.508,-170.898,-33.691,-53.711,-436.035,0.000
1606131285.512,-84.473,-22.949,-57.129,-249.023,0.000
1606131285.516,94.238,-14.160,-39.062,214.844,0.000
1606131285.520,128.418,-9.277,-31.738,345.703,0.000
1606131285.523,-35.156,-19.043,-46.875,-35.156,0.000
1606131285.527,-169.922,-30.762,-57.129,-401.367,0.000
1606131285.531,-105.469,-28.320,-47.852,-276.367,0.000
1606131285.535,71.289,-15.137,-28.809,198.730,0.000
1606131285.539,129.395,-13.672,-26.367,388.672,0.000
1606131285.543,-10.742,-24.902,-32.227,50.781,0.000
1606131285.547,-172.363,-42.969,-44.922,-363.281,0.000
1606131285.551,-142.090,-39.062,-41.504,-320.801,0.000
1606131285.555,50.293,0.488,-26.855,145.508,0.000
1606131285.559,143.555,-4.883,-24.414,388.672,0.000
1606131285.563,19.043,-28.320,-31.250,100.098,0.000
1606131285.566,-136.230,-38.574,-45.898,-328.613,0.000
1606131285.570,-127.930,-40.527,-43.945,-345.703,0.000
1606131285.574,45.898,-22.949,-26.855,93.750,0.000
1606131285.578,152.344,-16.602,-20.996,383.301,0.000
1606131285.582,43.945,-22.949,-29.297,150.391,0.000
1606131285.586,-122.070,-29.785,-49.316,-294.434,0.000
1606131285.590,-141.113,-41.016,-46.387,-382.812,0.000
1606131285.594,14.648,-11.230,-28.809,18.066,0.000
1606131285.598,134.766,9.277,-28.320,362.305,0.000
1606131285.602,49.805,-26.855,-33.203,195.801,0.000
1606131285.606,-125.977,-41.504,-41.504,-267.578,0.000
1606131285.609,-152.832,-38.574,-35.645,-399.902,0.000
1606131285.613,-4.883,-31.250,-23.926,-36.621,0.000
1606131285.617,125.488,-19.043,-14.648,333.496,0.000
1606131285.621,75.684,-19.043,-14.160,247.559,0.000
1606131285.625,-102.051,-33.203,-33.691,-200.684,0.000
1606131285.629,-162.598,-40.039,-37.109,-391.113,0.000
1606131285.633,-37.109,-7.324,-27.832,-74.707,0.000
1606131285.637,103.516,10.742,-21.973,318.359,0.000
1606131285.641,79.590,-20.996,-24.902,282.715,0.000
1606131285.645,-86.426,-34.180,-28.809,-158.691,0.000
1606131285.648,-176.270,-42.480,-30.273,-413.574,0.000
1606131285.652,-73.730,-38.574,-29.297,-161.621,0.000
1606131285.656,97.168,-25.391,-17.090,263.672,0.000
1606131285.660,91.797,-32.715,-16.602,305.176,0.000
1606131285.664,-79.590,-39.062,-28.320,-107.910,0.000
1606131285.668,-177.246,-42.969,-35.156,-408.691,0.000
1606131285.672,-91.309,-38.086,-29.785,-217.285,0.000
1606131285.676,76.660,-18.066,-21.484,228.027,0.000
1606131285.680,105.469,-14.160,-27.832,332.520,0.000
1606131285.684,-49.805,-26.855,-40.039,-63.965,0.000
1606131285.688,-181.152,-43.457,-46.387,-425.781,0.000
1606131285.691,-115.723,-38.086,-38.574,-289.551,0.000
1606131285.695,60.059,18.555,-28.809,175.293,0.000
1606131285.699,113.770,10.742,-19.531,339.355,0.000
1606131285.703,-24.414,-39.551,-30.273,-13.184,0.000
1606131285.707,-171.387,-50.781,-47.852,-398.926,0.000
1606131285.711,-128.418,-43.457,-40.527,-317.871,0.000
1606131285.715,54.199,-23.926,-26.367,146.973,0.000
1606131285.719,126.953,-22.949,-23.438,371.582,0.000
