timestamps,TP9,AF7,AF8,TP10,Right AUX
1606139505.277,0.000,0.000,0.000,0.000,0.000
1606139505.281,0.000,0.000,0.000,0.000,0.000
1606139505.285,-14.160,-1.953,-1.953,-35.645,0.000
1606139505.289,37.109,3.906,4.395,88.867,0.000
1606139505.293,-165.527,-19.531,-22.949,-388.672,0.000
1606139505.296,-355.957,-47.852,-52.246,-972.168,0.000
1606139505.300,21.973,-25.879,-30.273,17.578,0.000
1606139505.304,333.008,-8.789,-15.137,-967.285,0.000
1606139505.308,173.340,-18.066,-22.461,625.000,0.000
1606139505.312,-238.281,-37.598,-38.086,-541.016,0.000
1606139505.316,-359.375,-39.062,-33.691,-1000.000,0.000
1606139505.320,-10.254,-18.066,-15.137,-123.047,0.000
1606139505.324,321.289,-5.371,-5.371,944.824,0.000
1606139505.328,215.332,-13.184,-18.066,737.305,0.000
1606139505.332,-207.520,-34.180,-41.992,-424.316,0.000
1606139505.335,-386.719,-43.457,-44.434,-1000.000,0.000
1606139505.339,-94.727,-23.926,-29.297,-306.641,0.000
1606139505.343,272.949,-0.488,-17.090,824.707,0.000
1606139505.347,252.441,-3.418,-20.996,836.914,0.000
1606139505.351,-156.738,-33.203,-34.180,-287.109,0.000
1606139505.355,-393.555,-56.641,-41.992,-1000.000,0.000
1606139505.359,-148.926,-37.109,-29.785,-483.887,0.000
1606139505.363,240.723,-1.953,-12.695,681.152,0.000
1606139505.367,284.668,2.441,-8.301,903.320,0.000
1606139505.371,-90.820,-25.391,-26.367,-155.273,0.000
1606139505.375,-379.395,-46.387,-47.363,-1000.000,0.000
1606139505.378,-208.496,-36.133,-42.969,-622.559,0.000
1606139505.382,217.285,-13.672,-20.020,550.781,0.000
1606139505.386,320.801,-11.230,-11.230,964.844,0.000
1606139505.390,-48.340,-29.297,-23.438,11.230,0.000
1606139505.394,-360.840,-27.344,-37.598,-1000.000,0.000
1606139505.398,-252.930,-17.578,-32.715,-743.652,0.000
1606139505.402,155.762,-18.066,-7.324,418.945,0.000
1606139505.406,328.125,-15.625,-3.906,-980.469,0.000
1606139505.410,21.484,-33.203,-24.414,191.895,0.000
1606139505.414,-344.238,-52.734,-37.598,-912.109,0.000
1606139505.418,-297.363,-45.410,-31.250,-840.332,0.000
1606139505.421,121.582,-21.973,-14.648,296.875,0.000
1606139505.425,341.309,-7.812,-1.465,-952.637,0.000
1606139505.429,79.590,-24.902,-18.066,361.328,0.000
1606139505.433,-310.059,-47.363,-41.992,-788.086,0.000
1606139505.437,-333.984,-48.828,-36.133,-918.457,0.000
1606139505.441,64.453,-15.625,-16.602,162.598,0.000
1606139505.445,323.730,-1.953,-14.160,-952.637,0.000
1606139505.449,109.863,-35.645,-25.879,510.254,0.000
1606139505.453,-299.805,-55.664,-41.992,-654.785,0.000
1606139505.457,-381.836,-54.199,-38.086,-984.863,0.000
1606139505.460,-13.184,-35.156,-17.090,-7.324,0.000
1606139505.464,302.246,-18.066,-5.859,-1000.000,0.000
1606139505.468,167.480,-24.902,-18.066,654.785,0.000
1606139505.472,-257.812,-52.246,-40.527,-518.555,0.000
1606139505.476,-396.484,-54.199,-42.969,-1000.000,0.000
1606139505.480,-62.988,-36.621,-27.344,-164.062,0.000
1606139505.484,282.227,-21.484,-16.113,916.016,0.000
1606139505.488,214.844,-22.949,-15.137,766.602,0.000
1606139505.492,-207.520,-34.668,-34.180,-386.719,0.000
1606139505.496,-409.180,-33.691,-49.316,-1000.000,0.000
1606139505.500,-121.582,-28.809,-35.156,-354.492,0.000
1606139505.503,262.695,-14.160,-19.043,794.922,0.000
1606139505.507,256.836,-18.555,-20.508,849.609,0.000
1606139505.511,-153.809,-37.109,-36.621,-269.531,0.000
1606139505.515,-398.926,-48.340,-50.293,-1000.000,0.000
1606139505.519,-167.480,-37.598,-40.527,-518.066,0.000
1606139505.523,230.957,-14.648,-15.137,651.367,0.000
1606139505.527,280.273,-11.230,-14.160,913.574,0.000
1606139505.531,-106.934,-33.691,-40.527,-136.230,0.000
1606139505.535,-390.625,-53.711,-50.781,-1000.000,0.000
1606139505.539,-218.262,-42.480,-32.715,-649.902,0.000
1606139505.543,191.406,-7.812,-15.137,519.043,0.000
1606139505.546,306.641,-4.883,-13.672,978.516,0.000
1606139505.550,-37.598,-31.738,-27.832,46.387,0.000
1606139505.554,-369.141,-45.898,-40.039,-994.141,0.000
1606139505.558,-266.602,-42.969,-32.715,-761.719,0.000
1606139505.562,150.391,-23.438,-18.555,400.879,0.000
1606139505.566,326.660,-10.254,-9.277,-977.051,0.000
1606139505.570,35.645,-25.879,-23.926,234.863,0.000
1606139505.574,-343.750,-48.828,-43.945,-912.109,0.000
1606139505.578,-280.762,-44.922,-38.574,-784.180,0.000
1606139505.582,149.902,-22.461,-19.043,395.020,0.000
1606139505.585,339.844,-5.859,-9.277,-960.938,0.000
1606139505.589,98.633,-16.602,-18.555,403.320,0.000
1606139505.593,-300.293,-24.414,-37.598,-750.000,0.000
1606139505.597,-336.426,-25.879,-37.598,-931.641,0.000
1606139505.601,57.617,-30.273,-20.508,133.789,0.000
1606139505.605,328.613,-21.973,-8.789,-959.961,0.000
1606139505.609,136.230,-24.902,-13.184,544.434,0.000
1606139505.613,-277.344,-46.387,-31.738,-620.117,0.000
1606139505.617,-373.047,-53.223,-39.551,-994.141,0.000
1606139505.621,-9.766,-32.715,-27.344,-36.133,0.000
1606139505.625,306.152,-17.578,-15.625,987.305,0.000
1606139505.628,178.711,-24.414,-20.508,678.711,0.000
1606139505.632,-238.770,-44.922,-39.062,-491.699,0.000
1606139505.636,-393.066,-60.059,-48.340,-1000.000,0.000
1606139505.640,-70.801,-36.621,-38.086,-208.496,0.000
1606139505.644,291.016,-1.953,-18.066,898.438,0.000
1606139505.648,230.957,-10.254,-25.879,773.926,0.000
1606139505.652,-175.781,-38.086,-48.828,-375.488,0.000
1606139505.656,-384.766,-57.129,-41.504,-1000.000,0.000
1606139505.660,-140.625,-47.852,-25.391,-388.184,0.000
1606139505.664,227.051,-25.391,-8.789,763.184,0.000
1606139505.668,233.887,-27.344,-5.371,860.352,0.000
1606139505.671,-168.457,-56.152,-16.602,-250.488,0.000
1606139505.675,-429.199,-65.430,-20.508,-1000.000,0.000
1606139505.679,-219.238,-53.223,-5.859,-551.270,0.000
1606139505.683,175.781,-41.504,10.742,615.234,0.000
1606139505.687,251.953,-39.551,18.555,926.270,0.000
1606139505.691,-120.605,-42.480,3.906,-104.980,0.000
1606139505.695,-422.363,-49.316,-14.648,-1000.000,0.000
1606139505.699,-263.672,-63.965,-2.930,-677.734,0.000
1606139505.703,151.855,-49.805,16.602,491.699,0.000
1606139505.707,283.691,-41.016,11.719,986.328,0.000
1606139505.710,-61.523,-40.039,-6.348,60.547,0.000
1606139505.714,-386.230,-45.898,-17.090,-957.031,0.000
1606139505.718,-285.156,-55.664,-11.719,-750.488,0.000
1606139505.722,124.512,-34.668,3.418,370.117,0.000
1606139505.726,311.523,-30.762,2.441,-969.727,0.000
1606139505.730,17.578,-47.852,-14.160,256.836,0.000
1606139505.734,-354.004,-55.664,-29.785,-860.840,0.000
1606139505.738,-337.891,-61.523,-29.785,-876.465,0.000
1606139505.742,72.266,-44.922,-6.348,243.164,0.000
1606139505.746,312.988,-29.297,1.953,-950.195,0.000
1606139505.750,73.242,-42.480,-17.578,428.223,0.000
1606139505.753,-319.824,-53.223,-30.273,-724.121,0.000
1606139505.757,-366.699,-48.340,-30.762,-944.336,0.000
1606139505.761,22.461,-36.133,-16.602,106.445,0.000
1606139505.765,307.617,-23.926,-5.859,-961.426,0.000
1606139505.769,131.836,-26.855,-13.184,587.402,0.000
1606139505.773,-276.855,-26.367,-33.203,-581.055,0.000
1606139505.777,-387.207,-26.367,-40.527,-1000.000,0.000
1606139505.781,-32.227,-34.668,-20.996,-68.848,0.000
1606139505.785,299.805,-17.090,-0.977,974.121,0.000
1606139505.789,187.500,-15.625,-7.324,704.590,0.000
1606139505.793,-229.004,-39.062,-21.973,-460.938,0.000
1606139505.796,-395.508,-52.246,-22.949,-1000.000,0.000
1606139505.800,-82.031,-37.598,-17.578,-243.652,0.000
1606139505.804,283.203,-22.949,-11.230,872.070,0.000
1606139505.808,234.375,-28.809,-10.254,799.805,0.000
1606139505.812,-179.688,-38.574,-28.320,-344.727,0.000
1606139505.816,-396.484,-45.898,-40.039,-1000.000,0.000
1606139505.820,-135.254,-34.180,-24.414,-414.551,0.000
1606139505.824,252.930,-13.184,-7.324,740.234,0.000
1606139505.828,273.438,-16.602,-12.207,879.883,0.000
1606139505.832,-125.977,-25.391,-33.203,-209.961,0.000
1606139505.835,-386.230,-38.086,-40.039,-1000.000,0.000
1606139505.839,-175.781,-38.574,-25.391,-574.707,0.000
1606139505.843,229.492,-16.602,-5.859,596.680,0.000
1606139505.847,305.664,-14.648,-7.324,941.406,0.000
1606139505.851,-66.895,-32.227,-34.180,-61.035,0.000
1606139505.855,-377.441,-51.270,-49.805,-1000.000,0.000
1606139505.859,-239.746,-49.805,-44.434,-698.730,0.000
1606139505.863,177.246,-23.438,-22.461,474.609,0.000
1606139505.867,317.383,-16.113,-11.230,997.559,0.000
1606139505.871,-13.184,-27.344,-25.391,107.422,0.000
1606139505.875,-361.816,-18.555,-39.551,-959.961,0.000
1606139505.878,-285.156,-19.531,-32.227,-801.270,0.000
1606139505.882,134.766,-24.414,-10.742,348.633,0.000
1606139505.886,327.637,-20.508,-9.766,-965.820,0.000
1606139505.890,46.875,-29.297,-23.926,288.574,0.000
1606139505.894,-324.707,-37.109,-31.738,-837.402,0.000
1606139505.898,-316.895,-36.133,-34.668,-889.648,0.000
1606139505.902,94.727,-22.461,-20.508,215.820,0.000
1606139505.906,352.539,-7.324,-5.371,-947.754,0.000
1606139505.910,131.348,-13.672,-11.719,475.098,0.000
1606139505.914,-267.578,-33.691,-32.227,-690.430,0.000
1606139505.918,-331.543,-38.574,-35.645,-958.008,0.000
1606139505.921,45.898,-23.926,-14.648,74.219,0.000
1606139505.925,335.938,-14.648,0.977,-972.656,0.000
1606139505.929,161.621,-24.414,-15.625,610.352,0.000
1606139505.933,-257.324,-35.645,-38.574,-556.152,0.000
1606139505.937,-380.371,-45.410,-38.086,-1000.000,0.000
1606139505.941,-33.691,-36.133,-26.855,-99.121,0.000
1606139505.945,307.129,-19.531,-11.719,955.566,0.000
1606139505.949,210.938,-24.414,-8.789,725.098,0.000
1606139505.953,-203.125,-41.504,-28.809,-437.500,0.000
1606139505.957,-384.766,-52.246,-37.598,-1000.000,0.000
1606139505.960,-92.285,-40.527,-21.484,-281.738,0.000
1606139505.964,275.879,-18.555,-7.812,845.703,0.000
1606139505.968,242.676,-22.461,-10.742,812.500,0.000
1606139505.972,-171.875,-26.367,-29.785,-324.707,0.000
1606139505.976,-397.949,-29.297,-42.480,-1000.000,0.000
1606139505.980,-143.066,-39.551,-26.367,-458.496,0.000
1606139505.984,249.023,-22.461,-4.883,703.613,0.000
1606139505.988,283.691,-15.137,-10.254,893.555,0.000
1606139505.992,-102.539,-28.320,-26.855,-179.688,0.000
1606139505.996,-382.324,-43.457,-34.668,-1000.000,0.000
1606139506.000,-194.336,-38.086,-20.508,-602.539,0.000
1606139506.003,210.449,-12.695,0.000,575.195,0.000
1606139506.007,295.898,-13.672,-8.789,951.172,0.000
1606139506.011,-70.801,-23.438,-32.715,-37.598,0.000
1606139506.015,-388.184,-28.320,-45.898,-1000.000,0.000
1606139506.019,-254.883,-39.062,-39.551,-735.352,0.000
1606139506.023,159.668,-25.391,-20.996,431.641,0.000
1606139506.027,309.570,-20.508,-16.602,-993.652,0.000
1606139506.031,-3.906,-37.109,-33.203,138.184,0.000
1606139506.035,-354.492,-44.434,-43.945,-939.453,0.000
1606139506.039,-291.016,-37.598,-41.504,-821.289,0.000
1606139506.043,128.906,-18.555,-18.066,322.754,0.000
1606139506.046,325.195,-10.254,-19.043,-958.984,0.000
1606139506.050,60.547,-17.578,-31.250,339.355,0.000
1606139506.054,-307.617,-9.766,-40.039,-797.363,0.000
1606139506.058,-320.312,-24.902,-44.434,-912.598,0.000
1606139506.062,79.102,-28.809,-22.461,178.711,0.000
1606139506.066,338.379,-14.160,-10.742,-952.148,0.000
1606139506.070,128.418,-24.902,-20.020,500.488,0.000
1606139506.074,-275.391,-41.016,-29.297,-661.133,0.000
1606139506.078,-352.051,-45.898,-36.133,-970.215,0.000
1606139506.082,23.438,-26.855,-22.949,40.527,0.000
1606139506.085,323.242,-14.160,-1.953,-979.492,0.000
1606139506.089,168.457,-23.438,-20.020,634.277,0.000
1606139506.093,-243.164,-43.457,-39.062,-537.109,0.000
1606139506.097,-372.070,-49.316,-35.645,-1000.000,0.000
1606139506.101,-43.945,-34.668,-21.484,-153.809,0.000
1606139506.105,289.551,-22.461,-6.348,926.758,0.000
1606139506.109,205.566,-25.879,-17.090,737.793,0.000
1606139506.113,-205.078,-29.785,-39.062,-423.828,0.000
1606139506.117,-391.602,-41.992,-47.852,-1000.000,0.000
1606139506.121,-103.516,-42.969,-29.297,-330.078,0.000
1606139506.125,274.414,-24.902,-8.301,813.965,0.000
1606139506.128,259.766,-23.926,-11.230,834.473,0.000
1606139506.132,-149.902,-39.062,-28.809,-292.969,0.000
1606139506.136,-397.949,-54.688,-43.945,-1000.000,0.000
1606139506.140,-167.480,-43.457,-34.668,-486.328,0.000
1606139506.144,236.816,-10.742,-8.789,684.570,0.000
1606139506.148,282.715,-15.625,-4.883,908.691,0.000
1606139506.152,-115.234,-31.250,-24.902,-148.438,0.000
1606139506.156,-397.461,-27.344,-37.598,-1000.000,0.000
1606139506.160,-214.355,-36.133,-25.879,-624.512,0.000
1606139506.164,187.012,-30.273,-3.906,547.363,0.000
1606139506.168,297.363,-21.973,-0.488,970.215,0.000
1606139506.171,-41.992,-30.762,-13.672,31.738,0.000
1606139506.175,-375.000,-50.293,-33.203,-1000.000,0.000
1606139506.179,-270.020,-51.758,-31.738,-739.258,0.000
1606139506.183,152.344,-27.344,-13.672,427.734,0.000
1606139506.187,317.871,-23.438,-5.859,-975.098,0.000
1606139506.191,10.742,-30.762,-15.625,218.750,0.000
1606139506.195,-349.121,-33.691,-34.180,-895.020,0.000
1606139506.199,-306.641,-51.270,-43.945,-846.191,0.000
1606139506.203,108.398,-38.086,-23.438,291.992,0.000
1606139506.207,327.148,-20.508,-10.254,-953.613,0.000
1606139506.210,72.266,-26.367,-28.320,382.812,0.000
1606139506.214,-310.547,-40.039,-48.340,-765.625,0.000
1606139506.218,-331.543,-50.293,-42.480,-917.969,0.000
1606139506.222,66.406,-33.203,-19.043,166.504,0.000
1606139506.226,333.496,-15.137,-1.953,-951.660,0.000
1606139506.230,124.512,-26.855,-20.996,529.297,0.000
1606139506.234,-286.133,-42.969,-48.828,-634.766,0.000
1606139506.238,-373.535,-45.898,-43.945,-988.281,0.000
1606139506.242,-14.648,-31.738,-28.809,-10.254,0.000
1606139506.246,295.410,-19.043,-19.531,-999.512,0.000
1606139506.250,166.992,-23.926,-18.066,649.414,0.000
1606139506.253,-241.211,-20.020,-36.621,-518.555,0.000
1606139506.257,-384.766,-25.879,-49.316,-1000.000,0.000
1606139506.261,-54.199,-32.227,-23.438,-181.641,0.000
1606139506.265,304.199,-14.160,-4.395,914.551,0.000
1606139506.269,227.539,-20.508,-15.625,761.230,0.000
1606139506.273,-194.336,-44.922,-38.574,-395.020,0.000
1606139506.277,-390.625,-55.176,-49.805,-1000.000,0.000
1606139506.281,-113.281,-39.062,-38.574,-363.281,0.000
1606139506.285,266.113,-20.508,-18.066,788.574,0.000
1606139506.289,261.719,-28.809,-8.301,854.492,0.000
1606139506.293,-148.438,-28.809,-24.902,-260.254,0.000
1606139506.296,-400.879,-33.691,-45.898,-1000.000,0.000
1606139506.300,-173.828,-39.551,-34.180,-528.809,0.000
1606139506.304,224.609,-23.438,-18.555,643.066,0.000
1606139506.308,284.668,-20.996,-23.438,916.992,0.000
1606139506.312,-95.215,-39.062,-35.156,-129.883,0.000
1606139506.316,-389.648,-57.617,-46.875,-1000.000,0.000
1606139506.320,-226.074,-50.781,-39.062,-655.273,0.000
1606139506.324,186.523,-22.949,-13.184,511.230,0.000
1606139506.328,309.082,-17.090,-7.324,983.398,0.000
1606139506.332,-35.645,-25.879,-20.020,62.988,0.000
1606139506.335,-374.512,-34.668,-35.645,-983.887,0.000
1606139506.339,-280.273,-43.945,-39.551,-778.809,0.000
1606139506.343,136.230,-31.738,-18.555,379.395,0.000
1606139506.347,322.754,-14.648,-7.324,-970.703,0.000
1606139506.351,28.809,-27.832,-23.926,234.375,0.000
1606139506.355,-351.562,-53.711,-45.410,-883.789,0.000
1606139506.359,-316.406,-50.781,-39.551,-861.816,0.000
1606139506.363,103.027,-29.297,-16.113,264.648,0.000
1606139506.367,332.031,-19.043,-9.277,-952.637,0.000
1606139506.371,85.938,-29.297,-24.902,401.855,0.000
1606139506.375,-304.688,-44.434,-45.898,-750.488,0.000
1606139506.378,-334.473,-42.480,-44.434,-931.641,0.000
1606139506.382,62.988,-23.438,-22.461,132.812,0.000
1606139506.386,337.891,-14.160,-8.301,-960.449,0.000
1606139506.390,145.020,-14.648,-19.043,552.734,0.000
1606139506.394,-264.648,-14.648,-38.086,-609.863,0.000
1606139506.398,-361.816,-32.715,-38.574,-995.605,0.000
1606139506.402,0.000,-28.320,-31.250,-37.598,0.000
1606139506.406,321.289,-6.348,-16.602,987.305,0.000
1606139506.410,197.754,-17.578,-17.578,676.758,0.000
1606139506.414,-226.074,-46.387,-41.992,-491.699,0.000
1606139506.418,-385.254,-47.852,-48.828,-1000.000,0.000
1606139506.421,-63.477,-28.320,-29.297,-219.238,0.000
1606139506.425,288.086,-7.812,-7.324,892.578,0.000
1606139506.429,223.633,-19.531,-17.578,774.414,0.000
1606139506.433,-195.801,-27.344,-44.434,-379.883,0.000
1606139506.437,-405.273,-30.273,-51.270,-1000.000,0.000
1606139506.441,-133.301,-39.551,-36.133,-410.645,0.000
1606139506.445,249.023,-18.066,-21.484,748.535,0.000
1606139506.449,254.883,-17.090,-23.438,862.305,0.000
1606139506.453,-149.414,-42.969,-45.898,-248.047,0.000
1606139506.457,-408.203,-48.828,-55.664,-1000.000,0.000
1606139506.460,-187.500,-27.344,-32.227,-552.246,0.000
1606139506.464,219.727,-5.371,-17.090,614.746,0.000
1606139506.468,297.852,-4.395,-19.531,939.453,0.000
1606139506.472,-82.031,-13.672,-30.762,-78.125,0.000
1606139506.476,-404.297,-39.551,-43.945,-1000.000,0.000
1606139506.480,-252.930,-53.223,-38.086,-684.082,0.000
1606139506.484,174.316,-26.367,-18.555,485.840,0.000
1606139506.488,312.012,-14.160,-14.160,989.746,0.000
1606139506.492,-24.414,-30.762,-27.832,87.891,0.000
1606139506.496,-364.746,-50.781,-38.086,-970.215,0.000
1606139506.500,-276.855,-49.805,-32.227,-785.645,0.000
1606139506.503,146.973,-25.391,-2.441,373.535,0.000
1606139506.507,339.844,-9.766,11.230,-964.355,0.000
1606139506.511,50.293,-28.809,-17.578,281.738,0.000
1606139506.515,-331.543,-55.664,-46.387,-848.633,0.000
1606139506.519,-318.359,-46.875,-43.457,-874.512,0.000
1606139506.523,100.586,-20.996,-20.508,248.535,0.000
1606139506.527,345.703,-11.230,-7.812,-948.730,0.000
1606139506.531,105.957,-19.043,-20.996,435.059,0.000
1606139506.535,-299.316,-35.156,-41.504,-720.703,0.000
1606139506.539,-348.633,-45.898,-36.621,-950.684,0.000
1606139506.543,45.898,-30.762,-19.043,88.867,0.000
1606139506.546,333.008,-14.648,-13.672,-965.332,0.000
1606139506.550,154.785,-24.414,-18.066,582.520,0.000
1606139506.554,-268.066,-48.828,-44.434,-606.934,0.000
1606139506.558,-365.234,-54.199,-50.781,-976.074,0.000
1606139506.562,-3.906,-30.273,-21.973,-28.809,0.000
1606139506.566,301.270,-14.160,-12.207,960.449,0.000
1606139506.570,189.453,-19.531,-23.438,695.801,0.000
1606139506.574,-229.492,-36.133,-42.969,-472.656,0.000
1606139506.578,-393.066,-57.129,-44.434,-1000.000,0.000
1606139506.582,-84.473,-49.316,-33.203,-271.484,0.000
1606139506.585,267.578,-21.973,-26.367,852.539,0.000
1606139506.589,228.027,-17.578,-29.785,788.574,0.000
1606139506.593,-188.477,-38.086,-50.293,-367.676,0.000
1606139506.597,-416.992,-48.340,-51.270,-1000.000,0.000
1606139506.601,-161.621,-38.086,-30.273,-437.012,0.000
1606139506.605,228.027,-25.391,-15.137,718.262,0.000
1606139506.609,259.277,-22.949,-17.090,890.625,0.000
1606139506.613,-124.023,-28.320,-41.992,-191.895,0.000
1606139506.617,-390.625,-41.504,-51.758,-1000.000,0.000
1606139506.621,-193.848,-42.480,-32.715,-580.078,0.000
1606139506.625,215.332,-23.926,-11.230,587.402,0.000
1606139506.628,306.152,-13.672,-4.395,951.172,0.000
1606139506.632,-69.336,-28.809,-22.949,-55.664,0.000
1606139506.636,-377.441,-46.387,-40.527,-1000.000,0.000
1606139506.640,-239.258,-40.039,-34.668,-666.992,0.000
1606139506.644,162.598,-19.531,-13.184,460.938,0.000
1606139506.648,310.547,-13.184,-16.113,999.023,0.000
1606139506.652,-12.207,-32.715,-36.133,125.000,0.000
1606139506.656,-356.445,-48.828,-51.270,-949.219,0.000
1606139506.660,-281.738,-41.992,-42.969,-796.875,0.000
1606139506.664,144.043,-25.391,-17.578,355.957,0.000
1606139506.668,344.727,-20.508,-7.812,-961.914,0.000
1606139506.671,57.129,-22.461,-18.066,314.453,0.000
1606139506.675,-328.125,-36.621,-48.340,-822.754,0.000
1606139506.679,-317.871,-48.340,-47.363,-887.207,0.000
1606139506.683,92.773,-24.902,-18.555,224.609,0.000
1606139506.687,333.496,-10.742,-13.184,-949.219,0.000
1606139506.691,104.004,-23.926,-27.344,465.820,0.000
1606139506.695,-294.922,-44.434,-38.086,-691.895,0.000
1606139506.699,-356.445,-49.805,-45.410,-963.867,0.000
1606139506.703,25.391,-30.762,-24.414,58.594,0.000
1606139506.707,324.707,-14.160,-2.441,-974.121,0.000
1606139506.710,159.180,-14.648,-20.020,606.445,0.000
1606139506.714,-256.348,-1.953,-39.551,-561.035,0.000
1606139506.718,-377.441,-19.043,-44.922,-1000.000,0.000
1606139506.722,-29.785,-35.156,-30.762,-116.211,0.000
1606139506.726,306.152,-17.578,-15.625,949.219,0.000
1606139506.730,208.008,-24.414,-25.391,718.262,0.000
1606139506.734,-205.078,-46.387,-45.410,-447.266,0.000
1606139506.738,-381.836,-55.176,-56.152,-1000.000,0.000
1606139506.742,-83.496,-33.691,-34.668,-287.598,0.000
1606139506.746,293.457,-14.160,-11.230,837.402,0.000
1606139506.750,267.090,-18.555,-16.602,834.961,0.000
1606139506.753,-158.203,-21.973,-37.598,-291.016,0.000
1606139506.757,-408.691,-43.945,-40.527,-1000.000,0.000
1606139506.761,-167.480,-47.852,-20.020,-453.613,0.000
1606139506.765,231.445,-21.973,-11.230,705.078,0.000
1606139506.769,265.137,-25.391,-19.531,894.531,0.000
1606139506.773,-129.395,-41.016,-38.574,-176.758,0.000
1606139506.777,-400.879,-49.316,-47.852,-1000.000,0.000
1606139506.781,-202.637,-45.410,-36.133,-605.469,0.000
1606139506.785,207.520,-28.320,-15.137,564.453,0.000
1606139506.789,307.129,-22.461,-8.301,963.379,0.000
1606139506.793,-55.664,-40.527,-29.297,-5.859,0.000
1606139506.796,-380.371,-54.688,-51.758,-1000.000,0.000
1606139506.800,-246.582,-43.457,-45.898,-718.750,0.000
1606139506.804,176.758,-20.508,-14.648,451.172,0.000
1606139506.808,330.566,-12.695,-3.906,-991.699,0.000
1606139506.812,9.277,-13.672,-22.949,163.086,0.000
1606139506.816,-342.773,-18.555,-35.645,-924.805,0.000
1606139506.820,-279.785,-35.645,-31.250,-819.336,0.000
1606139506.824,133.301,-23.926,-19.043,325.684,0.000
1606139506.828,341.309,-11.230,-13.184,-958.008,0.000
1606139506.832,72.266,-27.832,-20.996,331.055,0.000
1606139506.835,-319.824,-51.758,-41.504,-805.664,0.000
1606139506.839,-335.449,-55.176,-45.410,-917.480,0.000
1606139506.843,70.801,-21.484,-31.738,164.062,0.000
1606139506.847,340.820,-6.836,-11.719,-954.590,0.000
1606139506.851,129.395,-9.766,-11.230,490.234,0.000
1606139506.855,-278.809,-14.648,-41.992,-670.410,0.000
1606139506.859,-351.562,-34.668,-46.875,-975.586,0.000
1606139506.863,24.414,-21.484,-23.438,20.508,0.000
1606139506.867,325.195,-8.301,-13.672,-989.746,0.000
1606139506.871,175.293,-22.461,-20.020,630.371,0.000
1606139506.875,-245.117,-47.363,-30.762,-537.598,0.000
1606139506.878,-385.254,-48.828,-39.062,-1000.000,0.000
1606139506.882,-52.246,-21.484,-24.414,-150.879,0.000
1606139506.886,286.133,-5.859,-9.766,924.316,0.000
1606139506.890,202.637,-8.789,-7.324,747.559,0.000
1606139506.894,-209.961,-14.160,-21.484,-408.203,0.000
1606139506.898,-396.484,-34.668,-38.086,-1000.000,0.000
1606139506.902,-107.910,-39.062,-20.508,-331.543,0.000
1606139506.906,269.531,-20.996,0.000,809.082,0.000
1606139506.910,258.301,-14.648,-7.324,840.332,0.000
1606139506.914,-157.715,-35.156,-34.668,-285.645,0.000
1606139506.918,-398.438,-54.688,-43.457,-1000.000,0.000
1606139506.921,-153.320,-37.598,-24.902,-485.352,0.000
1606139506.925,251.953,-17.090,-6.836,681.152,0.000
1606139506.929,295.410,-17.090,-10.742,906.738,0.000
1606139506.933,-101.074,-41.504,-37.109,-150.879,0.000
1606139506.937,-385.742,-60.059,-48.340,-1000.000,0.000
1606139506.941,-200.195,-39.551,-30.762,-628.906,0.000
1606139506.945,212.891,-19.043,-14.648,540.039,0.000
1606139506.949,312.012,-23.438,-12.695,966.309,0.000
1606139506.953,-28.320,-25.879,-25.879,15.625,0.000
1606139506.957,-348.145,-38.086,-45.898,-1000.000,0.000
1606139506.960,-261.719,-41.504,-45.898,-755.371,0.000
1606139506.964,151.367,-17.090,-21.484,408.203,0.000
1606139506.968,322.754,-13.184,-10.254,-981.934,0.000
1606139506.972,10.742,-33.203,-24.902,187.988,0.000
1606139506.976,-355.957,-50.293,-41.504,-908.203,0.000
1606139506.980,-317.871,-48.340,-40.527,-851.562,0.000
1606139506.984,99.609,-26.367,-23.438,278.809,0.000
1606139506.988,325.195,-12.695,-12.695,-954.590,0.000
1606139506.992,70.801,-18.066,-27.344,367.188,0.000
1606139506.996,-317.383,-32.227,-48.340,-777.832,0.000
1606139507.000,-342.285,-46.387,-46.875,-930.176,0.000
1606139507.003,54.199,-28.320,-22.461,139.648,0.000
1606139507.007,323.730,-14.160,-6.348,-955.566,0.000
1606139507.011,120.117,-26.367,-24.414,523.438,0.000
1606139507.015,-287.109,-44.434,-46.387,-644.043,0.000
1606139507.019,-363.281,-43.945,-38.086,-984.375,0.000
1606139507.023,9.277,-22.949,-17.578,-12.207,0.000
1606139507.027,325.684,-17.090,-1.953,996.094,0.000
1606139507.031,188.477,-20.508,-7.812,660.645,0.000
1606139507.035,-235.352,-36.621,-40.527,-509.766,0.000
1606139507.039,-383.301,-53.223,-50.293,-1000.000,0.000
1606139507.043,-59.082,-39.551,-31.250,-208.008,0.000
1606139507.046,291.016,-19.531,-13.184,895.020,0.000
1606139507.050,219.238,-21.973,-21.973,761.230,0.000
1606139507.054,-199.219,-44.922,-41.992,-398.438,0.000
1606139507.058,-396.484,-51.758,-41.016,-1000.000,0.000
1606139507.062,-120.605,-35.645,-29.297,-369.629,0.000
1606139507.066,259.766,-15.137,-16.602,777.832,0.000
1606139507.070,261.719,-11.230,-14.648,854.004,0.000
1606139507.074,-148.438,-34.668,-37.109,-262.695,0.000
1606139507.078,-399.414,-52.246,-52.734,-1000.000,0.000
1606139507.082,-168.457,-31.738,-37.598,-515.625,0.000
1606139507.085,232.910,-8.301,-22.461,650.879,0.000
1606139507.089,285.645,-12.207,-18.066,912.598,0.000
1606139507.093,-101.562,-27.832,-31.250,-131.836,0.000
1606139507.097,-397.461,-45.898,-50.293,-1000.000,0.000
1606139507.101,-235.840,-39.062,-37.598,-663.574,0.000
1606139507.105,183.105,-14.648,-11.719,506.348,0.000
1606139507.109,306.152,-11.719,-3.906,980.957,0.000
1606139507.113,-38.086,-26.855,-20.996,61.035,0.000
1606139507.117,-372.070,-47.363,-46.387,-983.398,0.000
1606139507.121,-281.250,-46.387,-41.016,-775.391,0.000
1606139507.125,140.137,-22.949,-19.531,385.742,0.000
1606139507.128,323.242,-5.371,-7.812,-976.562,0.000
1606139507.132,20.508,-24.414,-21.973,227.051,0.000
1606139507.136,-351.074,-50.781,-44.434,-879.395,0.000
1606139507.140,-324.707,-45.898,-43.945,-866.699,0.000
1606139507.144,90.332,-19.043,-17.578,257.324,0.000
1606139507.148,317.383,-10.742,-8.301,-953.613,0.000
1606139507.152,71.777,-24.902,-20.996,401.855,0.000
1606139507.156,-315.918,-45.410,-32.227,-747.070,0.000
1606139507.160,-350.586,-50.293,-34.668,-934.570,0.000
1606139507.164,41.992,-25.391,-16.602,127.441,0.000
1606139507.168,325.195,-11.230,-4.883,-960.938,0.000
1606139507.171,145.508,-15.625,-14.648,565.430,0.000
1606139507.175,-267.090,-28.809,-31.738,-597.168,0.000
1606139507.179,-372.070,-39.551,-43.945,-996.582,0.000
1606139507.183,-14.648,-27.832,-28.320,-49.805,0.000
1606139507.187,306.641,-17.578,-11.230,979.980,0.000
1606139507.191,185.059,-18.066,-20.508,676.270,0.000
1606139507.195,-234.863,-34.180,-42.480,-494.629,0.000
1606139507.199,-389.160,-48.340,-46.387,-1000.000,0.000
1606139507.203,-67.383,-31.738,-20.996,-228.516,0.000
1606139507.207,290.527,-7.812,-10.254,883.301,0.000
1606139507.210,231.445,-8.301,-23.926,789.062,0.000
1606139507.214,-184.570,-28.320,-38.086,-363.770,0.000
1606139507.218,-387.695,-38.574,-42.480,-1000.000,0.000
1606139507.222,-121.094,-25.391,-20.996,-379.883,0.000
1606139507.226,255.859,-9.277,-7.812,760.254,0.000
1606139507.230,272.949,-6.348,-12.695,870.605,0.000
1606139507.234,-125.000,-17.578,-29.785,-226.074,0.000
1606139507.238,-397.949,-41.016,-45.410,-1000.000,0.000
1606139507.242,-199.707,-41.504,-35.156,-561.523,0.000
1606139507.246,203.613,-18.555,-18.066,611.328,0.000
1606139507.250,279.785,-10.254,-16.602,930.664,0.000
1606139507.253,-94.238,-33.691,-32.227,-90.332,0.000
1606139507.257,-399.902,-53.223,-42.969,-1000.000,0.000
1606139507.261,-251.465,-46.387,-36.621,-693.359,0.000
1606139507.265,169.434,-21.973,-16.602,476.562,0.000
1606139507.269,313.965,-4.883,-9.277,992.676,0.000
1606139507.273,-28.320,-39.062,-24.902,80.078,0.000
1606139507.277,-385.742,-70.801,-46.875,-974.609,0.000
1606139507.281,-298.828,-58.105,-45.410,-796.387,0.000
1606139507.285,120.117,-31.738,-21.973,355.469,0.000
1606139507.289,305.664,-15.625,-8.301,-967.773,0.000
1606139507.293,20.020,-27.344,-12.207,264.160,0.000
1606139507.296,-353.516,-47.363,-31.250,-855.957,0.000
1606139507.300,-341.309,-53.223,-33.691,-884.766,0.000
1606139507.304,74.219,-30.273,-15.137,226.074,0.000
1606139507.308,318.848,-19.531,-16.602,-952.637,0.000
1606139507.312,81.543,-37.109,-31.738,434.570,0.000
1606139507.316,-318.359,-52.734,-43.945,-715.820,0.000
1606139507.320,-372.070,-49.316,-45.898,-958.008,0.000
1606139507.324,16.602,-26.367,-19.043,71.777,0.000
1606139507.328,309.570,-9.766,2.930,-968.750,0.000
1606139507.332,131.348,-14.648,-12.207,581.543,0.000
1606139507.335,-286.133,-29.785,-36.133,-589.844,0.000
1606139507.339,-395.020,-40.039,-45.898,-1000.000,0.000
1606139507.343,-39.062,-28.320,-37.598,-87.891,0.000
1606139507.347,301.758,-13.672,-19.043,963.867,0.000
1606139507.351,201.660,-14.160,-20.020,709.961,0.000
1606139507.355,-212.402,-31.250,-37.598,-460.449,0.000
1606139507.359,-376.953,-42.480,-40.527,-1000.000,0.000
1606139507.363,-66.895,-26.855,-18.066,-239.258,0.000
1606139507.367,296.387,-8.301,-0.488,871.094,0.000
1606139507.371,250.000,-15.625,-13.184,799.316,0.000
1606139507.375,-160.645,-15.137,-35.645,-344.727,0.000
1606139507.378,-376.465,-22.949,-35.645,-1000.000,0.000
1606139507.382,-122.070,-29.785,-26.367,-414.551,0.000
1606139507.386,259.766,-8.301,-18.066,731.445,0.000
1606139507.390,283.203,-6.836,-15.137,889.648,0.000
1606139507.394,-108.887,-31.738,-25.391,-186.523,0.000
1606139507.398,-382.812,-45.898,-39.551,-1000.000,0.000
1606139507.402,-185.059,-30.273,-28.320,-585.938,0.000
1606139507.406,219.727,-15.137,-8.789,583.984,0.000
1606139507.410,305.176,-9.277,-10.742,949.219,0.000
1606139507.414,-63.477,-14.648,-23.926,-42.969,0.000
1606139507.418,-381.348,-41.016,-35.645,-1000.000,0.000
1606139507.421,-253.906,-44.922,-34.668,-721.191,0.000
1606139507.425,159.668,-19.043,-23.926,449.707,0.000
1606139507.429,308.105,-10.254,-21.484,-996.582,0.000
1606139507.433,-11.719,-24.902,-27.344,127.441,0.000
1606139507.437,-359.375,-42.480,-40.527,-945.801,0.000
1606139507.441,-291.992,-42.480,-44.434,-817.383,0.000
1606139507.445,125.977,-28.809,-29.785,329.102,0.000
1606139507.449,324.219,-17.578,-20.020,-962.891,0.000
1606139507.453,49.805,-14.648,-27.832,315.918,0.000
1606139507.457,-323.242,-28.809,-42.969,-815.918,0.000
1606139507.460,-323.242,-41.504,-44.922,-895.996,0.000
1606139507.464,77.148,-24.902,-31.250,205.078,0.000
1606139507.468,326.172,-11.230,-14.648,-951.172,0.000
1606139507.472,105.957,-24.902,-23.438,475.098,0.000
1606139507.476,-301.270,-48.340,-44.922,-685.547,0.000
1606139507.480,-375.000,-53.711,-51.758,-964.355,0.000
1606139507.484,9.277,-34.668,-38.574,53.223,0.000
1606139507.488,315.918,-18.066,-21.973,-978.516,0.000
1606139507.492,159.668,-25.391,-21.973,620.117,0.000
1606139507.496,-254.395,-45.898,-36.133,-550.293,0.000
1606139507.500,-375.977,-50.293,-37.109,-1000.000,0.000
1606139507.503,-31.738,-34.668,-17.090,-106.445,0.000
1606139507.507,297.852,-17.578,-9.766,948.242,0.000
1606139507.511,197.754,-22.949,-12.207,722.168,0.000
1606139507.515,-228.027,-48.340,-43.457,-440.918,0.000
1606139507.519,-408.203,-56.641,-62.500,-1000.000,0.000
1606139507.523,-111.328,-42.969,-31.738,-291.504,0.000
1606139507.527,253.418,-26.367,-9.277,838.379,0.000
1606139507.531,224.609,-30.273,-14.160,818.848,0.000
1606139507.535,-180.176,-45.898,-27.344,-311.523,0.000
1606139507.539,-406.738,-53.711,-41.992,-1000.000,0.000
1606139507.543,-153.320,-43.945,-23.926,-463.867,0.000
1606139507.546,246.582,-21.973,4.395,696.777,0.000
1606139507.550,291.016,-10.254,-1.953,903.320,0.000
1606139507.554,-100.098,-26.367,-24.902,-162.598,0.000
1606139507.558,-383.789,-44.922,-42.480,-1000.000,0.000
1606139507.562,-199.707,-37.598,-33.691,-605.469,0.000
1606139507.566,207.520,-14.160,-9.766,565.918,0.000
1606139507.570,310.059,-7.324,-4.883,965.332,0.000
1606139507.574,-49.316,-26.855,-17.578,1.465,0.000
1606139507.578,-370.117,-44.922,-32.715,-1000.000,0.000
1606139507.582,-238.281,-34.180,-23.926,-714.355,0.000
1606139507.585,179.688,-11.230,-7.812,456.543,0.000
1606139507.589,327.148,-7.324,-5.371,-992.676,0.000
1606139507.593,10.254,-29.297,-16.113,176.758,0.000
1606139507.597,-343.262,-52.246,-33.203,-914.062,0.000
1606139507.601,-289.551,-47.852,-29.297,-825.684,0.000
1606139507.605,130.371,-22.461,-12.207,324.219,0.000
1606139507.609,337.891,-9.277,-12.207,-959.473,0.000
1606139507.613,66.895,-23.926,-21.484,336.426,0.000
1606139507.617,-311.523,-39.551,-41.992,-797.852,0.000
1606139507.621,-323.242,-37.598,-43.457,-910.645,0.000
1606139507.625,75.195,-17.090,-15.137,176.270,0.000
1606139507.628,338.379,-2.930,-5.371,-950.684,0.000
1606139507.632,131.348,-14.648,-16.113,509.766,0.000
1606139507.636,-270.996,-32.227,-30.762,-656.738,0.000
1606139507.640,-347.168,-42.969,-35.156,-973.145,0.000
1606139507.644,29.785,-29.785,-17.090,33.691,0.000
1606139507.648,330.078,-10.254,-5.371,-981.445,0.000
1606139507.652,171.875,-28.320,-24.414,632.812,0.000
1606139507.656,-245.605,-46.875,-42.969,-537.598,0.000
1606139507.660,-376.465,-47.363,-37.109,-1000.000,0.000
1606139507.664,-40.039,-29.297,-19.531,-149.414,0.000
1606139507.668,300.293,-6.836,-2.930,928.223,0.000
1606139507.671,218.750,-11.230,-4.883,751.953,0.000
1606139507.675,-202.637,-40.527,-30.762,-408.203,0.000
1606139507.679,-393.555,-53.223,-41.504,-1000.000,0.000
1606139507.683,-100.586,-28.320,-20.508,-324.707,0.000
1606139507.687,281.250,-5.371,5.371,808.594,0.000
1606139507.691,266.113,-7.324,2.441,837.891,0.000
1606139507.695,-142.090,-20.508,-25.391,-285.156,0.000
1606139507.699,-385.254,-41.992,-38.574,-1000.000,0.000
1606139507.703,-149.902,-34.180,-23.926,-487.793,0.000
1606139507.707,247.559,-11.719,-10.254,675.781,0.000
1606139507.710,287.109,-14.648,-9.766,907.227,0.000
1606139507.714,-94.727,-35.156,-21.973,-143.555,0.000
1606139507.718,-389.648,-48.828,-35.645,-1000.000,0.000
1606139507.722,-213.867,-31.738,-24.414,-628.906,0.000
1606139507.726,203.613,-12.207,-9.277,544.434,0.000
1606139507.730,310.547,-6.348,-9.277,970.703,0.000
1606139507.734,-35.156,-20.020,-22.949,28.809,0.000
1606139507.738,-362.793,-43.457,-39.551,-1000.000,0.000
1606139507.742,-250.488,-43.945,-32.715,-752.930,0.000
1606139507.746,169.434,-22.949,-13.184,412.598,0.000
1606139507.750,323.730,-17.578,-11.719,-984.863,0.000
1606139507.753,5.371,-22.461,-28.809,187.988,0.000
1606139507.757,-355.469,-36.133,-38.086,-906.738,0.000
1606139507.761,-308.105,-45.410,-30.273,-840.332,0.000
1606139507.765,112.793,-22.461,-12.695,292.480,0.000
1606139507.769,329.590,-10.742,-8.789,-958.008,0.000
1606139507.773,68.359,-27.832,-18.555,373.047,0.000
1606139507.777,-315.918,-52.734,-34.668,-770.508,0.000
1606139507.781,-340.820,-53.711,-41.016,-916.016,0.000
1606139507.785,59.082,-22.461,-20.996,167.480,0.000
1606139507.789,331.055,-11.230,-3.418,-951.172,0.000
1606139507.793,127.930,-27.344,-26.367,525.391,0.000
1606139507.796,-279.785,-48.828,-53.711,-638.184,0.000
1606139507.800,-364.746,-50.781,-45.898,-987.305,0.000
1606139507.804,4.395,-28.320,-21.973,-9.766,0.000
1606139507.808,317.383,-17.090,-11.230,-1000.000,0.000
1606139507.812,176.270,-23.926,-22.461,656.738,0.000
1606139507.816,-241.211,-42.969,-38.574,-515.137,0.000
1606139507.820,-379.395,-44.434,-30.273,-1000.000,0.000
1606139507.824,-48.340,-21.484,-18.555,-171.387,0.000
1606139507.828,296.875,-16.602,-19.531,911.133,0.000
1606139507.832,221.680,-10.742,-28.809,766.602,0.000
1606139507.835,-203.613,-3.906,-48.828,-388.672,0.000
1606139507.839,-405.762,-32.227,-44.434,-1000.000,0.000
1606139507.843,-123.535,-29.297,-24.902,-367.676,0.000
1606139507.847,258.301,-6.836,-9.766,781.250,0.000
1606139507.851,251.465,-12.207,-7.324,853.516,0.000
1606139507.855,-151.367,-39.062,-21.484,-259.766,0.000
1606139507.859,-379.883,-47.363,-30.762,-1000.000,0.000
1606139507.863,-146.484,-24.902,-24.902,-498.535,0.000
1606139507.867,238.281,-4.395,-13.672,661.621,0.000
1606139507.871,285.156,-0.977,-25.879,910.156,0.000
1606139507.875,-96.680,-17.578,-54.199,-132.812,0.000
1606139507.878,-385.742,-33.691,-62.988,-1000.000,0.000
1606139507.882,-218.750,-28.809,-47.852,-668.457,0.000
1606139507.886,196.777,-9.766,-35.156,500.488,0.000
1606139507.890,312.500,1.953,-37.109,974.609,0.000
1606139507.894,-38.574,6.348,-49.316,41.504,0.000
1606139507.898,-362.793,-19.531,-65.430,-988.770,0.000
1606139507.902,-263.672,-34.668,-59.082,-771.484,0.000
1606139507.906,141.602,-12.207,-42.480,386.719,0.000
1606139507.910,321.289,1.953,-32.227,-979.492,0.000
1606139507.914,26.367,-12.695,-37.598,224.609,0.000
1606139507.918,-337.402,-33.203,-52.246,-880.859,0.000
1606139507.921,-303.223,-32.227,-52.246,-858.887,0.000
1606139507.925,115.723,-2.441,-29.785,270.508,0.000
1606139507.929,349.609,1.465,-15.625,-955.078,0.000
1606139507.933,96.680,-3.906,-32.227,391.113,0.000
1606139507.937,-309.082,-11.719,-51.758,-750.977,0.000
1606139507.941,-348.145,-42.969,-50.293,-937.988,0.000
1606139507.945,49.805,-30.762,-35.645,120.117,0.000
1606139507.949,333.496,-9.766,-22.949,-960.938,0.000
1606139507.953,139.160,-19.531,-28.809,547.852,0.000
1606139507.957,-272.949,-39.062,-53.223,-615.234,0.000
1606139507.960,-362.305,-45.898,-54.688,-997.070,0.000
1606139507.964,0.977,-27.832,-30.273,-47.363,0.000
1606139507.968,319.824,-11.719,-15.625,981.934,0.000
1606139507.972,195.801,-16.113,-20.996,679.688,0.000
1606139507.976,-225.098,-37.598,-40.527,-488.770,0.000
1606139507.980,-380.859,-49.316,-51.758,-1000.000,0.000
1606139507.984,-58.594,-33.691,-35.156,-217.773,0.000
1606139507.988,296.387,-13.184,-19.043,886.719,0.000
1606139507.992,242.676,-12.207,-20.508,782.227,0.000
1606139507.996,-171.875,-29.785,-33.203,-365.234,0.000
1606139508.000,-387.695,-48.828,-44.922,-1000.000,0.000
1606139508.003,-117.676,-40.039,-33.691,-393.555,0.000
1606139508.007,266.113,-15.137,-14.648,759.277,0.000
1606139508.011,268.555,-17.090,-19.531,864.746,0.000
1606139508.015,-134.766,-41.016,-41.992,-239.746,0.000
1606139508.019,-392.578,-54.199,-45.410,-1000.000,0.000
1606139508.023,-181.641,-44.434,-35.156,-546.875,0.000
1606139508.027,222.656,-18.555,-23.438,617.676,0.000
1606139508.031,294.434,-10.254,-23.438,925.781,0.000
1606139508.035,-75.684,-16.113,-34.180,-93.262,0.000
1606139508.039,-376.465,-36.133,-41.504,-1000.000,0.000
1606139508.043,-230.957,-38.086,-39.551,-679.199,0.000
1606139508.046,192.871,-16.113,-14.160,493.652,0.000
1606139508.050,323.242,-9.766,-7.324,986.816,0.000
1606139508.054,-17.578,-22.461,-28.320,86.426,0.000
1606139508.058,-358.887,-43.457,-40.039,-970.215,0.000
1606139508.062,-272.461,-36.133,-23.926,-783.203,0.000
1606139508.066,147.461,-19.043,-13.184,376.953,0.000
1606139508.070,332.031,-10.742,-15.625,-968.750,0.000
1606139508.074,45.410,-12.207,-21.484,275.391,0.000
1606139508.078,-320.801,-39.062,-42.969,-846.680,0.000
1606139508.082,-302.734,-50.293,-43.945,-873.535,0.000
1606139508.085,105.469,-32.227,-17.578,245.117,0.000
1606139508.089,341.309,-21.973,-8.789,-951.660,0.000
1606139508.093,107.910,-24.414,-16.113,439.941,0.000
1606139508.097,-281.250,-38.574,-34.180,-711.914,0.000
1606139508.101,-331.543,-41.992,-40.527,-948.730,0.000
1606139508.105,41.016,-26.855,-25.879,84.961,0.000
1606139508.109,316.895,-30.762,-19.043,-969.727,0.000
1606139508.113,139.648,0.488,-23.438,579.102,0.000
1606139508.117,-271.484,4.883,-39.062,-590.820,0.000
1606139508.121,-382.812,-51.758,-44.922,-1000.000,0.000
1606139508.125,-30.273,-48.828,-34.668,-87.402,0.000
1606139508.128,307.617,-25.879,-18.066,964.355,0.000
1606139508.132,202.637,-26.367,-20.020,701.172,0.000
1606139508.136,-215.332,-48.828,-43.457,-467.285,0.000
1606139508.140,-387.207,-60.059,-55.176,-1000.000,0.000
1606139508.144,-81.543,-45.410,-37.598,-250.488,0.000
1606139508.148,279.297,-25.391,-20.020,868.164,0.000
1606139508.152,223.633,-23.926,-24.414,791.992,0.000
1606139508.156,-199.707,-42.969,-43.457,-359.863,0.000
1606139508.160,-412.598,-55.176,-51.758,-1000.000,0.000
1606139508.164,-151.855,-39.551,-39.551,-427.734,0.000
1606139508.168,237.305,-20.508,-22.461,722.168,0.000
1606139508.171,262.207,-1.953,-19.043,874.512,0.000
1606139508.175,-140.137,-14.648,-36.621,-219.238,0.000
1606139508.179,-405.762,-55.664,-42.480,-1000.000,0.000
1606139508.183,-204.102,-46.875,-29.785,-583.984,0.000
1606139508.187,205.078,-23.438,-22.949,587.402,0.000
1606139508.191,291.504,-22.461,-17.090,943.848,0.000
1606139508.195,-83.008,-40.039,-17.578,-56.152,0.000
1606139508.199,-396.484,-58.105,-33.203,-1000.000,0.000
1606139508.203,-246.094,-41.504,-25.879,-686.035,0.000
1606139508.207,169.922,-21.484,-10.254,485.352,0.000
1606139508.210,303.711,-21.973,-11.230,995.117,0.000
1606139508.214,-29.297,-16.602,-21.973,107.910,0.000
1606139508.218,-382.324,-41.992,-48.828,-958.984,0.000
1606139508.222,-305.176,-53.223,-52.734,-800.781,0.000
1606139508.226,117.676,-33.203,-24.414,348.145,0.000
1606139508.230,321.289,-18.555,-11.719,-962.891,0.000
1606139508.234,40.039,-30.762,-28.320,300.293,0.000
1606139508.238,-340.332,-54.199,-41.504,-832.520,0.000
1606139508.242,-335.449,-52.246,-38.574,-888.672,0.000
1606139508.246,70.801,-34.180,-21.973,216.797,0.000
1606139508.250,317.871,-18.066,-8.789,-950.684,0.000
1606139508.253,99.121,-13.672,-24.902,465.332,0.000
1606139508.257,-300.293,-35.156,-40.527,-694.336,0.000
1606139508.261,-363.770,-55.176,-42.969,-960.938,0.000
1606139508.265,24.902,-41.992,-27.832,59.082,0.000
1606139508.269,322.266,-20.996,-12.695,-976.562,0.000
1606139508.273,150.879,-16.602,-25.391,593.262,0.000
1606139508.277,-259.766,-38.086,-42.969,-575.195,0.000
1606139508.281,-373.047,-51.270,-40.039,-1000.000,0.000
1606139508.285,-26.855,-32.715,-29.785,-110.840,0.000
1606139508.289,302.734,-12.695,-17.090,950.195,0.000
1606139508.293,193.848,-20.996,-23.926,713.379,0.000
1606139508.296,-225.098,-42.969,-42.480,-453.613,0.000
1606139508.300,-396.973,-53.223,-48.340,-1000.000,0.000
1606139508.304,-94.727,-41.016,-33.203,-288.574,0.000
1606139508.308,268.555,-26.367,-14.648,835.938,0.000
1606139508.312,237.305,-1.465,-20.020,815.430,0.000
1606139508.316,-165.039,-2.930,-37.109,-319.336,0.000
1606139508.320,-385.742,-38.086,-47.852,-1000.000,0.000
1606139508.324,-136.230,-31.250,-31.250,-441.895,0.000
1606139508.328,248.535,-9.766,-13.184,712.891,0.000
1606139508.332,277.344,-10.254,-18.555,889.160,0.000
1606139508.335,-116.699,-35.645,-36.133,-185.547,0.000
1606139508.339,-398.438,-51.758,-41.016,-1000.000,0.000
1606139508.343,-207.520,-41.016,-32.227,-595.703,0.000
1606139508.347,207.031,-21.484,-11.230,575.684,0.000
1606139508.351,303.711,0.488,0.000,954.590,0.000
1606139508.355,-63.965,-7.812,-26.367,-23.438,0.000
1606139508.359,-383.301,-48.340,-45.898,-1000.000,0.000
1606139508.363,-250.977,-47.363,-32.715,-718.262,0.000
1606139508.367,166.504,-25.879,-16.113,450.195,0.000
1606139508.371,318.359,-16.602,-10.254,-996.094,0.000
1606139508.375,-4.395,-28.809,-26.855,146.484,0.000
1606139508.378,-360.352,-45.898,-50.293,-932.129,0.000
1606139508.382,-298.828,-41.992,-49.316,-822.266,0.000
1606139508.386,125.000,-21.973,-26.855,320.801,0.000
1606139508.390,337.402,-3.418,-14.648,-958.496,0.000
1606139508.394,65.918,-8.301,-20.508,341.797,0.000
1606139508.398,-315.918,-45.410,-42.969,-797.852,0.000
1606139508.402,-324.219,-54.688,-57.129,-910.156,0.000
1606139508.406,74.219,-26.855,-41.504,180.176,0.000
1606139508.410,332.031,-11.230,-28.809,-956.055,0.000
1606139508.414,118.164,-21.484,-32.227,483.398,0.000
1606139508.418,-290.039,-43.457,-43.457,-673.340,0.000
1606139508.421,-366.211,-50.781,-44.922,-971.191,0.000
1606139508.425,6.836,-33.203,-24.414,32.715,0.000
1606139508.429,319.824,-8.301,-11.719,-983.398,0.000
1606139508.433,172.852,-10.742,-19.531,625.000,0.000
1606139508.437,-249.512,-34.668,-33.691,-545.898,0.000
1606139508.441,-380.371,-41.016,-41.992,-1000.000,0.000
1606139508.445,-41.504,-25.879,-33.203,-136.719,0.000
1606139508.449,299.805,-17.090,-17.578,932.617,0.000
1606139508.453,210.938,3.418,-17.090,739.258,0.000
1606139508.457,-208.008,-13.184,-31.738,-423.340,0.000
1606139508.460,-391.602,-46.875,-34.180,-1000.000,0.000
1606139508.464,-98.145,-27.832,-19.043,-312.988,0.000
1606139508.468,270.996,-14.648,-6.836,819.824,0.000
1606139508.472,250.488,-11.230,-14.160,828.125,0.000
1606139508.476,-157.227,-26.367,-24.902,-300.781,0.000
1606139508.480,-397.461,-42.969,-31.250,-1000.000,0.000
1606139508.484,-155.273,-24.902,-24.414,-470.215,0.000
1606139508.488,240.234,-13.184,-12.695,691.406,0.000
1606139508.492,276.855,5.371,-19.043,897.461,0.000
1606139508.496,-116.699,14.160,-33.203,-169.434,0.000
1606139508.500,-402.344,-35.156,-40.527,-1000.000,0.000
1606139508.503,-216.309,-37.109,-28.320,-619.141,0.000
1606139508.507,204.102,-12.695,-10.254,554.688,0.000
1606139508.511,312.988,-9.277,-9.766,960.449,0.000
1606139508.515,-46.875,-33.203,-37.598,-5.859,0.000
1606139508.519,-367.188,-52.246,-49.316,-1000.000,0.000
1606139508.523,-244.629,-39.062,-35.645,-735.840,0.000
1606139508.527,166.504,-25.391,-15.625,427.734,0.000
1606139508.531,321.777,-5.371,-9.277,-982.910,0.000
1606139508.535,21.484,0.000,-27.344,186.523,0.000
1606139508.539,-338.867,-34.180,-40.039,-912.598,0.000
1606139508.543,-299.316,-43.457,-40.527,-839.355,0.000
1606139508.546,118.652,-29.297,-21.484,296.387,0.000
1606139508.550,335.938,-15.625,-8.789,-957.031,0.000
1606139508.554,76.172,-27.344,-18.066,356.445,0.000
1606139508.558,-313.965,-50.781,-35.156,-784.668,0.000
1606139508.562,-342.285,-51.270,-38.574,-919.434,0.000
1606139508.566,64.453,-25.391,-17.090,157.715,0.000
1606139508.570,340.820,-7.812,-8.301,-952.148,0.000
1606139508.574,131.836,-19.531,-21.484,504.395,0.000
1606139508.578,-262.695,-39.062,-36.133,-647.461,0.000
1606139508.582,-336.914,-40.039,-40.039,-961.426,0.000
1606139508.585,19.531,-20.996,-22.949,5.859,0.000
1606139508.589,326.172,-14.648,-5.371,-996.094,0.000
1606139508.593,175.781,-2.441,-20.020,637.695,0.000
1606139508.597,-245.117,-8.789,-37.598,-529.785,0.000
1606139508.601,-380.371,-42.969,-35.156,-1000.000,0.000
1606139508.605,-41.504,-31.250,-22.949,-169.434,0.000
1606139508.609,307.617,-12.695,-10.742,916.504,0.000
1606139508.613,219.727,-17.578,-20.996,747.559,0.000
1606139508.617,-205.078,-39.062,-42.969,-412.109,0.000
1606139508.621,-396.973,-45.410,-50.293,-1000.000,0.000
1606139508.625,-113.770,-31.738,-34.668,-352.539,0.000
1606139508.628,263.672,-22.461,-13.184,795.898,0.000
1606139508.632,260.742,-4.883,-17.090,839.355,0.000
1606139508.636,-144.043,-24.902,-35.156,-283.691,0.000
1606139508.640,-401.855,-67.383,-41.992,-1000.000,0.000
1606139508.644,-182.129,-55.664,-29.785,-512.695,0.000
1606139508.648,220.215,-30.762,-11.230,653.320,0.000
1606139508.652,274.414,-20.020,-3.418,905.273,0.000
1606139508.656,-111.816,-40.527,-20.996,-151.367,0.000
1606139508.660,-395.508,-53.223,-39.062,-1000.000,0.000
1606139508.664,-226.074,-46.387,-31.250,-652.344,0.000
1606139508.668,185.547,-36.621,-13.672,513.672,0.000
1606139508.671,306.641,-16.602,-5.859,979.004,0.000
1606139508.675,-34.668,-22.949,-15.625,48.828,0.000
1606139508.679,-363.770,-57.617,-38.574,-991.211,0.000
1606139508.683,-262.695,-53.223,-43.457,-760.742,0.000
1606139508.687,153.809,-36.621,-21.484,401.855,0.000
1606139508.691,329.590,-15.625,-14.160,-979.980,0.000
1606139508.695,27.832,-6.836,-28.320,208.496,0.000
1606139508.699,-334.961,-35.645,-41.504,-894.043,0.000
1606139508.703,-296.387,-43.945,-31.250,-846.680,0.000
1606139508.707,116.211,-29.297,-14.648,284.668,0.000
1606139508.710,337.891,-14.160,-13.184,-953.613,0.000
1606139508.714,87.402,-22.461,-23.926,389.160,0.000
1606139508.718,-297.852,-35.645,-41.016,-758.789,0.000
1606139508.722,-326.660,-36.621,-41.504,-927.246,0.000
1606139508.726,65.918,-29.297,-32.227,138.672,0.000
1606139508.730,339.355,-7.324,-17.090,-958.984,0.000
1606139508.734,140.137,1.953,-17.090,537.598,0.000
1606139508.738,-270.508,-34.180,-38.086,-627.930,0.000
1606139508.742,-356.445,-53.711,-40.039,-983.887,0.000
1606139508.746,8.789,-34.180,-19.043,-15.137,0.000
1606139508.750,332.031,-10.742,-2.930,-993.164,0.000
1606139508.753,185.059,-19.043,-14.648,637.695,0.000
1606139508.757,-243.652,-50.781,-45.410,-550.781,0.000
1606139508.761,-365.723,-49.805,-46.387,-1000.000,0.000
1606139508.765,-39.062,-26.367,-30.273,-185.059,0.000
1606139508.769,304.199,-15.625,-14.160,906.250,0.000
1606139508.773,229.980,5.859,-12.207,767.578,0.000
1606139508.777,-187.012,-4.883,-34.668,-386.719,0.000
1606139508.781,-389.648,-47.852,-40.039,-1000.000,0.000
1606139508.785,-119.141,-40.527,-22.461,-370.605,0.000
1606139508.789,258.789,-21.973,-8.301,775.391,0.000
1606139508.793,261.230,-24.902,-12.695,855.957,0.000
1606139508.796,-135.254,-37.109,-23.926,-252.930,0.000
1606139508.800,-386.230,-45.898,-34.180,-1000.000,0.000
1606139508.804,-172.852,-40.527,-35.645,-526.855,0.000
1606139508.808,229.492,-19.531,-18.555,638.184,0.000
1606139508.812,296.875,-10.742,-12.695,927.734,0.000
1606139508.816,-86.914,-35.156,-34.668,-102.539,0.000
1606139508.820,-389.648,-50.781,-44.922,-1000.000,0.000
1606139508.824,-234.863,-42.480,-29.297,-673.340,0.000
1606139508.828,176.270,-32.715,-10.742,496.094,0.000
1606139508.832,306.152,0.000,-11.719,980.957,0.000
1606139508.835,-37.109,-7.324,-29.297,58.594,0.000
1606139508.839,-379.395,-52.246,-34.668,-983.398,0.000
1606139508.843,-281.250,-48.828,-32.227,-775.391,0.000
1606139508.847,139.648,-24.414,-22.461,381.836,0.000
1606139508.851,320.312,-8.789,-14.160,-972.656,0.000
1606139508.855,25.879,-31.250,-32.715,241.211,0.000
1606139508.859,-341.797,-49.316,-44.434,-875.977,0.000
1606139508.863,-313.477,-37.109,-27.344,-860.840,0.000
1606139508.867,94.238,-30.762,-9.277,265.137,0.000
1606139508.871,325.195,-16.602,-6.836,-954.590,0.000
1606139508.875,78.613,17.090,-12.695,403.320,0.000
1606139508.878,-316.895,-10.254,-32.715,-742.676,0.000
1606139508.882,-355.469,-49.316,-43.945,-938.965,0.000
1606139508.886,37.598,-35.645,-18.555,114.258,0.000
1606139508.890,324.219,-14.648,-3.418,-962.402,0.000
1606139508.894,140.137,-22.461,-20.996,556.152,0.000
1606139508.898,-266.602,-44.434,-35.156,-610.352,0.000
1606139508.902,-365.723,-46.387,-38.574,-998.047,0.000
1606139508.906,-5.371,-32.715,-29.785,-39.551,0.000
1606139508.910,314.941,-14.648,-10.254,988.770,0.000
1606139508.914,186.523,-1.465,-20.996,677.734,0.000
1606139508.918,-231.934,-31.738,-41.016,-487.793,0.000
1606139508.921,-389.648,-56.641,-44.434,-1000.000,0.000
1606139508.925,-69.336,-34.180,-29.297,-231.934,0.000
1606139508.929,288.086,-13.184,-12.695,880.859,0.000
1606139508.933,229.980,-15.625,-12.695,785.645,0.000
1606139508.937,-184.570,-36.621,-19.531,-364.258,0.000
1606139508.941,-393.555,-45.898,-32.715,-1000.000,0.000
1606139508.945,-129.395,-28.809,-34.180,-402.832,0.000
1606139508.949,250.488,-14.648,-23.926,746.582,0.000
1606139508.953,258.789,-9.766,-22.949,864.746,0.000
1606139508.957,-133.301,-26.855,-39.551,-238.281,0.000
1606139508.960,-389.648,-56.641,-46.387,-1000.000,0.000
1606139508.964,-187.012,-47.852,-31.738,-572.266,0.000
1606139508.968,218.262,-25.879,-11.719,598.145,0.000
1606139508.972,299.805,7.324,-11.230,936.035,0.000
1606139508.976,-72.266,0.000,-29.785,-80.078,0.000
1606139508.980,-378.906,-48.828,-43.457,-1000.000,0.000
1606139508.984,-237.793,-48.340,-44.922,-688.965,0.000
1606139508.988,171.387,-25.391,-27.344,480.957,0.000
1606139508.992,300.781,-6.836,-25.879,983.398,0.000
1606139508.996,-39.062,-21.973,-41.504,69.824,0.000
1606139509.000,-379.395,-46.387,-42.969,-973.145,0.000
1606139509.003,-292.480,-43.457,-38.086,-797.852,0.000
1606139509.007,122.070,-28.320,-25.879,347.656,0.000
1606139509.011,310.059,-13.672,-21.484,-972.168,0.000
1606139509.015,24.414,-26.367,-37.598,252.930,0.000
1606139509.019,-346.191,-59.082,-55.176,-862.793,0.000
1606139509.023,-327.148,-52.734,-47.363,-881.836,0.000
1606139509.027,81.055,-26.855,-20.020,226.074,0.000
1606139509.031,321.289,-16.602,-12.695,-951.660,0.000
1606139509.035,91.309,-22.949,-31.250,436.523,0.000
1606139509.039,-302.734,-43.457,-51.270,-718.262,0.000
1606139509.043,-350.098,-50.293,-48.340,-951.172,0.000
1606139509.046,37.109,-32.227,-28.809,84.961,0.000
1606139509.050,325.195,-10.742,-17.090,-966.797,0.000
1606139509.054,146.973,-5.371,-27.832,584.473,0.000
1606139509.058,-266.113,-39.062,-49.805,-586.914,0.000
1606139509.062,-373.535,-61.523,-45.410,-1000.000,0.000
1606139509.066,-20.996,-39.551,-23.438,-83.008,0.000
1606139509.070,308.594,-21.484,-9.766,966.797,0.000
1606139509.074,189.453,-30.762,-20.996,692.383,0.000
1606139509.078,-232.422,-45.898,-40.039,-477.539,0.000
1606139509.082,-396.973,-48.828,-43.945,-1000.000,0.000
1606139509.085,-84.961,-30.762,-29.785,-261.230,0.000
1606139509.089,290.039,-6.836,-20.996,859.375,0.000
1606139509.093,252.441,-11.230,-24.902,802.246,0.000
1606139509.097,-169.434,-36.621,-39.551,-338.867,0.000
1606139509.101,-393.555,-52.734,-48.340,-1000.000,0.000
1606139509.105,-134.766,-41.016,-33.691,-427.734,0.000
1606139509.109,254.395,-14.648,-12.207,731.445,0.000
1606139509.113,277.344,-1.465,-12.695,883.789,0.000
1606139509.117,-117.188,-31.250,-35.645,-206.055,0.000
1606139509.121,-385.254,-52.246,-48.340,-1000.000,0.000
1606139509.125,-185.547,-40.039,-41.016,-584.961,0.000
1606139509.128,223.633,-22.461,-20.996,587.891,0.000
1606139509.132,315.918,-12.695,-14.648,946.289,0.000
1606139509.136,-48.828,-32.227,-30.273,-52.246,0.000
1606139509.140,-365.723,-52.246,-35.156,-1000.000,0.000
1606139509.144,-230.957,-43.457,-27.832,-698.242,0.000
1606139509.148,185.547,-26.855,-15.625,472.656,0.000
1606139509.152,319.824,-12.207,-18.066,995.117,0.000
1606139509.156,-7.324,-20.996,-34.668,115.234,0.000
1606139509.160,-346.191,-42.480,-43.457,-950.195,0.000
1606139509.164,-274.414,-38.574,-36.621,-805.664,0.000
1606139509.168,143.066,-21.484,-20.020,345.703,0.000
1606139509.171,342.285,-7.324,-7.812,-963.379,0.000
1606139509.175,58.594,-22.949,-17.578,292.969,0.000
1606139509.179,-323.730,-49.805,-41.504,-834.473,0.000
1606139509.183,-319.336,-43.457,-41.504,-896.484,0.000
1606139509.187,90.332,-20.996,-13.184,206.543,0.000
1606139509.191,339.355,-7.812,-0.977,-950.684,0.000
1606139509.195,109.863,-21.484,-19.043,457.520,0.000
1606139509.199,-291.504,-45.410,-36.621,-700.195,0.000
1606139509.203,-348.633,-47.852,-39.551,-956.055,0.000
1606139509.207,43.945,-31.738,-21.973,73.242,0.000
1606139509.210,339.355,-6.348,-8.301,-972.656,0.000
1606139509.214,168.945,-5.371,-21.973,610.840,0.000
1606139509.218,-240.234,-37.598,-42.480,-557.617,0.000
1606139509.222,-358.398,-47.852,-47.852,-1000.000,0.000
1606139509.226,-15.625,-31.250,-24.902,-93.262,0.000
1606139509.230,310.547,-15.625,-10.254,957.031,0.000
1606139509.234,203.613,-7.812,-21.973,718.262,0.000
1606139509.238,-214.355,-21.973,-39.062,-442.871,0.000
1606139509.242,-393.066,-46.387,-47.852,-1000.000,0.000
1606139509.246,-95.703,-39.062,-27.832,-291.504,0.000
1606139509.250,272.949,-21.484,-10.742,838.379,0.000
1606139509.253,240.723,-15.137,-18.066,814.941,0.000
1606139509.257,-168.945,-34.180,-30.762,-321.289,0.000
1606139509.261,-389.160,-53.711,-36.621,-1000.000,0.000
1606139509.265,-137.207,-39.062,-25.879,-440.430,0.000
1606139509.269,246.094,-21.973,-14.160,717.285,0.000
1606139509.273,270.020,-30.273,-15.625,888.184,0.000
1606139509.277,-119.629,-42.969,-32.715,-187.988,0.000
1606139509.281,-392.090,-48.828,-43.457,-1000.000,0.000
1606139509.285,-210.938,-42.969,-31.250,-595.703,0.000
1606139509.289,185.547,-32.715,-9.766,572.266,0.000
1606139509.293,282.227,-5.859,-3.906,951.660,0.000
1606139509.296,-87.402,-16.602,-24.414,-39.062,0.000
1606139509.300,-407.715,-50.781,-41.016,-1000.000,0.000
1606139509.304,-270.020,-43.457,-31.250,-715.332,0.000
1606139509.308,153.809,-20.020,-11.230,450.195,0.000
1606139509.312,309.570,-14.160,-7.812,-993.652,0.000
1606139509.316,-5.859,-35.156,-21.484,153.320,0.000
1606139509.320,-356.445,-56.641,-35.645,-929.688,0.000
1606139509.324,-299.805,-53.223,-42.480,-823.242,0.000
1606139509.328,114.746,-34.180,-21.973,319.824,0.000
1606139509.332,326.660,-12.695,-2.930,-956.543,0.000
1606139509.335,51.758,-12.695,-21.484,325.684,0.000
1606139509.339,-333.496,-44.922,-40.527,-818.359,0.000
1606139509.343,-330.078,-49.805,-32.227,-900.879,0.000
1606139509.347,79.102,-22.949,-14.160,198.730,0.000
1606139509.351,336.426,-8.301,-2.441,-949.707,0.000
1606139509.355,118.164,-30.762,-20.020,485.840,0.000
1606139509.359,-285.156,-56.641,-36.621,-675.781,0.000
1606139509.363,-354.980,-58.594,-38.086,-967.285,0.000
1606139509.367,23.438,-38.086,-26.367,45.410,0.000
1606139509.371,325.195,-20.020,-11.230,-982.422,0.000
1606139509.375,169.434,-21.484,-19.531,624.023,0.000
1606139509.378,-252.441,-34.668,-41.992,-543.457,0.000
1606139509.382,-384.766,-43.457,-49.316,-1000.000,0.000
1606139509.386,-45.898,-35.156,-27.832,-139.160,0.000
1606139509.390,291.504,-12.207,-10.742,932.617,0.000
1606139509.394,199.707,-9.277,-15.625,733.887,0.000
1606139509.398,-222.656,-39.062,-32.715,-429.688,0.000
1606139509.402,-407.227,-55.664,-35.645,-1000.000,0.000
1606139509.406,-108.887,-40.527,-23.438,-303.711,0.000
1606139509.410,259.277,-22.461,-21.484,829.102,0.000
1606139509.414,229.004,-17.578,-22.949,821.777,0.000
1606139509.418,-183.105,-42.480,-30.273,-312.012,0.000
1606139509.421,-410.645,-61.523,-38.086,-1000.000,0.000
1606139509.425,-159.180,-42.969,-31.250,-466.309,0.000
1606139509.429,238.770,-17.578,-10.254,693.359,0.000
1606139509.433,276.855,-9.277,-11.230,893.555,0.000
1606139509.437,-118.164,-36.133,-40.039,-181.152,0.000
1606139509.441,-388.672,-51.758,-45.410,-1000.000,0.000
1606139509.445,-193.359,-35.156,-24.902,-615.723,0.000
1606139509.449,212.402,-23.438,-16.113,553.223,0.000
1606139509.453,309.570,-14.648,-15.625,957.031,0.000
1606139509.457,-49.805,-25.391,-32.715,-13.184,0.000
1606139509.460,-366.699,-46.387,-43.945,-1000.000,0.000
1606139509.464,-244.629,-40.039,-28.809,-733.398,0.000
1606139509.468,174.316,-22.461,-11.230,433.594,0.000
1606139509.472,333.984,-1.953,-7.812,-983.887,0.000
1606139509.476,12.695,2.441,-15.137,174.316,0.000
1606139509.480,-357.910,-40.527,-48.340,-918.945,0.000
1606139509.484,-308.105,-49.805,-50.293,-841.797,0.000
1606139509.488,114.746,-23.438,-19.531,294.434,0.000
1606139509.492,329.590,-15.625,-16.602,-962.891,0.000
1606139509.496,66.406,-30.273,-30.273,331.055,0.000
1606139509.500,-321.777,-49.805,-44.922,-800.781,0.000
1606139509.503,-342.285,-46.387,-41.992,-916.504,0.000
1606139509.507,62.012,-22.949,-17.090,164.551,0.000
1606139509.511,325.684,-7.812,-1.953,-957.031,0.000
1606139509.515,108.887,-16.602,-15.137,502.930,0.000
1606139509.519,-295.410,-35.645,-38.574,-655.273,0.000
1606139509.523,-363.770,-41.016,-46.387,-979.004,0.000
1606139509.527,-3.418,-31.738,-21.973,-8.301,0.000
1606139509.531,272.461,-17.578,2.930,996.582,0.000
1606139509.535,110.840,7.812,-6.348,599.121,0.000
1606139509.539,-300.293,-19.043,-27.344,-571.777,0.000
1606139509.543,-424.805,-47.852,-26.367,-1000.000,0.000
1606139509.546,-104.004,-31.250,-3.906,-220.703,0.000
1606139509.550,245.117,-16.113,4.883,895.020,0.000
1606139509.554,177.734,-20.020,-1.953,727.539,0.000
1606139509.558,-251.465,-50.293,-23.926,-447.266,0.000
1606139509.562,-432.617,-58.594,-35.645,-1000.000,0.000
1606139509.566,-129.395,-38.086,-17.578,-362.793,0.000
1606139509.570,246.094,-21.484,-2.930,783.691,0.000
1606139509.574,238.281,-1.953,-7.812,834.961,0.000
1606139509.578,-168.457,-29.785,-29.785,-300.293,0.000
1606139509.582,-400.391,-55.664,-35.645,-1000.000,0.000
1606139509.585,-155.762,-34.668,-26.367,-496.094,0.000
1606139509.589,239.258,-15.137,-14.648,663.574,0.000
1606139509.593,292.480,-14.160,-10.742,911.621,0.000
1606139509.597,-87.402,-38.574,-27.832,-136.230,0.000
1606139509.601,-378.906,-56.641,-38.574,-1000.000,0.000
1606139509.605,-204.102,-44.922,-34.180,-631.348,0.000
1606139509.609,213.867,-25.391,-17.578,534.668,0.000
1606139509.613,328.613,7.324,-13.672,979.980,0.000
1606139509.617,-25.391,6.836,-34.668,48.340,0.000
1606139509.621,-358.887,-45.410,-45.410,-997.559,0.000
1606139509.625,-249.512,-52.246,-39.062,-749.512,0.000
1606139509.628,171.387,-30.762,-18.066,414.551,0.000
1606139509.632,339.355,-20.508,-6.348,-977.051,0.000
1606139509.636,29.297,-32.715,-20.508,222.656,0.000
1606139509.640,-342.285,-53.223,-37.109,-891.113,0.000
1606139509.644,-302.246,-50.781,-34.180,-841.309,0.000
1606139509.648,115.723,-28.809,-17.578,297.852,0.000
1606139509.652,333.984,-20.996,-3.418,-955.566,0.000
1606139509.656,79.102,-33.203,-17.090,384.277,0.000
1606139509.660,-306.152,-45.898,-30.762,-758.789,0.000
1606139509.664,-334.473,-49.316,-34.668,-926.270,0.000
1606139509.668,57.129,-30.273,-27.832,145.020,0.000
1606139509.671,327.148,-6.836,-11.719,-956.055,0.000
1606139509.675,127.930,-9.766,-25.879,525.879,0.000
1606139509.679,-276.855,-46.387,-46.387,-638.184,0.000
1606139509.683,-363.770,-59.570,-48.340,-985.840,0.000
1606139509.687,1.953,-33.691,-29.297,-13.184,0.000
1606139509.691,323.730,-11.719,-12.207,997.559,0.000
1606139509.695,187.500,-16.113,-24.902,658.691,0.000
1606139509.699,-230.469,-35.645,-38.574,-510.254,0.000
1606139509.703,-377.930,-41.504,-44.922,-1000.000,0.000
1606139509.707,-50.781,-27.832,-34.180,-184.082,0.000
1606139509.710,304.199,-5.859,-19.043,907.715,0.000
1606139509.714,228.516,20.020,-29.297,760.254,0.000
1606139509.718,-193.848,-4.395,-41.992,-398.438,0.000
1606139509.722,-389.160,-39.062,-51.758,-1000.000,0.000
1606139509.726,-104.980,-31.250,-40.527,-360.840,0.000
1606139509.730,276.855,-18.066,-14.648,781.250,0.000
1606139509.734,268.066,-18.066,-14.648,847.656,0.000
1606139509.738,-140.625,-35.156,-31.250,-270.996,0.000
1606139509.742,-390.137,-45.410,-41.504,-1000.000,0.000
1606139509.746,-166.504,-37.109,-37.598,-524.414,0.000
1606139509.750,231.934,-17.090,-22.949,642.578,0.000
1606139509.753,291.504,-7.324,-22.461,921.875,0.000
1606139509.757,-82.520,-24.902,-32.715,-110.840,0.000
1606139509.761,-378.906,-49.316,-41.016,-1000.000,0.000
1606139509.765,-216.309,-44.922,-31.250,-650.879,0.000
1606139509.769,203.613,-15.625,-11.230,520.020,0.000
1606139509.773,323.730,-2.930,-11.719,983.887,0.000
1606139509.777,-18.555,-24.414,-21.484,68.848,0.000
1606139509.781,-347.656,-45.898,-24.902,-980.957,0.000
1606139509.785,-252.930,-37.109,-24.414,-771.484,0.000
1606139509.789,175.293,-14.648,-15.137,423.340,0.000
1606139509.793,328.613,-3.906,-8.789,959.473,0.000
1606139509.796,12.207,-17.090,-23.438,125.488,0.000
1606139509.800,-316.895,-31.738,-42.480,-862.793,0.000
1606139509.804,-291.504,-34.668,-43.945,-865.234,0.000
1606139509.808,117.676,-25.391,-20.996,255.371,0.000
1606139509.812,344.238,6.836,-14.160,-954.590,0.000
1606139509.816,89.355,23.438,-32.715,395.020,0.000
1606139509.820,-307.129,-27.832,-43.457,-752.441,0.000
1606139509.824,-339.355,-48.340,-43.457,-934.082,0.000
1606139509.828,67.383,-15.625,-29.297,129.395,0.000
1606139509.832,328.125,-6.348,-14.160,-958.984,0.000
1606139509.835,108.887,-23.438,-22.461,526.367,0.000
1606139509.839,-297.852,-39.062,-41.992,-635.254,0.000
1606139509.843,-389.160,-42.480,-47.363,-992.676,0.000
1606139509.847,-33.203,-30.762,-29.297,-42.480,0.000
1606139509.851,290.527,-11.230,-9.766,983.398,0.000
1606139509.855,174.316,-18.066,-15.625,676.270,0.000
1606139509.859,-240.723,-37.109,-33.691,-494.629,0.000
1606139509.863,-391.602,-39.551,-39.062,-1000.000,0.000
1606139509.867,-64.941,-27.344,-25.391,-215.820,0.000
1606139509.871,293.945,-6.836,-12.695,887.695,0.000
1606139509.875,238.770,-12.695,-18.066,781.738,0.000
1606139509.878,-175.293,-38.086,-33.203,-364.746,0.000
1606139509.882,-386.719,-51.758,-47.852,-1000.000,0.000
1606139509.886,-107.422,-38.574,-37.598,-379.883,0.000
1606139509.890,259.277,-11.719,-13.672,726.562,0.000
1606139509.894,262.695,4.395,-17.090,817.383,0.000
1606139509.898,-118.652,-24.902,-34.180,-225.098,0.000
1606139509.902,-394.043,-55.176,-43.945,-1000.000,0.000
1606139509.906,-180.664,-42.480,-29.785,-545.898,0.000
1606139509.910,228.027,-23.926,-13.184,627.441,0.000
1606139509.914,302.734,-19.531,-16.602,932.129,0.000
1606139509.918,-77.148,-39.062,-35.156,-91.309,0.000
1606139509.921,-383.301,-55.176,-38.574,-1000.000,0.000
1606139509.925,-226.562,-42.969,-28.809,-680.176,0.000
1606139509.929,188.965,-17.578,-16.602,492.676,0.000
1606139509.933,312.500,-11.719,-20.508,982.422,0.000
1606139509.937,-30.762,-35.645,-37.109,72.266,0.000
1606139509.941,-370.117,-59.570,-48.828,-972.168,0.000
1606139509.945,-280.762,-54.688,-48.828,-784.180,0.000
1606139509.949,145.508,-25.391,-30.762,372.070,0.000
1606139509.953,334.473,-9.766,-20.508,-971.680,0.000
1606139509.957,37.598,-26.367,-33.691,250.000,0.000
1606139509.960,-343.262,-49.805,-51.270,-864.746,0.000
1606139509.964,-323.730,-47.852,-48.828,-877.930,0.000
1606139509.968,91.309,-28.809,-27.344,235.352,0.000
1606139509.972,335.449,-18.066,-14.160,-949.219,0.000
1606139509.976,103.027,-30.273,-26.855,424.316,0.000
1606139509.980,-304.688,-45.898,-41.504,-737.305,0.000
1606139509.984,-349.609,-41.504,-34.668,-933.594,0.000
1606139509.988,54.199,-19.043,-16.113,119.629,0.000
1606139509.992,338.379,-5.371,-9.766,-961.426,0.000
1606139509.996,147.461,-18.555,-26.367,569.336,0.000
1606139510.000,-272.461,-43.457,-45.898,-597.656,0.000
1606139510.003,-377.441,-47.852,-51.758,-1000.000,0.000
1606139510.007,-17.578,-28.320,-38.574,-91.797,0.000
1606139510.011,311.523,-11.230,-20.996,965.332,0.000
1606139510.015,193.359,-13.184,-24.902,684.570,0.000
1606139510.019,-226.562,-31.738,-44.922,-486.816,0.000
1606139510.023,-388.672,-43.945,-49.316,-1000.000,0.000
1606139510.027,-74.707,-34.668,-37.109,-261.230,0.000
1606139510.031,296.387,-1.953,-23.926,863.281,0.000
1606139510.035,243.164,9.277,-31.738,773.926,0.000
1606139510.039,-187.500,-35.156,-52.734,-384.277,0.000
1606139510.043,-399.902,-47.363,-55.664,-1000.000,0.000
1606139510.046,-131.348,-33.691,-38.086,-430.176,0.000
1606139510.050,250.977,-11.230,-18.066,733.887,0.000
1606139510.054,258.789,2.930,-13.672,868.164,0.000
1606139510.058,-158.691,-35.156,-31.250,-240.723,0.000
1606139510.062,-436.035,-59.082,-43.945,-1000.000,0.000
1606139510.066,-227.051,-44.434,-37.109,-590.332,0.000
1606139510.070,187.012,-28.320,-25.879,582.520,0.000
1606139510.074,276.855,-22.949,-21.973,932.129,0.000
1606139510.078,-97.168,-33.691,-29.785,-90.332,0.000
1606139510.082,-414.551,-47.363,-45.898,-1000.000,0.000
1606139510.085,-261.719,-44.434,-44.922,-692.871,0.000
1606139510.089,166.992,-31.250,-21.484,475.098,0.000
1606139510.093,303.711,0.488,-16.113,984.863,0.000
1606139510.097,-34.668,0.977,-31.250,91.309,0.000
1606139510.101,-386.230,-46.875,-44.434,-960.449,0.000
1606139510.105,-308.105,-56.152,-40.527,-799.805,0.000
1606139510.109,125.000,-29.297,-16.602,353.516,0.000
1606139510.113,328.125,-13.672,-4.395,-962.891,0.000
1606139510.117,42.969,-25.391,-13.184,287.109,0.000
1606139510.121,-336.914,-45.898,-30.273,-843.262,0.000
1606139510.125,-325.195,-43.945,-35.156,-884.766,0.000
1606139510.128,89.355,-23.926,-17.578,227.051,0.000
1606139510.132,327.148,4.883,-14.160,-951.660,0.000
1606139510.136,92.773,-0.488,-20.996,439.453,0.000
1606139510.140,-303.711,-40.527,-40.527,-714.844,0.000
1606139510.144,-356.934,-42.969,-46.387,-954.590,0.000
1606139510.148,31.250,-28.320,-29.785,71.289,0.000
1606139510.152,323.730,-20.020,-23.438,-973.633,0.000
1606139510.156,153.320,-24.414,-28.809,590.332,0.000
1606139510.160,-262.695,-40.039,-49.805,-579.590,0.000
1606139510.164,-380.859,-47.363,-56.152,-1000.000,0.000
1606139510.168,-27.344,-32.227,-31.250,-91.797,0.000
1606139510.171,312.988,-14.648,-16.113,959.961,0.000
1606139510.175,207.031,-22.949,-27.344,706.543,0.000
1606139510.179,-218.262,-45.410,-52.734,-460.449,0.000
1606139510.183,-392.578,-54.199,-65.430,-1000.000,0.000
1606139510.187,-88.379,-43.457,-49.316,-299.316,0.000
1606139510.191,281.738,-20.508,-24.414,836.914,0.000
1606139510.195,244.141,-9.766,-23.926,803.223,0.000
1606139510.199,-173.828,-37.109,-44.434,-344.238,0.000
1606139510.203,-398.438,-58.594,-51.758,-1000.000,0.000
1606139510.207,-150.391,-47.363,-40.039,-451.172,0.000
1606139510.210,245.117,-20.508,-22.949,715.332,0.000
1606139510.214,273.438,-16.602,-17.090,879.395,0.000
1606139510.218,-123.047,-37.109,-31.250,-214.844,0.000
1606139510.222,-397.949,-48.340,-47.363,-1000.000,0.000
1606139510.226,-207.031,-43.457,-40.039,-595.215,0.000
1606139510.230,208.008,-14.648,-21.973,578.613,0.000
1606139510.234,294.922,20.020,-20.020,946.289,0.000
1606139510.238,-70.801,-11.230,-32.227,-56.152,0.000
1606139510.242,-384.277,-56.152,-50.293,-1000.000,0.000
1606139510.246,-249.023,-49.805,-44.434,-730.469,0.000
1606139510.250,176.758,-23.926,-19.043,436.035,0.000
1606139510.253,322.266,-12.207,-9.766,-998.535,0.000
1606139510.257,-7.324,-28.809,-24.902,105.469,0.000
1606139510.261,-357.422,-54.199,-42.969,-957.520,0.000
1606139510.265,-290.527,-48.340,-37.598,-825.195,0.000
1606139510.269,131.348,-20.996,-19.043,314.941,0.000
1606139510.273,338.379,9.277,-8.301,-964.844,0.000
1606139510.277,61.523,0.977,-20.020,274.414,0.000
1606139510.281,-320.801,-42.480,-52.246,-842.773,0.000
1606139510.285,-323.242,-44.922,-58.105,-920.410,0.000
1606139510.289,85.449,-19.043,-32.227,164.551,0.000
1606139510.293,333.496,-8.301,-20.996,-955.566,0.000
1606139510.296,103.516,-27.344,-27.832,436.035,0.000
1606139510.300,-292.969,-46.875,-39.062,-709.961,0.000
1606139510.304,-360.352,-47.852,-44.434,-972.656,0.000
1606139510.308,10.742,-36.133,-23.438,27.344,0.000
1606139510.312,305.664,-6.348,-6.348,-980.957,0.000
1606139510.316,147.949,-10.742,-12.695,598.145,0.000
1606139510.320,-260.742,-49.805,-34.668,-573.242,0.000
1606139510.324,-387.695,-52.734,-39.551,-1000.000,0.000
1606139510.328,-47.363,-33.691,-20.996,-140.625,0.000
1606139510.332,287.598,-4.395,-8.789,941.406,0.000
1606139510.335,190.918,-7.812,-20.020,716.797,0.000
1606139510.339,-222.168,-42.969,-45.410,-452.148,0.000
1606139510.343,-403.320,-52.246,-50.293,-1000.000,0.000
1606139510.347,-107.422,-31.250,-33.203,-319.824,0.000
1606139510.351,263.672,-8.789,-14.648,825.195,0.000
1606139510.355,227.051,-12.695,-18.066,806.152,0.000
1606139510.359,-181.641,-34.180,-30.762,-336.914,0.000
1606139510.363,-402.344,-44.922,-42.480,-1000.000,0.000
1606139510.367,-161.133,-36.621,-41.016,-508.789,0.000
1606139510.371,231.445,-10.254,-11.719,670.410,0.000
1606139510.375,267.090,15.137,-7.324,881.348,0.000
1606139510.378,-117.676,-11.230,-36.133,-214.355,0.000
1606139510.382,-385.254,-44.434,-52.734,-1000.000,0.000
1606139510.386,-208.984,-35.156,-40.527,-638.672,0.000
1606139510.390,183.594,-9.277,-16.113,532.227,0.000
1606139510.394,279.785,-5.859,-19.531,953.613,0.000
1606139510.398,-66.895,-26.367,-36.621,-34.180,0.000
1606139510.402,-384.766,-42.480,-51.758,-1000.000,0.000
1606139510.406,-276.855,-45.410,-50.781,-750.000,0.000
1606139510.410,131.348,-26.855,-24.414,414.551,0.000
1606139510.414,293.457,0.488,-15.137,-981.445,0.000
1606139510.418,-10.254,-19.043,-27.832,180.664,0.000
1606139510.421,-360.352,-53.223,-34.180,-917.480,0.000
1606139510.425,-308.105,-53.223,-34.668,-825.684,0.000
1606139510.429,102.051,-34.668,-24.414,319.336,0.000
1606139510.433,307.617,-17.090,-16.113,-955.566,0.000
1606139510.437,41.504,-27.344,-30.273,362.793,0.000
1606139510.441,-335.938,-50.781,-44.922,-783.691,0.000
1606139510.445,-345.703,-54.199,-43.945,-906.738,0.000
1606139510.449,41.504,-34.180,-24.414,184.570,0.000
1606139510.453,299.805,-11.230,-10.254,-949.219,0.000
1606139510.457,101.562,-16.602,-20.020,526.855,0.000
1606139510.460,-290.527,-43.945,-39.062,-644.043,0.000
1606139510.464,-365.234,-48.340,-37.598,-974.609,0.000
1606139510.468,1.953,-34.668,-13.672,27.344,0.000
1606139510.472,304.688,4.395,-8.301,-987.793,0.000
1606139510.476,157.715,16.602,-21.973,640.625,0.000
1606139510.480,-247.070,-36.621,-39.551,-527.344,0.000
1606139510.484,-382.324,-55.176,-43.457,-1000.000,0.000
1606139510.488,-59.570,-36.133,-20.020,-159.180,0.000
1606139510.492,274.902,-18.555,-3.906,922.852,0.000
1606139510.496,197.266,-15.137,-12.695,737.305,0.000
1606139510.500,-206.055,-34.180,-34.180,-422.363,0.000
1606139510.503,-395.996,-46.875,-45.898,-1000.000,0.000
1606139510.507,-118.652,-36.621,-30.273,-355.957,0.000
1606139510.511,248.047,-14.648,-16.602,791.016,0.000
1606139510.515,240.723,-11.230,-21.484,833.984,0.000
1606139510.519,-147.461,-44.922,-27.832,-292.969,0.000
1606139510.523,-384.766,-61.523,-35.645,-1000.000,0.000
1606139510.527,-157.227,-50.293,-34.180,-495.117,0.000
1606139510.531,231.445,-24.902,-15.625,655.762,0.000
1606139510.535,286.621,-14.648,-9.277,909.668,0.000
1606139510.539,-79.590,-35.156,-30.273,-124.023,0.000
1606139510.543,-368.164,-52.734,-50.781,-1000.000,0.000
1606139510.546,-210.449,-46.875,-44.922,-615.234,0.000
1606139510.550,186.523,-24.414,-25.391,552.246,0.000
1606139510.554,298.828,-1.465,-16.602,980.957,0.000
1606139510.558,-27.344,-20.508,-28.320,85.938,0.000
1606139510.562,-338.379,-55.176,-47.363,-974.609,0.000
1606139510.566,-226.074,-50.781,-38.574,-724.121,0.000
1606139510.570,185.547,-25.391,-18.066,447.754,0.000
1606139510.574,340.332,-13.672,-20.996,-984.375,0.000
1606139510.578,51.270,-24.414,-32.227,246.582,0.000
1606139510.582,-288.574,-37.598,-38.574,-865.234,0.000
1606139510.585,-252.930,-41.016,-33.691,-822.266,0.000
1606139510.589,142.090,-23.926,-21.973,323.730,0.000
1606139510.593,353.027,-5.859,-15.625,-954.590,0.000
1606139510.597,112.305,-20.020,-25.879,416.016,0.000
1606139510.601,-259.277,-40.039,-40.039,-737.793,0.000
1606139510.605,-288.086,-41.016,-40.039,-899.902,0.000
1606139510.609,94.238,-24.902,-28.809,191.895,0.000
1606139510.613,351.074,0.977,-18.555,-956.055,0.000
1606139510.617,158.203,-8.789,-25.391,553.711,0.000
1606139510.621,-232.910,-37.598,-35.645,-608.887,0.000
1606139510.625,-318.848,-38.574,-33.203,-972.656,0.000
1606139510.628,35.645,-25.879,-27.832,22.461,0.000
1606139510.632,333.496,-7.324,-18.066,-996.094,0.000
1606139510.636,199.219,-10.254,-20.508,668.457,0.000
1606139510.640,-212.891,-42.969,-43.457,-502.441,0.000
1606139510.644,-354.980,-47.852,-46.875,-1000.000,0.000
1606139510.648,-34.180,-32.227,-27.832,-145.996,0.000
1606139510.652,300.293,-8.789,-6.836,915.527,0.000
1606139510.656,225.098,-0.977,-13.672,769.043,0.000
1606139510.660,-181.152,-30.762,-31.250,-377.930,0.000
1606139510.664,-383.789,-50.781,-35.156,-1000.000,0.000
1606139510.668,-114.258,-40.527,-23.438,-330.078,0.000
1606139510.671,250.488,-20.020,-6.836,797.363,0.000
1606139510.675,243.164,-22.949,-10.742,858.887,0.000
1606139510.679,-140.137,-40.527,-30.273,-237.793,0.000
1606139510.683,-382.324,-49.316,-36.621,-1000.000,0.000
1606139510.687,-158.203,-36.621,-24.902,-481.934,0.000
1606139510.691,234.375,-1.953,-11.719,679.199,0.000
1606139510.695,284.668,14.648,-10.254,920.898,0.000
1606139510.699,-80.566,-21.973,-26.855,-97.168,0.000
1606139510.703,-360.352,-47.852,-46.875,-1000.000,0.000
1606139510.707,-196.777,-43.945,-39.062,-642.578,0.000
1606139510.710,209.473,-22.949,-19.531,531.250,0.000
1606139510.714,325.195,-8.301,-16.602,975.098,0.000
1606139510.718,-5.371,-22.461,-37.109,54.199,0.000
1606139510.722,-321.777,-35.645,-46.875,-984.375,0.000
1606139510.726,-221.680,-29.785,-29.785,-752.441,0.000
1606139510.730,181.152,-9.277,-10.254,406.738,0.000
1606139510.734,352.051,0.000,-7.324,-976.074,0.000
1606139510.738,69.824,-19.043,-23.438,238.770,0.000
1606139510.742,-288.574,-41.504,-41.504,-873.535,0.000
1606139510.746,-268.066,-41.992,-40.039,-863.770,0.000
1606139510.750,126.953,-28.320,-18.066,281.738,0.000
1606139510.753,333.008,11.230,-17.090,-987.305,0.000
1606139510.757,85.938,17.578,-31.738,342.773,0.000
1606139510.761,-281.738,-39.062,-39.551,-741.699,0.000
1606139510.765,-319.824,-51.270,-38.086,-937.012,0.000
1606139510.769,62.012,-24.902,-20.508,119.141,0.000
1606139510.773,336.426,-7.324,-6.348,-958.984,0.000
1606139510.777,145.508,-20.996,-18.555,536.621,0.000
1606139510.781,-257.324,-55.176,-43.457,-630.859,0.000
1606139510.785,-350.586,-58.594,-43.945,-989.258,0.000
1606139510.789,-11.719,-42.969,-24.902,-38.086,0.000
1606139510.793,295.410,0.488,-10.254,982.422,0.000
1606139510.796,174.316,5.859,-17.090,667.969,0.000
1606139510.800,-229.492,-47.363,-37.598,-501.953,0.000
1606139510.804,-371.582,-54.199,-38.574,-1000.000,0.000
1606139510.808,-61.523,-39.062,-22.461,-212.402,0.000
1606139510.812,276.855,-22.949,-13.672,886.719,0.000
1606139510.816,216.309,-20.508,-23.926,775.391,0.000
1606139510.820,-184.570,-41.016,-44.922,-373.535,0.000
1606139510.824,-388.184,-58.105,-53.711,-1000.000,0.000
1606139510.828,-125.000,-43.457,-36.621,-393.066,0.000
1606139510.832,254.395,-2.930,-16.602,766.602,0.000
1606139510.835,265.625,28.320,-20.508,861.328,0.000
1606139510.839,-126.953,-17.578,-39.062,-248.535,0.000
1606139510.843,-381.836,-57.617,-50.293,-1000.000,0.000
1606139510.847,-172.852,-43.945,-44.434,-544.922,0.000
1606139510.851,214.355,-23.926,-23.926,626.953,0.000
1606139510.855,285.645,-18.066,-19.531,920.410,0.000
1606139510.859,-69.824,-34.668,-40.527,-114.746,0.000
1606139510.863,-364.746,-44.922,-50.781,-1000.000,0.000
1606139510.867,-214.355,-40.039,-37.598,-667.969,0.000
1606139510.871,186.035,-18.555,-20.996,499.023,0.000
1606139510.875,320.312,-3.418,-11.719,984.375,0.000
1606139510.878,-0.488,-18.555,-18.555,72.754,0.000
1606139510.882,-337.891,-41.992,-44.922,-974.609,0.000
1606139510.886,-256.348,-44.922,-48.340,-788.574,0.000
1606139510.890,143.066,-22.949,-27.344,363.770,0.000
1606139510.894,319.824,-2.930,-20.996,-976.074,0.000
1606139510.898,37.598,-20.508,-33.691,235.840,0.000
1606139510.902,-323.730,-44.434,-45.898,-875.488,0.000
1606139510.906,-301.758,-38.574,-40.039,-871.582,0.000
1606139510.910,94.238,-17.090,-23.438,247.070,0.000
1606139510.914,318.359,-11.719,-15.137,-953.125,0.000
1606139510.918,91.309,-25.391,-21.484,411.133,0.000
1606139510.921,-288.574,-44.434,-36.621,-740.723,0.000
1606139510.925,-324.219,-38.086,-42.969,-936.523,0.000
1606139510.929,51.758,-16.602,-27.344,115.723,0.000
1606139510.933,314.453,-15.137,-14.648,-965.820,0.000
1606139510.937,141.113,-24.902,-21.484,563.965,0.000
1606139510.941,-247.070,-37.598,-32.715,-598.633,0.000
1606139510.945,-351.074,-45.410,-37.598,-1000.000,0.000
1606139510.949,-12.695,-31.250,-26.855,-55.176,0.000
1606139510.953,303.223,-14.160,-12.207,981.445,0.000
1606139510.957,180.176,-22.461,-20.996,691.406,0.000
1606139510.960,-233.887,-44.434,-41.992,-476.562,0.000
1606139510.964,-386.719,-51.270,-40.039,-1000.000,0.000
1606139510.968,-77.637,-38.574,-29.297,-226.074,0.000
1606139510.972,270.996,1.953,-12.207,887.207,0.000
1606139510.976,212.891,5.859,-8.301,780.762,0.000
1606139510.980,-189.453,-41.992,-30.762,-367.676,0.000
1606139510.984,-391.113,-60.059,-40.039,-1000.000,0.000
1606139510.988,-138.184,-44.434,-28.320,-414.062,0.000
1606139510.992,232.910,-21.484,-10.254,745.605,0.000
1606139510.996,244.629,-20.508,-12.207,861.328,0.000
1606139511.000,-153.320,-42.480,-37.598,-248.047,0.000
1606139511.003,-406.250,-52.246,-49.805,-1000.000,0.000
1606139511.007,-195.801,-38.574,-34.668,-573.730,0.000
1606139511.011,196.777,-14.160,-18.555,597.656,0.000
1606139511.015,271.973,-9.766,-13.672,929.688,0.000
1606139511.019,-91.797,-35.156,-30.762,-93.262,0.000
1606139511.023,-386.719,-41.992,-47.852,-1000.000,0.000
1606139511.027,-241.211,-31.738,-37.109,-693.848,0.000
1606139511.031,166.992,-16.602,-20.996,473.145,0.000
1606139511.035,301.758,2.930,-19.531,989.746,0.000
1606139511.039,-18.066,-14.648,-30.762,84.961,0.000
1606139511.043,-349.609,-47.363,-45.898,-968.750,0.000
1606139511.046,-270.996,-40.527,-43.945,-797.852,0.000
1606139511.050,138.672,-11.719,-20.996,354.004,0.000
1606139511.054,322.266,-4.883,-13.672,-968.750,0.000
1606139511.058,41.504,-24.414,-26.367,261.719,0.000
1606139511.062,-316.895,-43.457,-46.875,-857.910,0.000
1606139511.066,-304.688,-46.387,-53.223,-882.812,0.000
1606139511.070,84.473,-28.320,-28.320,225.098,0.000
1606139511.074,322.266,-5.859,-13.672,-953.125,0.000
1606139511.078,90.332,-18.555,-29.297,439.453,0.000
1606139511.082,-294.434,-47.363,-43.945,-715.820,0.000
1606139511.085,-341.309,-48.828,-41.016,-944.336,0.000
1606139511.089,39.551,-23.438,-18.066,96.191,0.000
1606139511.093,323.730,-10.254,-7.812,-968.262,0.000
1606139511.097,151.855,-22.949,-14.160,588.379,0.000
1606139511.101,-247.070,-39.551,-29.785,-579.102,0.000
1606139511.105,-360.840,-47.852,-44.434,-1000.000,0.000
1606139511.109,-19.531,-29.785,-27.344,-76.172,0.000
1606139511.113,299.316,6.348,-16.602,966.797,0.000
1606139511.117,193.359,9.277,-26.855,706.055,0.000
1606139511.121,-207.520,-32.715,-41.504,-461.914,0.000
1606139511.125,-372.559,-50.293,-51.758,-1000.000,0.000
1606139511.128,-74.219,-34.180,-38.086,-254.883,0.000
1606139511.132,276.367,-17.578,-19.531,857.910,0.000
1606139511.136,233.887,-16.602,-15.625,797.363,0.000
1606139511.140,-159.668,-35.645,-38.574,-347.168,0.000
1606139511.144,-363.770,-43.457,-52.734,-1000.000,0.000
1606139511.148,-121.094,-31.250,-31.250,-428.711,0.000
1606139511.152,236.328,-16.602,-15.137,718.750,0.000
1606139511.156,259.766,-9.277,-14.160,873.535,0.000
1606139511.160,-112.793,-27.832,-23.926,-215.332,0.000
1606139511.164,-370.605,-45.898,-44.922,-1000.000,0.000
1606139511.168,-183.105,-43.457,-41.016,-587.891,0.000
1606139511.171,199.219,-17.090,-21.973,575.684,0.000
1606139511.175,280.762,-1.465,-20.020,933.594,0.000
1606139511.179,-68.848,-30.273,-30.762,-62.988,0.000
1606139511.183,-362.305,-46.875,-42.969,-1000.000,0.000
1606139511.187,-231.445,-41.016,-38.574,-698.730,0.000
1606139511.191,166.992,-18.066,-19.531,470.215,0.000
1606139511.195,306.152,-11.230,-11.719,994.629,0.000
1606139511.199,-12.207,-30.762,-28.809,115.234,0.000
1606139511.203,-341.797,-43.945,-45.410,-950.684,0.000
1606139511.207,-269.531,-39.062,-35.645,-797.363,0.000
1606139511.210,125.488,-20.996,-15.137,354.980,0.000
1606139511.214,308.105,0.977,-17.090,-971.680,0.000
1606139511.218,36.621,-16.113,-30.273,281.738,0.000
1606139511.222,-314.453,-45.898,-38.086,-834.473,0.000
1606139511.226,-310.059,-42.969,-34.180,-886.230,0.000
1606139511.230,77.148,-22.949,-13.184,220.703,0.000
1606139511.234,312.988,-17.578,-3.906,-955.078,0.000
1606139511.238,87.402,-34.668,-25.879,449.219,0.000
1606139511.242,-286.133,-48.340,-43.457,-699.707,0.000
1606139511.246,-340.820,-49.316,-40.039,-954.102,0.000
1606139511.250,18.066,-33.691,-24.902,67.871,0.000
1606139511.253,301.758,2.441,-9.766,-975.586,0.000
1606139511.257,144.043,-8.301,-14.160,595.215,0.000
1606139511.261,-254.395,-49.316,-35.156,-573.730,0.000
1606139511.265,-367.676,-50.781,-39.551,-1000.000,0.000
1606139511.269,-31.250,-32.227,-18.555,-101.562,0.000
1606139511.273,289.551,-15.625,-4.395,950.195,0.000
1606139511.277,189.941,-14.160,-5.371,702.148,0.000
1606139511.281,-213.867,-36.133,-27.344,-467.285,0.000
1606139511.285,-374.512,-48.340,-43.457,-1000.000,0.000
1606139511.289,-84.473,-41.016,-31.738,-281.250,0.000
1606139511.293,261.719,-26.367,-12.207,836.426,0.000
1606139511.296,229.004,-19.043,-9.766,810.059,0.000
1606139511.300,-164.551,-33.203,-26.855,-328.125,0.000
1606139511.304,-378.418,-49.805,-43.457,-1000.000,0.000
1606139511.308,-138.672,-46.875,-35.156,-457.520,0.000
1606139511.312,229.980,-12.695,-22.949,696.777,0.000
1606139511.316,260.254,13.672,-20.020,880.859,0.000
1606139511.320,-110.352,-19.043,-35.645,-199.707,0.000
1606139511.324,-368.164,-44.434,-41.016,-1000.000,0.000
1606139511.328,-184.082,-31.250,-30.273,-597.168,0.000
1606139511.332,200.684,-10.254,-21.484,572.266,0.000
1606139511.335,285.645,-8.301,-12.695,943.359,0.000
1606139511.339,-58.594,-32.715,-33.203,-48.340,0.000
1606139511.343,-349.121,-45.410,-46.875,-1000.000,0.000
1606139511.347,-219.727,-37.598,-38.086,-707.031,0.000
1606139511.351,169.434,-15.625,-27.832,460.449,0.000
1606139511.355,307.129,0.977,-20.020,993.652,0.000
1606139511.359,-2.930,-32.715,-35.156,111.816,0.000
1606139511.363,-341.309,-61.035,-54.199,-946.289,0.000
1606139511.367,-282.715,-50.781,-41.992,-819.336,0.000
1606139511.371,115.234,-24.414,-19.531,323.730,0.000
1606139511.375,302.734,-18.066,-20.508,-970.703,0.000
1606139511.378,38.574,-34.180,-34.668,291.016,0.000
1606139511.382,-314.941,-47.852,-41.992,-823.730,0.000
1606139511.386,-319.824,-50.781,-33.691,-896.973,0.000
1606139511.390,53.711,-31.250,-20.020,191.406,0.000
1606139511.394,292.969,-0.488,-13.672,-957.520,0.000
1606139511.398,90.332,-14.648,-22.461,458.008,0.000
1606139511.402,-278.809,-50.781,-45.898,-696.777,0.000
1606139511.406,-331.543,-55.664,-35.156,-957.031,0.000
1606139511.410,26.367,-34.668,-18.555,43.457,0.000
1606139511.414,297.363,-17.090,-21.484,-992.188,0.000
1606139511.418,143.066,-27.832,-21.973,598.633,0.000
1606139511.421,-247.070,-49.805,-39.551,-566.406,0.000
1606139511.425,-367.676,-58.594,-42.969,-1000.000,0.000
1606139511.429,-45.410,-43.945,-20.020,-134.277,0.000
1606139511.433,275.391,-20.508,-1.953,930.176,0.000
1606139511.437,191.406,-22.949,-3.906,725.586,0.000
1606139511.441,-196.289,-43.945,-21.973,-437.500,0.000
1606139511.445,-364.258,-53.711,-42.480,-1000.000,0.000
1606139511.449,-91.797,-54.688,-46.387,-308.105,0.000
1606139511.453,248.047,-14.648,-21.973,812.988,0.000
1606139511.457,223.633,1.953,-13.672,821.289,0.000
1606139511.460,-159.180,-37.598,-36.133,-312.500,0.000
1606139511.464,-375.000,-47.363,-40.527,-1000.000,0.000
1606139511.468,-143.066,-41.016,-22.949,-447.754,0.000
1606139511.472,224.121,-17.090,-8.789,697.266,0.000
1606139511.476,254.883,-11.230,-18.555,886.719,0.000
1606139511.480,-111.816,-39.551,-40.527,-176.270,0.000
1606139511.484,-366.211,-46.387,-39.062,-1000.000,0.000
1606139511.488,-191.895,-35.645,-31.250,-598.633,0.000
1606139511.492,177.734,-17.090,-26.367,562.988,0.000
1606139511.496,271.484,6.836,-19.531,948.242,0.000
1606139511.500,-59.082,-23.438,-28.809,-13.672,0.000
1606139511.503,-362.793,-50.293,-41.016,-1000.000,0.000
1606139511.507,-244.629,-42.480,-37.109,-718.750,0.000
1606139511.511,148.926,-27.832,-16.113,446.289,0.000
1606139511.515,297.363,-19.043,-7.812,-994.629,0.000
1606139511.519,2.930,-32.715,-21.484,182.129,0.000
1606139511.523,-329.102,-41.992,-36.621,-903.320,0.000
1606139511.527,-279.297,-48.340,-34.668,-826.172,0.000
1606139511.531,108.398,-29.297,-11.719,315.918,0.000
1606139511.535,304.688,-1.953,-0.977,-965.820,0.000
1606139511.539,51.270,-30.273,-16.602,332.031,0.000
1606139511.543,-305.176,-56.641,-31.250,-795.898,0.000
1606139511.546,-310.547,-50.293,-35.645,-901.855,0.000
1606139511.550,65.918,-29.785,-15.137,185.547,0.000
1606139511.554,304.688,-18.555,3.906,-960.449,0.000
1606139511.558,108.398,-27.344,-14.160,487.305,0.000
1606139511.562,-268.555,-44.922,-32.715,-664.062,0.000
1606139511.566,-337.891,-47.852,-35.645,-963.867,0.000
1606139511.570,12.207,-29.785,-21.484,30.273,0.000
1606139511.574,294.922,-16.602,-4.395,-996.582,0.000
1606139511.578,150.879,-20.996,-9.766,638.184,0.000
1606139511.582,-237.793,-42.969,-34.668,-529.785,0.000
1606139511.585,-357.422,-55.664,-39.062,-1000.000,0.000
1606139511.589,-46.387,-46.875,-22.949,-137.207,0.000
1606139511.593,268.066,-13.672,-14.648,918.457,0.000
1606139511.597,189.941,-3.418,-16.113,733.887,0.000
1606139511.601,-196.777,-41.992,-28.809,-424.805,0.000
1606139511.605,-376.465,-54.199,-42.969,-1000.000,0.000
1606139511.609,-106.445,-38.574,-31.250,-322.754,0.000
1606139511.613,240.234,-24.902,-10.742,807.129,0.000
1606139511.617,213.867,-23.438,-19.043,824.219,0.000
1606139511.621,-163.574,-42.969,-34.180,-301.758,0.000
1606139511.625,-382.324,-57.129,-41.992,-1000.000,0.000
1606139511.628,-164.062,-45.410,-40.527,-475.098,0.000
1606139511.632,204.590,-31.738,-22.461,676.270,0.000
1606139511.636,245.117,-24.902,-20.508,888.672,0.000
1606139511.640,-115.234,-35.645,-37.598,-171.387,0.000
1606139511.644,-370.117,-50.781,-49.316,-1000.000,0.000
1606139511.648,-189.941,-41.504,-34.668,-621.094,0.000
1606139511.652,196.777,-20.020,-7.812,547.852,0.000
1606139511.656,289.062,-16.602,-13.672,954.102,0.000
1606139511.660,-43.457,-41.504,-33.203,-0.977,0.000
1606139511.664,-345.215,-53.223,-38.086,-1000.000,0.000
1606139511.668,-234.863,-42.480,-30.762,-736.816,0.000
1606139511.671,154.297,-19.043,-16.602,426.758,0.000
1606139511.675,303.711,-4.883,-19.531,-991.211,0.000
1606139511.679,8.789,-27.832,-37.598,187.012,0.000
1606139511.683,-329.102,-48.340,-46.875,-902.344,0.000
1606139511.687,-281.250,-47.852,-45.410,-837.402,0.000
1606139511.691,108.887,-19.531,-28.809,301.270,0.000
1606139511.695,310.059,-2.930,-17.090,-964.355,0.000
1606139511.699,66.406,-21.973,-19.043,355.469,0.000
1606139511.703,-290.039,-45.410,-36.621,-772.949,0.000
1606139511.707,-313.965,-53.711,-46.387,-911.133,0.000
1606139511.710,52.246,-34.180,-29.297,165.039,0.000
1606139511.714,304.688,-17.090,-6.836,-962.891,0.000
1606139511.718,115.234,-26.855,-18.066,508.789,0.000
1606139511.722,-263.184,-51.758,-49.805,-644.043,0.000
1606139511.726,-347.656,-62.988,-47.852,-976.074,0.000
1606139511.730,-5.371,-45.410,-24.902,0.977,0.000
1606139511.734,291.504,-17.578,-15.625,995.117,0.000
1606139511.738,161.621,-20.508,-21.484,641.113,0.000
1606139511.742,-222.656,-40.039,-32.227,-523.438,0.000
1606139511.746,-354.492,-51.758,-43.945,-1000.000,0.000
1606139511.750,-46.875,-42.969,-29.785,-173.340,0.000
1606139511.753,276.855,-17.090,-8.301,908.203,0.000
1606139511.757,207.031,-18.555,-16.602,751.465,0.000
1606139511.761,-181.152,-43.945,-34.668,-405.762,0.000
1606139511.765,-360.840,-50.781,-41.504,-1000.000,0.000
1606139511.769,-87.891,-34.180,-39.062,-329.590,0.000
1606139511.773,264.160,-11.719,-27.344,795.898,0.000
1606139511.777,250.488,-7.812,-25.879,833.496,0.000
1606139511.781,-135.254,-39.062,-33.203,-285.156,0.000
1606139511.785,-366.211,-54.688,-35.645,-1000.000,0.000
1606139511.789,-154.785,-44.434,-37.598,-508.789,0.000
1606139511.793,213.867,-21.973,-23.438,650.391,0.000
1606139511.796,265.137,-13.672,-1.465,905.273,0.000
1606139511.800,-97.168,-31.738,-17.090,-140.625,0.000
1606139511.804,-373.535,-49.805,-39.062,-1000.000,0.000
1606139511.808,-219.727,-48.340,-30.273,-643.066,0.000
1606139511.812,168.457,-23.926,-19.531,521.973,0.000
1606139511.816,280.762,-10.742,-18.066,962.402,0.000
1606139511.820,-50.293,-40.039,-27.832,27.832,0.000
1606139511.824,-365.723,-58.105,-41.016,-991.211,0.000
1606139511.828,-268.066,-47.852,-32.227,-757.324,0.000
1606139511.832,126.465,-22.949,-13.672,404.785,0.000
1606139511.835,284.668,-12.695,-18.066,-990.234,0.000
1606139511.839,-2.441,-31.250,-36.621,197.754,0.000
1606139511.843,-336.914,-43.945,-44.922,-891.113,0.000
1606139511.847,-295.410,-40.039,-38.574,-841.797,0.000
1606139511.851,95.703,-18.066,-18.066,291.016,0.000
1606139511.855,311.035,-3.906,-7.812,-960.449,0.000
1606139511.859,82.031,-15.137,-26.367,390.137,0.000
1606139511.863,-273.926,-32.227,-42.480,-746.094,0.000
1606139511.867,-298.828,-41.504,-41.504,-918.945,0.000
1606139511.871,72.266,-26.367,-18.066,147.461,0.000
1606139511.875,333.496,16.113,0.000,-961.426,0.000
1606139511.878,146.484,4.883,-21.484,537.598,0.000
1606139511.882,-242.188,-44.434,-49.316,-625.977,0.000
1606139511.886,-330.078,-54.199,-49.805,-979.492,0.000
1606139511.890,8.301,-35.156,-27.344,-9.277,0.000
1606139511.894,301.758,-16.602,-11.719,991.699,0.000
1606139511.898,170.898,-26.367,-23.926,655.762,0.000
1606139511.902,-222.168,-45.410,-41.016,-510.742,0.000
1606139511.906,-356.934,-49.316,-45.898,-1000.000,0.000
1606139511.910,-55.664,-35.645,-36.133,-192.871,0.000
1606139511.914,262.695,-9.766,-21.484,895.020,0.000
1606139511.918,204.102,-4.883,-22.461,753.906,0.000
1606139511.921,-185.059,-37.598,-39.551,-403.320,0.000
1606139511.925,-382.812,-61.523,-54.688,-1000.000,0.000
1606139511.929,-126.465,-48.828,-42.480,-370.605,0.000
1606139511.933,229.980,-27.832,-19.531,771.973,0.000
1606139511.937,226.074,-23.926,-21.973,846.191,0.000
1606139511.941,-154.785,-30.273,-21.484,-267.090,0.000
1606139511.945,-390.137,-45.410,-35.645,-1000.000,0.000
1606139511.949,-187.012,-46.875,-46.875,-530.762,0.000
1606139511.953,186.523,-27.832,-15.137,629.883,0.000
1606139511.957,252.441,-16.113,-12.207,916.016,0.000
1606139511.960,-97.656,-31.738,-29.297,-119.629,0.000
1606139511.964,-377.930,-47.363,-32.715,-1000.000,0.000
1606139511.968,-224.609,-35.645,-22.461,-654.785,0.000
1606139511.972,171.875,0.000,-5.371,516.113,0.000
1606139511.976,279.297,5.859,-10.742,968.750,0.000
1606139511.980,-44.922,-30.762,-27.832,43.945,0.000
1606139511.984,-354.004,-53.223,-35.645,-982.910,0.000
1606139511.988,-258.789,-44.434,-32.715,-764.160,0.000
1606139511.992,137.695,-21.973,-13.672,396.973,0.000
1606139511.996,300.293,-13.672,-7.812,-985.840,0.000
1606139512.000,20.020,-30.762,-26.367,220.215,0.000
1606139512.003,-324.707,-50.781,-50.781,-874.023,0.000
1606139512.007,-296.387,-53.711,-48.340,-860.352,0.000
1606139512.011,100.586,-27.344,-22.461,260.742,0.000
1606139512.015,324.219,-10.742,-15.625,-960.449,0.000
1606139512.019,96.191,-27.344,-21.973,400.879,0.000
1606139512.023,-265.137,-41.016,-39.062,-739.746,0.000
1606139512.027,-292.969,-44.922,-44.922,-927.246,0.000
1606139512.031,71.289,-25.391,-27.832,129.395,0.000
1606139512.035,317.383,-7.324,-19.043,-966.797,0.000
1606139512.039,141.602,-16.602,-27.344,549.316,0.000
1606139512.043,-245.117,-43.945,-49.316,-611.816,0.000
1606139512.046,-338.379,-53.223,-48.340,-983.398,0.000
1606139512.050,8.301,-27.832,-31.250,-25.391,0.000
1606139512.054,306.641,30.762,-16.113,985.352,0.000
1606139512.058,183.594,19.531,-11.230,665.039,0.000
1606139512.062,-212.402,-46.387,-39.551,-505.859,0.000
1606139512.066,-361.328,-57.617,-52.734,-1000.000,0.000
1606139512.070,-59.570,-40.527,-30.762,-201.172,0.000
1606139512.074,273.926,-16.113,-14.648,888.184,0.000
1606139512.078,216.797,-23.438,-17.578,777.344,0.000
1606139512.082,-166.992,-44.434,-31.738,-366.699,0.000
1606139512.085,-365.234,-52.246,-42.969,-1000.000,0.000
1606139512.089,-120.117,-46.875,-33.691,-384.277,0.000
1606139512.093,247.070,-20.996,-9.277,755.859,0.000
1606139512.097,257.324,-16.602,-8.301,869.629,0.000
1606139512.101,-141.602,-45.410,-29.297,-277.832,0.000
1606139512.105,-353.027,-55.176,-42.480,-997.559,0.000
1606139512.109,-133.301,-41.992,-39.551,-392.090,0.000
1606139512.113,201.660,-9.277,-21.484,605.469,0.000
1606139512.117,269.043,-8.301,-20.996,914.551,0.000
1606139512.121,-85.938,-40.039,-38.086,-104.004,0.000
1606139512.125,-368.652,-50.781,-43.457,-1000.000,0.000
1606139512.128,-225.586,-43.457,-36.621,-678.711,0.000
1606139512.132,159.180,-22.949,-22.949,489.746,0.000
1606139512.136,281.250,-20.020,-20.020,972.168,0.000
1606139512.140,-29.785,-29.785,-30.762,60.059,0.000
1606139512.144,-339.355,-40.039,-48.340,-970.215,0.000
1606139512.148,-252.930,-43.945,-41.504,-776.367,0.000
1606139512.152,134.766,-11.719,-16.602,378.906,0.000
1606139512.156,305.176,17.090,-15.625,-981.934,0.000
1606139512.160,31.738,-13.672,-29.297,248.047,0.000
1606139512.164,-319.824,-45.410,-37.109,-854.492,0.000
1606139512.168,-304.199,-42.969,-42.480,-866.699,0.000
1606139512.171,84.473,-27.832,-27.344,254.883,0.000
1606139512.175,312.012,-19.531,-11.719,-958.496,0.000
1606139512.179,88.379,-25.391,-21.484,420.410,0.000
1606139512.183,-278.320,-45.410,-30.762,-723.145,0.000
1606139512.187,-315.918,-46.875,-27.344,-924.316,0.000
1606139512.191,51.758,-17.090,-20.020,133.301,0.000
1606139512.195,313.477,-0.488,-19.531,-963.867,0.000
1606139512.199,137.207,-18.066,-32.227,555.176,0.000
1606139512.203,-253.418,-40.039,-48.340,-609.375,0.000
1606139512.207,-349.121,-47.363,-47.363,-991.211,0.000
1606139512.210,-8.301,-30.762,-31.250,-53.223,0.000
1606139512.214,294.434,-14.160,-17.578,968.750,0.000
1606139512.218,178.711,-19.531,-14.648,685.547,0.000
1606139512.222,-216.309,-36.621,-26.367,-481.445,0.000
1606139512.226,-367.676,-44.434,-26.367,-1000.000,0.000
1606139512.230,-73.242,-35.156,-20.508,-230.957,0.000
1606139512.234,257.812,-16.602,-15.137,873.047,0.000
1606139512.238,196.777,-21.973,-13.184,776.367,0.000
1606139512.242,-194.824,-43.945,-40.039,-371.582,0.000
1606139512.246,-394.531,-47.852,-54.688,-1000.000,0.000
1606139512.250,-145.020,-41.504,-31.250,-413.574,0.000
1606139512.253,222.656,-1.953,-8.789,736.328,0.000
1606139512.257,232.422,11.230,-10.742,862.793,0.000
1606139512.261,-144.531,-36.133,-26.855,-236.816,0.000
1606139512.265,-395.020,-60.547,-47.363,-1000.000,0.000
1606139512.269,-197.266,-52.734,-40.039,-550.293,0.000
1606139512.273,196.289,-28.809,-6.348,616.211,0.000
1606139512.277,264.648,-25.879,-5.859,925.293,0.000
1606139512.281,-82.520,-42.480,-31.738,-75.684,0.000
1606139512.285,-365.723,-53.711,-47.852,-1000.000,0.000
1606139512.289,-230.469,-45.410,-41.992,-679.688,0.000
1606139512.293,172.363,-10.254,-19.043,489.258,0.000
1606139512.296,304.199,1.953,-19.531,987.305,0.000
1606139512.300,-0.977,-20.996,-22.949,112.305,0.000
1606139512.304,-327.148,-41.504,-35.645,-948.242,0.000
1606139512.308,-261.719,-48.340,-44.434,-784.180,0.000
1606139512.312,131.836,-21.484,-20.996,373.047,0.000
1606139512.316,309.082,-13.184,-15.137,-977.051,0.000
1606139512.320,33.203,-42.480,-34.668,249.023,0.000
1606139512.324,-319.824,-55.176,-48.340,-860.352,0.000
1606139512.328,-297.363,-45.898,-32.227,-872.559,0.000
1606139512.332,89.844,-18.555,-15.625,240.234,0.000
1606139512.335,310.547,5.859,-19.531,-959.473,0.000
1606139512.339,83.496,-23.438,-31.250,411.621,0.000
1606139512.343,-281.250,-48.340,-42.969,-730.957,0.000
1606139512.347,-315.918,-40.039,-41.016,-940.918,0.000
1606139512.351,43.945,-18.555,-22.949,88.379,0.000
1606139512.355,316.406,-4.883,-15.625,-976.562,0.000
1606139512.359,154.785,-17.578,-20.020,566.406,0.000
1606139512.363,-236.816,-39.551,-40.039,-597.656,0.000
1606139512.367,-339.355,-50.781,-44.922,-1000.000,0.000
1606139512.371,-1.953,-31.250,-23.438,-79.102,0.000
1606139512.375,304.688,-13.184,-16.602,962.402,0.000
1606139512.378,195.801,-22.949,-24.414,690.918,0.000
1606139512.382,-198.730,-39.062,-31.738,-478.027,0.000
1606139512.386,-355.469,-45.410,-36.621,-1000.000,0.000
1606139512.390,-60.547,-29.785,-21.484,-250.488,0.000
1606139512.394,288.086,11.230,-2.930,860.840,0.000
1606139512.398,242.676,-4.395,-19.531,793.457,0.000
1606139512.402,-153.809,-39.062,-36.621,-351.074,0.000
1606139512.406,-356.934,-43.457,-37.109,-1000.000,0.000
1606139512.410,-109.375,-35.156,-31.738,-407.227,0.000
1606139512.414,253.906,-10.254,-14.648,736.816,0.000
1606139512.418,263.184,-12.207,-19.043,865.723,0.000
1606139512.421,-119.141,-32.227,-36.621,-226.562,0.000
1606139512.425,-371.582,-38.574,-40.527,-1000.000,0.000
1606139512.429,-184.082,-49.316,-32.715,-574.219,0.000
1606139512.433,199.707,-3.906,-8.789,592.285,0.000
1606139512.437,277.832,22.949,-4.395,935.059,0.000
1606139512.441,-70.801,-28.320,-24.902,-68.848,0.000
1606139512.445,-365.234,-55.176,-46.387,-1000.000,0.000
1606139512.449,-229.980,-51.758,-46.875,-694.824,0.000
1606139512.453,172.852,-28.320,-21.973,472.656,0.000
1606139512.457,312.012,-15.137,-14.160,991.211,0.000
1606139512.460,0.977,-25.391,-30.762,114.746,0.000
1606139512.464,-323.730,-36.621,-39.062,-948.242,0.000
1606139512.468,-250.000,-38.086,-40.527,-790.039,0.000
1606139512.472,145.020,-4.883,-27.832,365.234,0.000
1606139512.476,328.125,16.113,-14.648,-971.680,0.000
1606139512.480,53.223,-21.484,-32.715,276.367,0.000
1606139512.484,-308.594,-47.363,-48.828,-839.355,0.000
1606139512.488,-298.828,-41.016,-39.551,-885.254,0.000
1606139512.492,85.449,-18.066,-17.090,218.262,0.000
1606139512.496,309.082,-14.648,-13.184,-961.914,0.000
1606139512.500,88.379,-32.227,-33.691,434.082,0.000
1606139512.503,-283.691,-43.945,-38.086,-708.008,0.000
1606139512.507,-333.008,-41.992,-31.250,-950.195,0.000
1606139512.511,28.809,-24.414,-23.438,73.242,0.000
1606139512.515,305.664,-13.184,-13.184,-978.516,0.000
1606139512.519,150.391,-20.020,-20.996,598.633,0.000
1606139512.523,-234.375,-34.668,-27.832,-562.012,0.000
1606139512.527,-357.910,-42.480,-32.227,-1000.000,0.000
1606139512.531,-38.574,-31.738,-24.414,-112.305,0.000
1606139512.535,287.598,4.395,-4.883,951.172,0.000
1606139512.539,190.918,0.488,-5.859,706.543,0.000
1606139512.543,-207.520,-38.086,-17.578,-462.402,0.000
1606139512.546,-357.910,-42.480,-28.809,-1000.000,0.000
1606139512.550,-63.477,-18.555,-17.578,-255.371,0.000
1606139512.554,272.949,-1.953,-5.859,853.027,0.000
1606139512.558,232.910,-8.789,-12.207,800.781,0.000
1606139512.562,-164.062,-27.832,-23.926,-338.379,0.000
1606139512.566,-372.559,-39.062,-31.250,-1000.000,0.000
1606139512.570,-128.906,-34.180,-14.648,-430.176,0.000
1606139512.574,233.887,-0.977,-0.977,718.750,0.000
1606139512.578,255.371,2.930,-8.301,872.559,0.000
1606139512.582,-115.234,-29.785,-24.414,-208.008,0.000
1606139512.585,-372.070,-44.922,-30.273,-1000.000,0.000
1606139512.589,-199.707,-48.340,-26.367,-603.516,0.000
1606139512.593,181.152,-31.250,-17.578,560.547,0.000
1606139512.597,275.391,-21.484,-6.836,942.871,0.000
1606139512.601,-67.871,-42.480,-24.414,-48.828,0.000
1606139512.605,-364.258,-56.641,-39.551,-1000.000,0.000
1606139512.609,-238.281,-52.734,-32.227,-702.148,0.000
1606139512.613,159.668,-23.438,-10.254,468.750,0.000
1606139512.617,298.340,-8.301,-3.906,992.188,0.000
1606139512.621,-11.719,-26.367,-20.996,126.953,0.000
1606139512.625,-343.262,-46.875,-36.133,-937.012,0.000
1606139512.628,-275.391,-49.316,-31.250,-803.711,0.000
1606139512.632,125.977,-22.949,-16.113,347.656,0.000
1606139512.636,314.941,-10.742,-6.836,-971.680,0.000
1606139512.640,55.176,-21.973,-11.719,306.152,0.000
1606139512.644,-296.875,-34.180,-29.785,-812.012,0.000
1606139512.648,-302.734,-41.504,-37.598,-890.137,0.000
1606139512.652,76.172,-27.832,-19.043,211.914,0.000
1606139512.656,322.266,-10.742,-4.395,-952.148,0.000
1606139512.660,113.770,-22.949,-19.043,475.098,0.000
1606139512.664,-270.508,-50.781,-30.762,-684.570,0.000
1606139512.668,-326.660,-54.199,-21.973,-952.637,0.000
1606139512.671,32.227,-15.625,-16.602,67.383,0.000
1606139512.675,307.617,11.719,-13.672,-980.957,0.000
1606139512.679,160.156,-18.066,-17.578,616.699,0.000
1606139512.683,-227.539,-47.363,-31.738,-550.781,0.000
1606139512.687,-347.168,-55.176,-41.016,-1000.000,0.000
1606139512.691,-19.531,-34.668,-32.715,-99.609,0.000
1606139512.695,300.293,-15.625,-7.812,946.777,0.000
1606139512.699,210.449,-18.555,-3.418,725.586,0.000
1606139512.703,-185.547,-33.691,-28.809,-437.500,0.000
1606139512.707,-354.004,-45.410,-22.949,-1000.000,0.000
1606139512.710,-69.336,-31.738,-12.207,-264.648,0.000
1606139512.714,272.461,1.953,-9.277,839.844,0.000
1606139512.718,240.234,-2.930,-3.418,814.453,0.000
1606139512.722,-151.367,-35.156,-27.344,-316.406,0.000
1606139512.726,-370.117,-45.410,-44.922,-1000.000,0.000
1606139512.730,-141.113,-31.250,-38.574,-462.891,0.000
1606139512.734,226.562,-15.137,-19.531,693.848,0.000
1606139512.738,260.742,-18.555,-15.625,884.766,0.000
1606139512.742,-109.863,-39.062,-25.391,-191.406,0.000
1606139512.746,-373.535,-52.734,-30.273,-1000.000,0.000
1606139512.750,-192.871,-41.504,-21.484,-604.492,0.000
1606139512.753,200.195,-17.578,-11.230,566.895,0.000
1606139512.757,290.039,-12.695,-7.812,950.195,0.000
1606139512.761,-53.711,-35.645,-24.902,-28.809,0.000
1606139512.765,-353.027,-48.340,-47.852,-1000.000,0.000
1606139512.769,-230.957,-38.086,-36.621,-715.332,0.000
1606139512.773,161.621,-22.461,-16.602,449.707,0.000
1606139512.777,307.617,-15.137,-2.441,-997.559,0.000
1606139512.781,0.000,-27.344,-17.578,150.391,0.000
1606139512.785,-345.703,-49.316,-43.457,-929.199,0.000
1606139512.789,-284.180,-48.340,-34.180,-812.988,0.000
1606139512.793,104.492,-23.926,-12.207,326.172,0.000
1606139512.796,300.781,-13.184,-3.418,-970.215,0.000
1606139512.800,53.223,-25.879,-14.160,329.102,0.000
1606139512.804,-315.430,-51.270,-45.898,-802.246,0.000
1606139512.808,-324.707,-53.223,-54.688,-900.391,0.000
1606139512.812,61.523,-25.391,-34.180,191.406,0.000
1606139512.816,316.406,-6.348,-15.137,-957.031,0.000
1606139512.820,123.535,-14.160,-21.484,484.375,0.000
1606139512.824,-261.230,-40.039,-43.945,-672.363,0.000
1606139512.828,-331.543,-47.363,-42.969,-962.891,0.000
1606139512.832,23.438,-25.879,-25.391,45.410,0.000
1606139512.835,303.711,-9.277,-11.230,-985.840,0.000
1606139512.839,154.297,-16.113,-22.461,615.234,0.000
1606139512.843,-232.422,-27.832,-36.621,-552.246,0.000
1606139512.847,-344.238,-34.180,-35.156,-1000.000,0.000
1606139512.851,-27.832,-17.090,-33.203,-125.000,0.000
1606139512.855,287.598,11.230,-19.043,929.688,0.000
1606139512.859,204.590,-3.418,-17.090,730.469,0.000
1606139512.863,-187.988,-29.785,-42.969,-431.641,0.000
1606139512.867,-361.816,-40.527,-46.387,-1000.000,0.000
1606139512.871,-88.379,-28.809,-25.879,-308.594,0.000
1606139512.875,263.184,-19.531,-12.695,817.383,0.000
1606139512.878,242.188,-21.484,-18.066,818.359,0.000
1606139512.882,-151.367,-37.109,-41.504,-309.570,0.000
1606139512.886,-377.930,-48.828,-44.434,-1000.000,0.000
1606139512.890,-129.883,-36.621,-25.391,-416.992,0.000
1606139512.894,245.117,2.441,-19.531,763.184,0.000
1606139512.898,259.766,0.488,-22.461,886.230,0.000
1606139512.902,-109.375,-35.156,-41.016,-173.340,0.000
1606139512.906,-376.465,-55.664,-56.152,-1000.000,0.000
1606139512.910,-197.754,-51.758,-41.504,-625.488,0.000
1606139512.914,195.801,-1.953,-14.648,547.852,0.000
1606139512.918,289.551,5.859,-10.254,949.219,0.000
1606139512.921,-52.246,-35.156,-27.344,-28.809,0.000
1606139512.925,-358.887,-49.316,-43.945,-1000.000,0.000
1606139512.929,-247.070,-45.898,-35.645,-738.281,0.000
1606139512.933,147.949,-25.391,-18.066,425.293,0.000
1606139512.937,292.969,-18.555,-20.508,-1000.000,0.000
1606139512.941,-0.488,-36.133,-26.855,157.227,0.000
1606139512.945,-335.449,-51.270,-42.969,-915.527,0.000
1606139512.949,-287.598,-54.688,-44.434,-829.590,0.000
1606139512.953,111.328,6.836,-18.066,310.547,0.000
1606139512.957,310.547,29.785,-7.812,-966.797,0.000
1606139512.960,58.594,-27.344,-23.438,331.055,0.000
1606139512.964,-300.781,-51.270,-41.504,-794.434,0.000
1606139512.968,-320.801,-54.688,-44.922,-905.273,0.000
1606139512.972,57.617,-26.855,-23.926,184.570,0.000
1606139512.976,309.570,-9.766,-5.371,-958.008,0.000
1606139512.980,106.445,-22.949,-15.137,500.977,0.000
1606139512.984,-271.484,-38.086,-28.320,-654.297,0.000
1606139512.988,-338.867,-49.316,-32.715,-959.961,0.000
1606139512.992,18.555,-25.879,-13.672,47.363,0.000
1606139512.996,307.129,8.789,0.000,-989.746,0.000
1606139513.000,163.574,-11.719,-16.113,615.234,0.000
1606139513.003,-227.051,-40.039,-34.180,-544.922,0.000
1606139513.007,-349.609,-45.898,-46.875,-1000.000,0.000
1606139513.011,-20.508,-29.785,-32.227,-139.160,0.000
1606139513.015,301.758,-9.766,-15.625,927.246,0.000
1606139513.019,212.402,-17.090,-23.926,732.910,0.000
1606139513.023,-179.688,-36.621,-38.574,-423.828,0.000
1606139513.027,-352.051,-44.434,-36.621,-1000.000,0.000
1606139513.031,-84.473,-34.180,-31.738,-316.406,0.000
1606139513.035,262.695,-11.719,-18.066,812.012,0.000
1606139513.039,241.211,-14.648,-14.160,823.242,0.000
1606139513.043,-144.531,-38.574,-29.297,-300.781,0.000
1606139513.046,-362.305,-42.969,-35.156,-1000.000,0.000
1606139513.050,-136.719,-25.391,-27.344,-472.656,0.000
1606139513.054,231.934,-11.719,-9.277,682.617,0.000
1606139513.058,268.066,-16.602,-11.230,895.020,0.000
1606139513.062,-99.609,-36.133,-27.832,-159.180,0.000
1606139513.066,-365.723,-48.340,-34.668,-1000.000,0.000
1606139513.070,-204.102,-41.016,-35.645,-618.652,0.000
1606139513.074,173.828,-21.973,-17.090,546.875,0.000
1606139513.078,270.508,-20.508,-9.277,958.008,0.000
1606139513.082,-60.547,-41.992,-32.715,11.719,0.000
1606139513.085,-367.188,-59.082,-46.387,-1000.000,0.000
1606139513.089,-257.812,-50.293,-33.203,-739.746,0.000
1606139513.093,136.719,-20.996,-16.113,425.781,0.000
1606139513.097,285.156,-5.859,-17.090,-994.629,0.000
1606139513.101,-9.277,-27.344,-32.715,178.711,0.000
1606139513.105,-343.262,-53.711,-49.805,-905.762,0.000
1606139513.109,-289.062,-47.363,-44.922,-828.125,0.000
1606139513.113,103.027,-27.344,-21.484,312.988,0.000
1606139513.117,302.246,-27.344,-14.648,-965.820,0.000
1606139513.121,54.199,-39.551,-24.902,335.938,0.000
1606139513.125,-302.734,-43.945,-41.016,-789.551,0.000
1606139513.128,-317.871,-39.551,-58.105,-919.434,0.000
1606139513.132,51.270,-21.484,-41.992,147.949,0.000
1606139513.136,299.316,-14.160,-21.973,-967.773,0.000
1606139513.140,107.910,-36.133,-27.344,488.770,0.000
1606139513.144,-273.438,-49.316,-43.457,-663.086,0.000
1606139513.148,-345.215,-45.898,-42.480,-970.215,0.000
1606139513.152,16.602,-23.926,-23.438,13.672,0.000
1606139513.156,311.523,-7.324,-7.812,999.512,0.000
1606139513.160,167.480,-15.625,-14.648,637.695,0.000
1606139513.164,-229.492,-31.738,-32.227,-528.809,0.000
1606139513.168,-361.328,-43.457,-35.156,-1000.000,0.000
1606139513.171,-46.875,-29.785,-20.020,-145.508,0.000
1606139513.175,280.762,-11.719,-4.883,924.316,0.000
1606139513.179,207.031,-21.484,-15.625,748.535,0.000
1606139513.183,-188.965,-40.527,-41.504,-409.668,0.000
1606139513.187,-379.395,-49.805,-48.828,-1000.000,0.000
1606139513.191,-111.816,-29.785,-24.902,-343.750,0.000
1606139513.195,238.770,-1.953,-2.930,793.457,0.000
1606139513.199,219.727,-16.602,-11.719,828.613,0.000
1606139513.203,-161.621,-45.410,-30.762,-296.875,0.000
1606139513.207,-382.812,-46.875,-34.180,-1000.000,0.000
1606139513.210,-165.039,-33.203,-24.902,-493.652,0.000
1606139513.214,209.473,-18.555,-13.184,658.203,0.000
1606139513.218,264.648,-9.277,-14.648,904.297,0.000
1606139513.222,-107.422,-30.273,-32.715,-148.926,0.000
1606139513.226,-384.277,-50.293,-45.898,-1000.000,0.000
1606139513.230,-216.309,-37.109,-39.551,-648.438,0.000
1606139513.234,176.758,-4.883,-19.043,518.555,0.000
1606139513.238,286.133,2.930,-11.719,957.031,0.000
1606139513.242,-44.434,-27.344,-34.668,0.488,0.000
1606139513.246,-353.516,-44.434,-45.410,-1000.000,0.000
1606139513.250,-249.023,-36.133,-40.039,-761.230,0.000
1606139513.253,152.832,-15.137,-20.996,396.484,0.000
1606139513.257,311.035,-3.418,-14.648,-999.023,0.000
1606139513.261,10.742,-18.555,-39.551,158.203,0.000
1606139513.265,-330.078,-41.992,-52.246,-913.086,0.000
1606139513.269,-290.039,-45.898,-49.316,-843.262,0.000
1606139513.273,90.820,-13.672,-34.180,283.203,0.000
1606139513.277,294.922,4.395,-14.648,-969.727,0.000
1606139513.281,56.641,-23.438,-15.137,354.492,0.000
1606139513.285,-314.941,-50.781,-36.133,-771.484,0.000
1606139513.289,-347.168,-52.246,-38.574,-912.109,0.000
1606139513.293,31.738,-28.809,-17.090,161.621,0.000
1606139513.296,285.645,-22.461,-5.371,-963.379,0.000
1606139513.300,91.797,-41.992,-20.020,511.719,0.000
1606139513.304,-292.480,-58.105,-42.480,-641.602,0.000
1606139513.308,-372.070,-58.594,-37.598,-976.074,0.000
1606139513.312,-12.695,-29.297,-18.555,4.883,0.000
1606139513.316,286.621,-4.883,-9.766,999.023,0.000
1606139513.320,146.973,-26.367,-7.812,653.320,0.000
1606139513.324,-241.699,-51.270,-28.809,-512.695,0.000
1606139513.328,-376.953,-54.199,-39.062,-1000.000,0.000
1606139513.332,-71.289,-36.133,-21.973,-182.129,0.000
1606139513.335,262.695,-14.160,-15.137,899.902,0.000
1606139513.339,198.242,-15.625,-17.578,756.836,0.000
1606139513.343,-192.871,-33.691,-32.715,-401.367,0.000
1606139513.347,-371.094,-37.109,-33.691,-1000.000,0.000
1606139513.351,-105.469,-23.438,-24.902,-346.680,0.000
1606139513.355,249.512,-12.695,-18.066,780.762,0.000
1606139513.359,247.070,-20.996,-22.949,842.285,0.000
1606139513.363,-132.812,-33.203,-40.039,-270.020,0.000
1606139513.367,-363.770,-41.016,-48.340,-1000.000,0.000
1606139513.371,-160.645,-42.480,-41.016,-529.297,0.000
1606139513.375,215.332,-15.625,-23.926,632.812,0.000
1606139513.378,276.367,-3.906,-15.625,901.367,0.000
1606139513.382,-88.379,-26.855,-27.344,-145.996,0.000
1606139513.386,-365.234,-45.410,-47.363,-1000.000,0.000
1606139513.390,-204.102,-39.062,-51.270,-652.832,0.000
1606139513.394,188.477,-14.648,-27.832,514.648,0.000
1606139513.398,294.922,-19.043,-21.973,966.797,0.000
1606139513.402,-37.109,-38.574,-40.039,40.527,0.000
1606139513.406,-345.703,-44.434,-49.805,-985.840,0.000
1606139513.410,-242.676,-40.527,-41.992,-737.793,0.000
1606139513.414,148.926,-15.137,-20.508,425.781,0.000
1606139513.418,302.246,-7.324,-21.484,-989.746,0.000
1606139513.421,11.719,-30.762,-27.344,208.496,0.000
1606139513.425,-323.730,-46.387,-39.062,-884.766,0.000
1606139513.429,-286.621,-43.945,-45.898,-842.285,0.000
1606139513.433,105.957,-21.484,-18.555,289.062,0.000
1606139513.437,326.660,-12.207,0.000,-958.496,0.000
1606139513.441,85.449,-28.320,-19.531,380.859,0.000
1606139513.445,-288.574,-47.852,-46.875,-759.766,0.000
1606139513.449,-312.988,-47.852,-49.316,-923.340,0.000
1606139513.453,67.383,-20.996,-26.367,143.066,0.000
1606139513.457,321.289,-1.953,-20.020,-961.914,0.000
1606139513.460,130.859,-12.207,-24.902,521.973,0.000
1606139513.464,-250.488,-34.180,-32.227,-634.766,0.000
1606139513.468,-334.473,-46.387,-38.086,-982.910,0.000
1606139513.472,13.184,-19.531,-22.461,-28.320,0.000
1606139513.476,308.594,9.766,-9.766,986.328,0.000
1606139513.480,179.688,-16.602,-20.020,653.809,0.000
1606139513.484,-212.402,-50.293,-36.621,-518.555,0.000
1606139513.488,-351.074,-52.246,-38.574,-1000.000,0.000
1606139513.492,-36.621,-33.691,-30.762,-190.918,0.000
1606139513.496,298.340,-23.926,-18.066,893.066,0.000
1606139513.500,236.816,-27.832,-14.648,769.043,0.000
1606139513.503,-150.879,-37.109,-25.391,-380.859,0.000
1606139513.507,-342.773,-45.410,-42.969,-1000.000,0.000
1606139513.511,-88.867,-27.344,-28.809,-358.398,0.000
1606139513.515,260.742,-1.465,-9.766,773.926,0.000
1606139513.519,259.766,-12.695,-15.137,848.633,0.000
1606139513.523,-120.117,-38.574,-28.320,-257.812,0.000
1606139513.527,-361.328,-52.734,-40.039,-1000.000,0.000
1606139513.531,-154.297,-42.480,-30.273,-513.184,0.000
1606139513.535,220.703,-15.625,-10.742,645.020,0.000
1606139513.539,276.367,-15.137,-10.742,917.969,0.000
1606139513.543,-86.426,-38.086,-22.461,-104.980,0.000
1606139513.546,-371.094,-47.363,-36.133,-1000.000,0.000
1606139513.550,-213.379,-40.039,-34.180,-647.949,0.000
1606139513.554,176.758,-1.465,-14.648,521.484,0.000
1606139513.558,279.785,7.324,-17.578,961.914,0.000
1606139513.562,-56.152,-34.668,-26.367,32.715,0.000
1606139513.566,-373.535,-53.223,-39.551,-984.863,0.000
1606139513.570,-272.949,-45.898,-45.898,-765.625,0.000
1606139513.574,124.512,-22.461,-19.531,394.043,0.000
1606139513.578,296.387,-14.160,-11.230,-984.863,0.000
1606139513.582,26.855,-24.414,-22.461,228.027,0.000
1606139513.585,-318.848,-41.992,-31.250,-867.188,0.000
1606139513.589,-294.434,-49.316,-44.922,-863.770,0.000
1606139513.593,103.516,-26.367,-24.902,262.207,0.000
1606139513.597,327.637,-7.812,-10.742,-961.426,0.000
1606139513.601,87.402,-21.973,-33.203,379.395,0.000
1606139513.605,-284.668,-42.969,-46.387,-754.395,0.000
1606139513.609,-308.594,-39.551,-39.062,-922.852,0.000
1606139513.613,65.918,-5.371,-18.555,138.184,0.000
1606139513.617,330.078,6.348,0.488,-962.891,0.000
1606139513.621,147.949,-17.578,-14.648,548.340,0.000
1606139513.625,-249.023,-46.875,-40.527,-614.746,0.000
1606139513.628,-339.355,-53.711,-38.574,-980.469,0.000
1606139513.632,0.488,-31.738,-20.508,-13.672,0.000
1606139513.636,295.898,-13.672,-1.465,987.305,0.000
1606139513.640,168.457,-16.602,-14.648,668.457,0.000
1606139513.644,-231.445,-32.715,-36.133,-498.047,0.000
1606139513.648,-369.629,-46.875,-34.180,-1000.000,0.000
1606139513.652,-68.848,-25.879,-25.879,-207.031,0.000
1606139513.656,265.625,14.160,-17.090,879.395,0.000
1606139513.660,213.379,2.441,-15.137,775.391,0.000
1606139513.664,-179.199,-36.621,-21.973,-373.535,0.000
1606139513.668,-375.000,-47.363,-24.902,-1000.000,0.000
1606139513.671,-124.512,-37.598,-20.508,-364.746,0.000
1606139513.675,227.051,-26.855,-17.578,766.602,0.000
1606139513.679,230.469,-22.949,-13.672,857.422,0.000
1606139513.683,-142.578,-33.691,-21.973,-243.164,0.000
1606139513.687,-378.418,-47.363,-32.227,-1000.000,0.000
1606139513.691,-170.410,-42.480,-19.531,-527.344,0.000
1606139513.695,209.961,-11.719,-10.254,626.953,0.000
1606139513.699,277.832,-2.930,-18.555,916.992,0.000
1606139513.703,-74.219,-26.367,-36.621,-106.445,0.000
1606139513.707,-357.422,-42.969,-44.922,-1000.000,0.000
1606139513.710,-207.520,-33.203,-37.598,-661.621,0.000
1606139513.714,179.199,-15.625,-24.902,504.395,0.000
1606139513.718,291.504,-14.160,-18.555,973.145,0.000
1606139513.722,-22.949,-29.297,-28.320,64.453,0.000
1606139513.726,-333.496,-44.434,-37.598,-971.680,0.000
1606139513.730,-247.559,-40.527,-33.203,-773.926,0.000
1606139513.734,145.508,-20.996,-14.160,384.766,0.000
1606139513.738,315.430,-10.254,-13.184,-977.539,0.000
1606139513.742,35.156,-27.832,-30.762,237.793,0.000
1606139513.746,-317.383,-50.781,-40.039,-870.605,0.000
1606139513.750,-290.039,-47.363,-35.645,-860.840,0.000
1606139513.753,98.145,-15.625,-21.973,257.812,0.000
1606139513.757,314.453,3.906,-16.602,-958.496,0.000
1606139513.761,78.125,-21.973,-27.832,406.738,0.000
1606139513.765,-299.316,-43.945,-43.457,-741.211,0.000
1606139513.769,-336.426,-39.062,-40.527,-929.688,0.000
1606139513.773,28.320,-20.508,-21.973,124.023,0.000
1606139513.777,284.180,-7.324,-8.301,-969.727,0.000
1606139513.781,114.746,-13.184,-13.184,562.500,0.000
1606139513.785,-266.602,-31.250,-41.504,-599.609,0.000
1606139513.789,-358.887,-41.504,-49.805,-983.887,0.000
1606139513.793,-12.695,-7.812,-25.391,-28.809,0.000
1606139513.796,284.180,7.812,-5.859,977.539,0.000
1606139513.800,159.180,-17.090,-18.066,677.246,0.000
1606139513.804,-233.887,-38.574,-41.992,-488.281,0.000
1606139513.808,-378.906,-53.711,-44.434,-1000.000,0.000
1606139513.812,-74.219,-37.109,-32.715,-212.402,0.000
1606139513.816,265.625,-17.090,-26.855,882.324,0.000
1606139513.820,215.820,-15.625,-19.043,773.926,0.000
1606139513.824,-176.270,-31.250,-20.996,-376.953,0.000
1606139513.828,-376.953,-50.781,-47.852,-1000.000,0.000
1606139513.832,-119.629,-22.949,-40.039,-388.184,0.000
1606139513.835,241.211,49.316,-18.066,754.395,0.000
1606139513.839,243.652,16.113,-22.461,845.215,0.000
1606139513.843,-131.836,-53.711,-36.621,-262.695,0.000
1606139513.847,-364.746,-58.105,-41.992,-1000.000,0.000
1606139513.851,-159.668,-45.898,-36.621,-550.293,0.000
1606139513.855,220.215,-20.996,-21.484,612.793,0.000
1606139513.859,286.133,-14.648,-12.695,925.293,0.000
1606139513.863,-78.125,-35.645,-29.785,-96.680,0.000
1606139513.867,-372.559,-54.688,-42.480,-1000.000,0.000
1606139513.871,-231.445,-45.898,-29.297,-670.410,0.000
1606139513.875,167.480,-22.949,-4.883,494.141,0.000
1606139513.878,299.316,-19.043,0.488,985.352,0.000
1606139513.882,-24.902,-37.109,-22.461,85.938,0.000
1606139513.886,-353.027,-53.711,-41.504,-967.773,0.000
1606139513.890,-267.090,-56.641,-41.016,-777.832,0.000
1606139513.894,137.695,-11.719,-20.508,381.348,0.000
1606139513.898,319.824,8.301,-2.930,-977.051,0.000
1606139513.902,41.504,-24.902,-18.066,255.859,0.000
1606139513.906,-306.152,-39.062,-35.645,-855.469,0.000
1606139513.910,-277.344,-35.645,-33.203,-860.352,0.000
1606139513.914,113.770,-20.508,-14.160,264.160,0.000
1606139513.918,337.891,-5.371,-11.719,-960.938,0.000
1606139513.921,110.352,-14.648,-21.484,434.082,0.000
1606139513.925,-257.812,-31.738,-35.156,-704.590,0.000
1606139513.929,-296.387,-34.668,-45.410,-932.129,0.000
1606139513.933,65.918,-24.414,-32.227,115.723,0.000
1606139513.937,328.125,-8.301,-23.926,-971.191,0.000
1606139513.941,163.574,-8.789,-16.602,562.012,0.000
1606139513.945,-226.074,-30.762,-28.320,-596.191,0.000
1606139513.949,-336.426,-42.969,-51.270,-998.047,0.000
1606139513.953,-4.883,-21.973,-39.062,-76.172,0.000
1606139513.957,304.688,-6.348,-13.184,960.938,0.000
1606139513.960,193.359,-11.230,-19.531,673.340,0.000
1606139513.964,-206.055,-34.668,-50.293,-498.535,0.000
1606139513.968,-356.934,-45.898,-52.246,-1000.000,0.000
1606139513.972,-57.617,-25.879,-27.344,-230.469,0.000
1606139513.976,267.090,-12.207,-11.230,868.652,0.000
1606139513.980,209.473,-23.438,-14.160,770.996,0.000
1606139513.984,-179.688,-42.969,-26.855,-380.859,0.000
1606139513.988,-380.859,-56.641,-30.762,-1000.000,0.000
1606139513.992,-138.672,-43.945,-31.250,-414.062,0.000
1606139513.996,221.191,-16.113,-22.949,734.375,0.000
