timestamps,TP9,AF7,AF8,TP10,Right AUX,Marker0
1606140772.307,-0.488,0.000,0.000,-0.488,0.000,0
1606140772.311,0.000,0.000,0.000,0.488,0.000,0
1606140772.315,0.977,-1.465,-0.977,7.324,0.000,0
1606140772.319,-6.348,1.465,1.465,-31.250,0.000,0
1606140772.322,25.391,-10.254,-9.766,132.324,0.000,0
1606140772.326,8.789,-31.250,-26.367,153.809,0.000,0
1606140772.330,-98.633,-32.227,-31.738,-273.438,0.000,0
1606140772.334,-114.258,-29.785,-36.621,-375.000,0.000,0
1606140772.338,-19.043,-25.879,-28.809,-8.789,0.000,0
1606140772.342,57.617,-21.973,-19.531,311.035,0.000,0
1606140772.346,19.043,-25.391,-20.996,188.477,0.000,0
1606140772.350,-86.426,-32.715,-29.297,-230.957,0.000,0
1606140772.354,-116.211,-34.180,-33.203,-390.625,0.000,0
1606140772.358,-27.344,-30.762,-28.320,-70.801,0.000,0
1606140772.362,64.453,-18.066,-19.043,302.734,0.000,0
1606140772.365,43.457,-14.648,-16.113,247.559,0.000,0
1606140772.369,-69.336,-24.902,-30.762,-181.152,0.000,0
1606140772.373,-111.816,-20.508,-39.062,-387.695,0.000,0
1606140772.377,-32.715,-15.137,-34.180,-110.840,0.000,0
1606140772.381,58.105,-18.066,-28.809,268.066,0.000,0
1606140772.385,48.828,-23.926,-24.414,262.207,0.000,0
1606140772.389,-54.688,-25.391,-29.297,-142.578,0.000,0
1606140772.393,-112.793,-24.902,-28.320,-394.531,0.000,0
1606140772.397,-48.340,-20.508,-25.391,-165.039,0.000,0
1606140772.401,52.246,-13.184,-27.832,250.488,0.000,0
1606140772.404,58.105,-15.625,-22.949,314.453,0.000,0
1606140772.408,-49.805,-26.855,-23.926,-69.824,0.000,0
1606140772.412,-123.047,-30.273,-27.832,-382.324,0.000,0
1606140772.416,-69.336,-28.809,-31.250,-229.004,0.000,0
1606140772.420,37.598,-20.508,-27.832,192.871,0.000,0
1606140772.424,54.199,5.371,-32.227,318.359,0.000,0
1606140772.428,-45.898,14.160,-43.945,-35.156,0.000,0
1606140772.432,-127.441,-21.484,-41.504,-387.207,0.000,0
1606140772.436,-88.379,-37.598,-33.691,-277.832,0.000,0
1606140772.440,22.461,-28.320,-31.250,160.645,0.000,0
1606140772.444,56.152,-30.273,-27.832,336.914,0.000,0
1606140772.447,-28.320,-36.133,-31.738,30.273,0.000,0
1606140772.451,-120.605,-33.691,-37.109,-344.727,0.000,0
1606140772.455,-101.562,-30.273,-27.832,-302.734,0.000,0
1606140772.459,8.301,-32.227,-22.949,121.582,0.000,0
1606140772.463,56.152,-34.180,-28.320,347.168,0.000,0
1606140772.467,-12.207,-37.598,-30.762,98.145,0.000,0
1606140772.471,-107.422,-25.879,-32.715,-288.086,0.000,0
1606140772.475,-113.281,-19.531,-39.062,-334.961,0.000,0
1606140772.479,-7.812,-34.180,-32.227,53.711,0.000,0
1606140772.483,63.965,-31.738,-20.020,337.891,0.000,0
1606140772.487,3.906,-32.715,-23.438,137.695,0.000,0
1606140772.490,-101.074,-38.574,-27.832,-282.715,0.000,0
1606140772.494,-115.234,-37.109,-35.645,-380.859,0.000,0
1606140772.498,-18.066,-32.227,-34.180,-12.695,0.000,0
1606140772.502,63.477,-27.832,-23.926,320.312,0.000,0
1606140772.506,19.531,-29.297,-27.832,184.570,0.000,0
1606140772.510,-90.820,-30.273,-27.832,-244.141,0.000,0
1606140772.514,-113.281,-25.391,-26.367,-384.766,0.000,0
1606140772.518,-19.531,-23.438,-27.344,-46.387,0.000,0
1606140772.522,65.430,-9.277,-22.949,313.965,0.000,0
1606140772.526,30.273,-0.488,-34.180,224.609,0.000,0
1606140772.529,-81.055,-23.438,-40.527,-206.543,0.000,0
1606140772.533,-122.559,-34.668,-40.527,-396.484,0.000,0
1606140772.537,-41.016,-35.645,-33.691,-113.770,0.000,0
1606140772.541,51.758,-32.715,-23.438,275.391,0.000,0
1606140772.545,35.156,-33.203,-19.531,270.996,0.000,0
1606140772.549,-71.777,-42.480,-21.973,-141.602,0.000,0
1606140772.553,-131.348,-46.387,-26.855,-395.020,0.000,0
1606140772.557,-62.988,-36.133,-22.949,-165.527,0.000,0
1606140772.561,46.875,-20.996,-18.555,246.582,0.000,0
1606140772.565,51.758,-22.461,-18.066,303.711,0.000,0
1606140772.569,-54.688,-36.133,-15.625,-83.496,0.000,0
1606140772.572,-129.883,-28.809,-23.926,-389.160,0.000,0
1606140772.576,-80.566,-21.484,-30.273,-229.492,0.000,0
1606140772.580,32.227,-20.020,-20.996,200.195,0.000,0
1606140772.584,50.293,-23.438,-22.949,310.547,0.000,0
1606140772.588,-46.875,-35.156,-32.715,-50.293,0.000,0
1606140772.592,-125.488,-38.574,-37.598,-389.648,0.000,0
1606140772.596,-84.961,-34.180,-34.668,-275.391,0.000,0
1606140772.600,24.902,-25.391,-31.250,155.273,0.000,0
1606140772.604,56.641,-24.414,-30.762,329.102,0.000,0
1606140772.608,-22.461,-28.809,-26.855,21.484,0.000,0
1606140772.612,-107.422,-35.156,-32.227,-351.562,0.000,0
1606140772.615,-86.426,-31.250,-32.715,-303.711,0.000,0
1606140772.619,25.391,-30.273,-29.785,110.352,0.000,0
1606140772.623,68.848,-10.254,-32.227,326.172,0.000,0
1606140772.627,-5.371,3.906,-32.227,76.172,0.000,0
1606140772.631,-98.145,-22.461,-26.855,-311.035,0.000,0
1606140772.635,-100.586,-36.621,-23.926,-342.773,0.000,0
1606140772.639,-1.953,-32.227,-28.809,50.781,0.000,0
1606140772.643,57.617,-23.438,-26.855,332.520,0.000,0
1606140772.647,-4.883,-23.926,-22.461,130.859,0.000,0
1606140772.651,-112.305,-39.551,-28.320,-294.434,0.000,0
1606140772.654,-121.094,-41.992,-31.738,-373.047,0.000,0
1606140772.658,-14.648,-36.621,-20.020,10.254,0.000,0
1606140772.662,57.617,-32.227,-6.348,322.754,0.000,0
1606140772.666,7.812,-34.180,-20.996,174.316,0.000,0
1606140772.670,-102.051,-37.598,-37.109,-253.906,0.000,0
1606140772.674,-126.465,-33.203,-36.133,-396.484,0.000,0
1606140772.678,-37.109,-35.645,-31.250,-61.523,0.000,0
1606140772.682,49.316,-30.273,-24.414,302.734,0.000,0
1606140772.686,23.438,-28.320,-24.414,230.469,0.000,0
1606140772.690,-84.473,-35.156,-31.738,-200.195,0.000,0
1606140772.694,-127.930,-42.969,-30.762,-399.902,0.000,0
1606140772.697,-51.758,-39.062,-26.367,-122.070,0.000,0
1606140772.701,48.828,-27.832,-27.344,264.160,0.000,0
1606140772.705,47.363,-21.973,-26.367,268.066,0.000,0
1606140772.709,-56.641,-22.461,-36.621,-148.438,0.000,0
1606140772.713,-98.633,-24.414,-39.551,-385.254,0.000,0
1606140772.717,-21.484,-35.156,-22.949,-131.836,0.000,0
1606140772.721,50.781,-26.855,-7.812,262.207,0.000,0
1606140772.725,25.879,-1.465,-0.488,298.828,0.000,0
1606140772.729,-86.426,-23.438,0.000,-95.703,0.000,0
1606140772.733,-176.270,-50.781,-5.859,-410.645,0.000,0
1606140772.737,-144.531,-53.223,-4.883,-262.695,0.000,0
1606140772.740,-36.133,-53.711,5.371,155.273,0.000,0
1606140772.744,-30.273,-54.199,10.254,232.910,0.000,0
1606140772.748,-143.066,-57.617,8.301,-141.602,0.000,0
1606140772.752,-216.797,-62.988,11.719,-442.871,0.000,0
1606140772.756,-184.570,-68.359,18.066,-337.402,0.000,0
1606140772.760,-77.148,-68.848,27.832,83.984,0.000,0
1606140772.764,-44.434,-66.895,37.109,257.324,0.000,0
1606140772.768,-128.906,-72.266,37.598,-45.898,0.000,0
1606140772.772,-211.426,-76.660,28.320,-400.391,0.000,0
1606140772.776,-188.477,-76.172,22.461,-353.516,0.000,0
1606140772.779,-79.590,-71.777,26.855,66.406,0.000,0
1606140772.783,-24.902,-59.082,28.320,281.738,0.000,0
1606140772.787,-84.961,-62.988,22.949,26.367,0.000,0
1606140772.791,-169.922,-71.289,14.648,-346.680,0.000,0
1606140772.795,-160.645,-68.848,5.859,-363.770,0.000,0
1606140772.799,-44.922,-70.801,6.836,57.617,0.000,0
1606140772.803,25.879,-29.785,7.812,341.309,0.000,0
1606140772.807,-31.738,-15.625,3.906,127.930,0.000,0
1606140772.811,-126.465,-59.570,0.488,-286.621,0.000,0
1606140772.815,-130.371,-68.359,-6.348,-361.328,0.000,0
1606140772.819,-28.809,-61.523,-1.953,14.160,0.000,0
1606140772.822,52.246,-56.152,3.418,325.195,0.000,0
1606140772.826,11.230,-58.105,-0.488,178.223,0.000,0
1606140772.830,-97.656,-59.082,-5.371,-238.770,0.000,0
1606140772.834,-117.676,-61.035,-0.488,-375.488,0.000,0
1606140772.838,-22.949,-54.688,5.371,-40.039,0.000,0
1606140772.842,56.641,-37.109,-4.395,316.406,0.000,0
1606140772.846,21.484,-38.574,-15.137,229.004,0.000,0
1606140772.850,-93.262,-57.129,-19.531,-201.172,0.000,0
1606140772.854,-140.137,-61.523,-21.484,-396.484,0.000,0
1606140772.858,-59.570,-54.688,-16.602,-111.328,0.000,0
1606140772.862,36.133,-27.832,-6.836,281.250,0.000,0
1606140772.865,20.508,-24.902,-5.371,272.949,0.000,0
1606140772.869,-88.379,-45.410,-12.695,-146.973,0.000,0
1606140772.873,-145.508,-54.688,-22.949,-398.926,0.000,0
1606140772.877,-75.195,-50.293,-18.555,-155.273,0.000,0
1606140772.881,31.738,-41.016,-5.371,258.789,0.000,0
1606140772.885,25.879,-44.434,-13.184,299.316,0.000,0
1606140772.889,-86.914,-46.875,-28.320,-100.586,0.000,0
1606140772.893,-148.926,-44.434,-27.832,-380.859,0.000,0
1606140772.897,-93.750,-45.898,-28.320,-201.660,0.000,0
1606140772.901,11.719,-28.320,-24.414,206.543,0.000,0
1606140772.904,32.715,12.207,-21.484,309.570,0.000,0
1606140772.908,-62.500,-14.160,-24.902,-44.922,0.000,0
1606140772.912,-139.160,-53.711,-26.367,-381.836,0.000,0
1606140772.916,-95.703,-49.316,-21.484,-266.602,0.000,0
1606140772.920,15.625,-46.875,-17.090,169.922,0.000,0
1606140772.924,47.852,-39.551,-14.160,341.797,0.000,0
1606140772.928,-35.645,-39.551,-16.113,22.949,0.000,0
1606140772.932,-124.023,-41.992,-28.809,-350.586,0.000,0
1606140772.936,-95.215,-38.086,-26.855,-296.875,0.000,0
1606140772.940,23.926,-25.879,-12.695,129.883,0.000,0
1606140772.944,64.453,-2.441,-10.254,344.238,0.000,0
1606140772.947,-22.461,-20.508,-22.461,71.289,0.000,0
1606140772.951,-115.723,-42.480,-33.691,-314.453,0.000,0
1606140772.955,-109.863,-44.922,-34.180,-323.730,0.000,0
1606140772.959,-12.207,-42.969,-27.832,75.195,0.000,0
1606140772.963,51.758,-37.109,-23.926,344.727,0.000,0
1606140772.967,-4.395,-40.527,-22.949,135.742,0.000,0
1606140772.971,-108.887,-40.527,-21.973,-276.855,0.000,0
1606140772.975,-116.699,-49.805,-22.949,-344.727,0.000,0
1606140772.979,-1.953,-44.434,-24.902,44.922,0.000,0
1606140772.983,73.730,-18.066,-26.367,350.098,0.000,0
1606140772.987,16.602,-11.719,-34.180,173.340,0.000,0
1606140772.990,-83.008,-19.531,-38.574,-257.324,0.000,0
1606140772.994,-98.145,-31.250,-35.645,-379.883,0.000,0
1606140772.998,-9.766,-41.504,-36.133,-43.457,0.000,0
1606140773.002,67.871,-6.836,-37.598,301.758,0.000,0
1606140773.006,35.156,9.766,-38.574,213.379,0.000,0
1606140773.010,-67.383,-33.691,-39.062,-202.148,0.000,0
1606140773.014,-103.516,-40.039,-34.668,-383.301,0.000,0
1606140773.018,-25.879,-34.180,-33.691,-88.867,0.000,0
1606140773.022,64.453,-26.367,-28.320,291.992,0.000,0
1606140773.026,47.852,-27.344,-28.320,264.648,0.000,0
1606140773.029,-54.199,-36.133,-38.086,-145.996,0.000,0
1606140773.033,-100.586,-30.273,-40.527,-383.301,0.000,0
1606140773.037,-27.832,-28.320,-35.156,-138.672,0.000,0
1606140773.041,76.172,-0.488,-30.762,267.578,0.000,0
1606140773.045,73.730,13.184,-28.809,296.875,0.000,0
1606140773.049,-34.180,-26.855,-33.691,-102.539,0.000,0
1606140773.053,-99.121,-38.086,-36.621,-390.137,0.000,0
1606140773.057,-43.457,-29.785,-24.414,-200.195,0.000,0
1606140773.061,56.641,-23.438,-23.926,215.332,0.000,0
1606140773.065,63.965,-25.391,-34.668,309.570,0.000,0
1606140773.069,-36.133,-40.527,-36.133,-50.293,0.000,0
1606140773.072,-110.352,-44.922,-33.691,-377.930,0.000,0
1606140773.076,-68.359,-40.527,-35.645,-246.094,0.000,0
1606140773.080,43.457,-17.578,-29.785,194.336,0.000,0
1606140773.084,77.637,29.297,-28.320,342.773,0.000,0
1606140773.088,-11.719,6.348,-33.691,3.418,0.000,0
1606140773.092,-102.539,-40.039,-38.086,-365.723,0.000,0
1606140773.096,-77.148,-35.156,-31.250,-293.457,0.000,0
1606140773.100,32.715,-24.902,-24.902,139.648,0.000,0
1606140773.104,81.055,-20.020,-27.832,346.680,0.000,0
1606140773.108,4.883,-29.297,-30.762,68.848,0.000,0
1606140773.112,-95.215,-37.109,-32.227,-323.730,0.000,0
1606140773.115,-86.914,-31.250,-31.250,-325.684,0.000,0
1606140773.119,20.996,-22.461,-31.738,83.008,0.000,0
1606140773.123,85.938,-18.066,-29.297,349.121,0.000,0
1606140773.127,25.879,-18.555,-29.297,136.230,0.000,0
1606140773.131,-84.473,-29.785,-36.621,-281.250,0.000,0
1606140773.135,-104.004,-40.039,-38.086,-353.516,0.000,0
1606140773.139,-4.883,-37.598,-29.297,22.949,0.000,0
1606140773.143,74.219,-2.441,-24.414,336.914,0.000,0
1606140773.147,29.297,1.465,-24.414,180.176,0.000,0
1606140773.151,-78.613,-32.227,-22.949,-254.395,0.000,0
1606140773.154,-101.562,-34.180,-32.715,-374.512,0.000,0
1606140773.158,-11.230,-26.855,-39.062,-23.438,0.000,0
1606140773.162,71.289,-27.832,-29.785,312.988,0.000,0
1606140773.166,40.527,-27.344,-27.344,209.961,0.000,0
1606140773.170,-62.500,-29.297,-30.762,-208.008,0.000,0
1606140773.174,-104.004,-30.273,-32.227,-378.418,0.000,0
1606140773.178,-29.297,-31.250,-23.926,-85.449,0.000,0
1606140773.182,54.688,-13.672,-20.996,273.438,0.000,0
1606140773.186,26.855,1.953,-25.879,230.469,0.000,0
1606140773.190,-75.684,-20.020,-21.973,-181.152,0.000,0
1606140773.194,-125.000,-33.203,-27.832,-409.180,0.000,0
1606140773.197,-58.594,-33.203,-33.203,-158.691,0.000,0
1606140773.201,41.992,-29.785,-23.438,248.535,0.000,0
1606140773.205,42.969,-28.809,-20.020,283.203,0.000,0
1606140773.209,-66.406,-37.598,-27.344,-116.211,0.000,0
1606140773.213,-130.859,-43.457,-34.180,-403.320,0.000,0
1606140773.217,-67.871,-40.039,-29.297,-202.148,0.000,0
1606140773.221,34.668,-20.996,-25.879,219.727,0.000,0
1606140773.225,45.410,-10.254,-19.531,310.547,0.000,0
1606140773.229,-54.199,-29.297,-19.043,-54.199,0.000,0
1606140773.233,-134.766,-38.086,-29.297,-383.301,0.000,0
1606140773.237,-95.703,-32.227,-29.297,-253.906,0.000,0
1606140773.240,18.555,-25.391,-22.461,174.316,0.000,0
1606140773.244,50.781,-28.809,-14.648,327.148,0.000,0
1606140773.248,-39.062,-40.527,-25.391,3.906,0.000,0
1606140773.252,-119.141,-40.039,-40.039,-351.074,0.000,0
1606140773.256,-87.891,-34.180,-40.039,-283.691,0.000,0
1606140773.260,22.949,-30.273,-29.297,147.461,0.000,0
1606140773.264,67.383,-28.320,-18.066,350.098,0.000,0
1606140773.268,-9.766,-29.297,-30.273,56.152,0.000,0
1606140773.272,-106.934,-34.180,-44.922,-332.031,0.000,0
1606140773.276,-98.145,-42.969,-44.922,-339.844,0.000,0
1606140773.279,10.254,-32.715,-35.645,62.500,0.000,0
1606140773.283,59.570,-5.371,-36.133,316.895,0.000,0
1606140773.287,-7.812,-6.836,-31.250,93.262,0.000,0
1606140773.291,-104.492,-31.738,-22.461,-306.641,0.000,0
1606140773.295,-114.258,-38.086,-27.344,-361.328,0.000,0
1606140773.299,-11.719,-31.738,-22.949,32.715,0.000,0
1606140773.303,55.664,-30.273,-17.578,333.496,0.000,0
1606140773.307,-1.465,-35.156,-23.438,153.809,0.000,0
1606140773.311,-103.027,-37.598,-29.297,-263.672,0.000,0
1606140773.315,-124.023,-37.598,-28.809,-372.559,0.000,0
1606140773.319,-35.645,-33.691,-24.414,-22.461,0.000,0
1606140773.322,50.781,-8.789,-23.438,318.848,0.000,0
1606140773.326,14.160,-15.137,-29.785,206.055,0.000,0
1606140773.330,-104.004,-44.922,-28.809,-221.680,0.000,0
1606140773.334,-140.625,-44.434,-18.066,-393.555,0.000,0
1606140773.338,-47.363,-33.691,-11.719,-84.473,0.000,0
1606140773.342,41.992,-28.320,-20.996,273.926,0.000,0
1606140773.346,19.043,-29.785,-21.973,233.398,0.000,0
1606140773.350,-83.008,-30.273,-24.902,-177.734,0.000,0
1606140773.354,-130.371,-33.691,-32.715,-407.715,0.000,0
1606140773.358,-53.711,-32.715,-26.367,-148.926,0.000,0
1606140773.362,49.805,-19.043,-21.973,266.602,0.000,0
1606140773.365,40.527,-12.207,-26.855,287.598,0.000,0
1606140773.369,-67.383,-30.273,-34.668,-127.441,0.000,0
1606140773.373,-123.535,-35.156,-31.250,-398.438,0.000,0
1606140773.377,-61.523,-28.320,-30.273,-190.918,0.000,0
1606140773.381,42.480,-26.367,-26.855,226.074,0.000,0
1606140773.385,56.641,-24.902,-20.996,304.688,0.000,0
1606140773.389,-46.387,-28.320,-30.273,-66.895,0.000,0
1606140773.393,-122.559,-30.273,-28.809,-379.395,0.000,0
1606140773.397,-78.125,-30.273,-27.832,-234.863,0.000,0
1606140773.401,23.926,-27.832,-24.414,189.941,0.000,0
1606140773.404,54.199,-23.438,-11.719,339.355,0.000,0
1606140773.408,-31.738,-24.414,-13.184,9.277,0.000,0
1606140773.412,-122.070,-30.762,-23.438,-361.816,0.000,0
1606140773.416,-102.051,-39.062,-27.344,-300.293,0.000,0
1606140773.420,-2.930,-27.344,-23.926,119.629,0.000,0
1606140773.424,41.504,-5.371,-15.137,323.730,0.000,0
1606140773.428,-28.320,-21.973,-22.461,49.316,0.000,0
1606140773.432,-125.488,-43.457,-31.250,-331.543,0.000,0
1606140773.436,-113.770,-42.969,-27.344,-326.172,0.000,0
1606140773.440,-2.930,-33.691,-20.020,89.844,0.000,0
1606140773.444,50.293,-27.344,-11.230,338.867,0.000,0
1606140773.447,-14.160,-26.855,-11.719,103.516,0.000,0
1606140773.451,-107.910,-30.762,-22.461,-295.410,0.000,0
1606140773.455,-101.562,-28.809,-30.273,-341.797,0.000,0
1606140773.459,4.883,-26.367,-30.273,39.062,0.000,0
1606140773.463,66.406,-6.836,-31.250,324.219,0.000,0
1606140773.467,9.766,-1.953,-31.250,145.508,0.000,0
1606140773.471,-93.262,-27.344,-31.250,-277.832,0.000,0
1606140773.475,-108.398,-30.762,-28.809,-389.160,0.000,0
1606140773.479,-14.160,-30.762,-28.320,-39.062,0.000,0
1606140773.483,59.082,-23.926,-25.879,295.410,0.000,0
1606140773.487,27.344,-12.207,-12.695,200.684,0.000,0
1606140773.490,-79.102,-21.484,-21.973,-220.703,0.000,0
1606140773.494,-118.652,-31.250,-36.621,-395.020,0.000,0
1606140773.498,-25.879,-26.855,-25.879,-66.406,0.000,0
1606140773.502,60.059,-7.812,-18.555,303.223,0.000,0
1606140773.506,31.250,-4.395,-21.973,240.234,0.000,0
1606140773.510,-77.148,-31.250,-26.367,-176.758,0.000,0
1606140773.514,-127.930,-38.086,-30.273,-392.090,0.000,0
1606140773.518,-56.641,-29.785,-25.879,-125.488,0.000,0
1606140773.522,45.410,-20.996,-19.043,272.461,0.000,0
1606140773.526,41.016,-28.809,-20.020,275.879,0.000,0
1606140773.529,-69.824,-37.109,-32.715,-137.695,0.000,0
1606140773.533,-137.207,-37.109,-41.992,-405.762,0.000,0
1606140773.537,-71.777,-32.715,-34.180,-195.312,0.000,0
1606140773.541,34.668,-26.367,-22.949,220.703,0.000,0
1606140773.545,44.434,-24.414,-21.973,304.199,0.000,0
1606140773.549,-51.758,-32.715,-25.391,-60.059,0.000,0
1606140773.553,-122.559,-30.762,-27.832,-369.629,0.000,0
1606140773.557,-75.195,-26.367,-21.484,-230.957,0.000,0
1606140773.561,23.926,-16.602,-10.742,182.617,0.000,0
1606140773.565,43.457,2.441,-14.160,319.336,0.000,0
1606140773.569,-45.410,-12.207,-25.879,-20.996,0.000,0
1606140773.572,-133.301,-37.598,-32.715,-381.836,0.000,0
1606140773.576,-99.609,-41.504,-31.250,-305.664,0.000,0
1606140773.580,15.625,-26.855,-24.414,124.512,0.000,0
1606140773.584,54.199,-16.602,-23.438,312.012,0.000,0
1606140773.588,-21.973,-22.461,-29.297,8.301,0.000,0
1606140773.592,-113.281,-24.902,-33.691,-362.793,0.000,0
1606140773.596,-97.168,-23.926,-33.203,-329.590,0.000,0
1606140773.600,6.836,-25.879,-25.879,83.008,0.000,0
1606140773.604,58.105,-19.531,-18.066,338.867,0.000,0
1606140773.608,0.488,-21.973,-26.367,122.070,0.000,0
1606140773.612,-91.309,-30.273,-38.574,-288.574,0.000,0
1606140773.615,-93.262,-30.273,-40.527,-350.098,0.000,0
1606140773.619,-8.301,-22.461,-45.410,16.602,0.000,0
1606140773.623,52.246,-14.160,-44.434,299.316,0.000,0
1606140773.627,3.906,-12.207,-43.457,126.953,0.000,0
1606140773.631,-97.656,-19.531,-48.828,-286.621,0.000,0
1606140773.635,-110.840,-24.902,-52.246,-385.742,0.000,0
1606140773.639,-16.602,-21.973,-44.922,-20.996,0.000,0
1606140773.643,63.477,-7.812,-42.480,326.172,0.000,0
1606140773.647,19.043,-10.742,-44.434,193.848,0.000,0
1606140773.651,-87.402,-20.996,-42.969,-247.070,0.000,0
1606140773.654,-116.211,-19.531,-48.828,-400.879,0.000,0
1606140773.658,-34.668,-22.461,-46.875,-80.078,0.000,0
1606140773.662,54.199,-18.066,-35.645,291.504,0.000,0
1606140773.666,42.969,-19.043,-34.668,237.793,0.000,0
1606140773.670,-62.988,-30.762,-44.434,-186.523,0.000,0
1606140773.674,-119.629,-31.738,-51.270,-390.625,0.000,0
1606140773.678,-40.527,-25.879,-49.805,-119.629,0.000,0
1606140773.682,60.547,-20.020,-42.480,267.578,0.000,0
1606140773.686,56.641,-10.254,-39.551,278.809,0.000,0
1606140773.690,-44.922,-15.137,-44.922,-127.441,0.000,0
1606140773.694,-103.516,-23.438,-46.875,-399.414,0.000,0
1606140773.697,-42.480,-21.484,-46.387,-189.453,0.000,0
1606140773.701,59.570,-3.418,-41.504,221.680,0.000,0
1606140773.705,67.871,2.930,-39.551,293.945,0.000,0
1606140773.709,-36.133,-13.184,-43.457,-81.055,0.000,0
1606140773.713,-108.887,-22.949,-43.945,-395.020,0.000,0
1606140773.717,-62.500,-22.461,-37.598,-243.652,0.000,0
1606140773.721,43.945,-11.719,-30.273,201.660,0.000,0
1606140773.725,59.082,-13.184,-29.785,300.293,0.000,0
1606140773.729,-40.039,-24.902,-33.691,-54.688,0.000,0
1606140773.733,-110.352,-27.344,-36.133,-351.562,0.000,0
1606140773.737,-75.195,-29.785,-28.809,-266.602,0.000,0
1606140773.740,32.715,-22.949,-27.344,151.367,0.000,0
1606140773.744,64.941,-0.488,-35.645,334.961,0.000,0
1606140773.748,-19.043,-10.742,-37.598,28.320,0.000,0
1606140773.752,-111.328,-33.691,-35.645,-353.516,0.000,0
1606140773.756,-96.191,-36.621,-33.691,-319.336,0.000,0
1606140773.760,12.695,-34.180,-25.391,99.609,0.000,0
1606140773.764,64.453,-30.762,-19.531,338.379,0.000,0
1606140773.768,-6.348,-31.738,-22.949,100.586,0.000,0
1606140773.772,-108.887,-31.738,-26.855,-304.199,0.000,0
1606140773.776,-115.234,-37.109,-25.879,-342.773,0.000,0
1606140773.779,-22.949,-33.203,-28.320,51.270,0.000,0
1606140773.783,42.969,-29.785,-34.668,332.031,0.000,0
1606140773.787,-7.812,-40.527,-30.273,144.043,0.000,0
1606140773.791,-116.211,-39.062,-33.691,-272.461,0.000,0
1606140773.795,-126.465,-37.598,-41.016,-375.000,0.000,0
1606140773.799,-26.367,-34.180,-34.180,-17.090,0.000,0
1606140773.803,53.223,-10.254,-27.832,310.059,0.000,0
1606140773.807,13.672,-14.160,-26.367,178.223,0.000,0
1606140773.811,-92.773,-33.203,-35.156,-252.441,0.000,0
1606140773.815,-121.094,-26.367,-36.133,-407.715,0.000,0
1606140773.819,-34.180,-28.809,-31.250,-80.566,0.000,0
1606140773.822,60.547,-28.809,-31.250,290.527,0.000,0
1606140773.826,53.711,-29.297,-26.855,243.652,0.000,0
1606140773.830,-36.133,-28.320,-30.762,-155.273,0.000,0
1606140773.834,-82.520,-18.555,-39.551,-367.676,0.000,0
1606140773.838,-21.484,-25.391,-41.016,-119.141,0.000,0
1606140773.842,69.336,-4.883,-43.457,279.297,0.000,0
1606140773.846,76.660,22.461,-49.805,298.828,0.000,0
1606140773.850,-26.367,-3.906,-60.059,-120.605,0.000,0
1606140773.854,-93.750,-10.742,-68.848,-381.348,0.000,0
1606140773.858,-20.996,-0.977,-62.500,-147.461,0.000,0
1606140773.862,91.309,5.859,-62.500,268.066,0.000,0
1606140773.865,112.305,9.766,-66.406,341.309,0.000,0
1606140773.869,19.043,-4.883,-67.871,-38.086,0.000,0
1606140773.873,-49.805,-15.625,-69.336,-348.633,0.000,0
1606140773.877,0.000,-15.625,-54.688,-185.547,0.000,0
1606140773.881,96.680,5.859,-46.387,222.656,0.000,0
1606140773.885,114.746,18.555,-49.316,338.379,0.000,0
1606140773.889,24.414,-10.742,-56.641,-3.906,0.000,0
1606140773.893,-59.570,-22.461,-62.500,-351.074,0.000,0
1606140773.897,-27.832,-18.066,-62.500,-254.395,0.000,0
1606140773.901,77.637,-16.113,-60.059,175.781,0.000,0
1606140773.904,111.816,-13.184,-52.734,362.793,0.000,0
1606140773.908,27.832,-12.207,-51.270,71.777,0.000,0
1606140773.912,-70.312,-17.578,-53.711,-309.570,0.000,0
1606140773.916,-62.012,-24.902,-50.781,-288.086,0.000,0
1606140773.920,39.062,-19.043,-43.457,131.836,0.000,0
1606140773.924,92.285,6.348,-27.832,373.535,0.000,0
1606140773.928,19.043,-10.254,-29.785,113.770,0.000,0
1606140773.932,-87.891,-44.922,-47.852,-304.688,0.000,0
1606140773.936,-81.543,-43.457,-45.898,-340.332,0.000,0
1606140773.940,29.785,-27.832,-31.738,71.289,0.000,0
1606140773.944,100.098,-16.602,-22.461,373.047,0.000,0
1606140773.947,47.363,-25.879,-16.602,187.500,0.000,0
1606140773.951,-58.105,-34.180,-20.020,-238.770,0.000,0
1606140773.955,-80.566,-35.645,-29.785,-343.750,0.000,0
1606140773.959,13.672,-30.762,-29.297,21.484,0.000,0
1606140773.963,91.309,-23.438,-20.508,347.656,0.000,0
1606140773.967,48.340,-21.973,-23.438,219.238,0.000,0
1606140773.971,-54.199,-24.902,-29.785,-197.266,0.000,0
1606140773.975,-82.520,-30.762,-29.297,-354.004,0.000,0
1606140773.979,-3.418,-28.809,-31.738,-34.668,0.000,0
1606140773.983,81.543,-0.977,-26.855,331.543,0.000,0
1606140773.987,60.547,1.465,-21.484,266.113,0.000,0
1606140773.990,-47.852,-24.414,-35.156,-158.203,0.000,0
1606140773.994,-94.238,-28.320,-42.969,-365.234,0.000,0
1606140773.998,-17.578,-20.020,-33.203,-84.473,0.000,0
1606140774.002,78.125,-13.672,-25.391,313.965,0.000,0
1606140774.006,62.988,-17.578,-25.391,312.500,0.000,0
1606140774.010,-43.457,-19.531,-32.227,-102.051,0.000,0
1606140774.014,-98.633,-24.414,-37.109,-356.445,0.000,0
1606140774.018,-32.227,-25.879,-33.691,-125.977,0.000,0
1606140774.022,68.848,-9.277,-40.039,276.367,0.000,0
1606140774.026,71.777,9.766,-37.109,326.172,0.000,0
1606140774.029,-31.250,-13.672,-28.809,-63.965,0.000,0
1606140774.033,-99.609,-36.133,-33.203,-361.816,0.000,0
1606140774.037,-30.273,-28.809,-35.645,-181.641,0.000,0
1606140774.041,72.266,-18.555,-33.691,225.586,0.000,0
1606140774.045,71.289,-13.672,-35.645,298.828,0.000,0
1606140774.049,-28.320,-11.719,-41.016,-67.871,0.000,0
1606140774.053,-111.328,-14.648,-42.480,-392.090,0.000,0
1606140774.057,-82.520,-27.832,-40.527,-289.062,0.000,0
1606140774.061,17.578,-20.508,-32.715,136.719,0.000,0
1606140774.065,48.828,-13.672,-26.367,308.594,0.000,0
1606140774.069,-36.133,-28.320,-31.250,-17.090,0.000,0
1606140774.072,-117.676,-30.762,-37.109,-407.227,0.000,0
1606140774.076,-97.168,-25.879,-41.016,-385.254,0.000,0
1606140774.080,11.230,-15.137,-35.156,43.945,0.000,0
1606140774.084,62.500,-12.695,-26.367,288.574,0.000,0
1606140774.088,-16.602,-24.414,-33.691,32.227,0.000,0
1606140774.092,-115.723,-26.367,-40.039,-360.352,0.000,0
1606140774.096,-116.211,-32.715,-35.645,-377.930,0.000,0
1606140774.100,-19.531,-37.109,-25.879,22.461,0.000,0
1606140774.104,40.527,-29.297,-15.137,304.688,0.000,0
1606140774.108,-20.996,-28.809,-27.832,110.352,0.000,0
1606140774.112,-130.859,-35.645,-36.621,-295.410,0.000,0
1606140774.115,-147.461,-37.598,-30.762,-378.906,0.000,0
1606140774.119,-41.992,-29.297,-21.484,-12.207,0.000,0
1606140774.123,29.785,-15.137,-23.926,306.152,0.000,0
1606140774.127,-11.719,-17.578,-26.367,173.340,0.000,0
1606140774.131,-106.445,-35.156,-18.555,-240.234,0.000,0
1606140774.135,-126.465,-34.180,-12.207,-372.070,0.000,0
1606140774.139,-26.367,-26.855,-13.672,-32.715,0.000,0
1606140774.143,63.965,-22.949,-13.184,331.543,0.000,0
1606140774.147,42.969,-26.367,-12.695,250.977,0.000,0
1606140774.151,-68.848,-31.250,-19.531,-183.594,0.000,0
1606140774.154,-121.582,-33.203,-24.414,-378.906,0.000,0
1606140774.158,-38.086,-34.180,-20.996,-96.680,0.000,0
1606140774.162,57.617,-26.855,-10.742,280.762,0.000,0
1606140774.166,41.504,-22.461,-9.766,265.625,0.000,0
1606140774.170,-70.801,-32.715,-22.949,-152.832,0.000,0
1606140774.174,-129.395,-37.109,-35.156,-405.762,0.000,0
1606140774.178,-62.500,-30.273,-27.832,-185.547,0.000,0
1606140774.182,36.621,-20.996,-15.137,214.844,0.000,0
1606140774.186,34.180,-24.902,-17.578,266.602,0.000,0
1606140774.190,-69.824,-32.715,-25.879,-115.234,0.000,0
1606140774.194,-137.695,-39.551,-32.227,-412.109,0.000,0
1606140774.197,-83.008,-42.480,-34.180,-252.930,0.000,0
1606140774.201,17.578,-26.855,-26.855,165.039,0.000,0
1606140774.205,34.180,-16.113,-21.484,289.062,0.000,0
1606140774.209,-61.523,-31.738,-23.926,-58.594,0.000,0
1606140774.213,-154.785,-44.922,-31.250,-402.344,0.000,0
1606140774.217,-115.234,-46.875,-27.832,-294.922,0.000,0
1606140774.221,-1.465,-30.762,-19.043,137.695,0.000,0
1606140774.225,32.715,-20.020,-21.973,315.918,0.000,0
1606140774.229,-52.246,-39.551,-28.320,13.184,0.000,0
1606140774.233,-142.090,-43.945,-27.832,-357.910,0.000,0
1606140774.237,-120.117,-37.598,-22.461,-310.547,0.000,0
1606140774.240,-11.230,-30.762,-17.090,110.840,0.000,0
1606140774.244,47.852,-25.879,-16.113,328.613,0.000,0
1606140774.248,-14.160,-32.227,-22.461,76.172,0.000,0
1606140774.252,-112.793,-36.133,-31.738,-312.988,0.000,0
1606140774.256,-112.793,-41.504,-36.133,-345.703,0.000,0
1606140774.260,1.465,-30.762,-24.414,49.805,0.000,0
1606140774.264,67.871,-14.648,-16.602,322.754,0.000,0
1606140774.268,4.883,-28.320,-21.484,118.164,0.000,0
1606140774.272,-85.449,-38.086,-28.320,-291.504,0.000,0
1606140774.276,-95.703,-37.109,-29.785,-370.117,0.000,0
1606140774.279,-9.766,-32.715,-20.508,5.371,0.000,0
1606140774.283,72.266,-23.438,-17.578,316.406,0.000,0
1606140774.287,30.762,-26.855,-19.043,158.691,0.000,0
1606140774.291,-76.172,-35.156,-23.926,-271.484,0.000,0
1606140774.295,-103.516,-37.598,-35.645,-406.250,0.000,0
1606140774.299,-12.207,-37.598,-29.297,-56.641,0.000,0
1606140774.303,73.242,-11.719,-22.461,297.363,0.000,0
1606140774.307,40.527,-3.906,-27.344,204.102,0.000,0
1606140774.311,-60.547,-32.227,-27.832,-207.031,0.000,0
1606140774.315,-99.609,-34.668,-23.926,-390.625,0.000,0
1606140774.319,-35.645,-32.715,-18.555,-109.863,0.000,0
1606140774.322,41.504,-33.203,-12.695,267.578,0.000,0
1606140774.326,14.648,-35.645,-13.184,242.188,0.000,0
1606140774.330,-95.215,-36.621,-18.555,-170.898,0.000,0
1606140774.334,-155.273,-39.062,-25.391,-424.316,0.000,0
1606140774.338,-88.867,-34.180,-25.879,-193.359,0.000,0
1606140774.342,22.461,-16.602,-17.090,229.004,0.000,0
1606140774.346,27.344,-19.043,-21.973,279.297,0.000,0
1606140774.350,-74.707,-31.250,-26.367,-112.305,0.000,0
1606140774.354,-128.906,-37.109,-33.691,-401.855,0.000,0
1606140774.358,-68.359,-37.598,-39.551,-226.562,0.000,0
1606140774.362,31.250,-20.020,-34.668,196.777,0.000,0
1606140774.365,50.293,-21.484,-30.273,301.758,0.000,0
1606140774.369,-48.828,-40.527,-35.645,-60.547,0.000,0
1606140774.373,-136.719,-40.039,-39.062,-397.949,0.000,0
1606140774.377,-94.238,-32.227,-30.273,-268.555,0.000,0
1606140774.381,10.742,-27.832,-23.926,163.574,0.000,0
1606140774.385,34.180,-28.809,-24.414,313.477,0.000,0
1606140774.389,-43.457,-29.785,-30.273,3.906,0.000,0
1606140774.393,-133.301,-39.551,-35.645,-362.793,0.000,0
1606140774.397,-119.629,-42.969,-31.738,-322.754,0.000,0
1606140774.401,-10.254,-32.715,-21.973,94.238,0.000,0
1606140774.404,37.109,-9.277,-31.250,308.105,0.000,0
1606140774.408,-40.039,-11.719,-42.480,46.875,0.000,0
1606140774.412,-134.277,-34.668,-40.039,-328.613,0.000,0
1606140774.416,-120.605,-35.156,-36.133,-340.820,0.000,0
1606140774.420,-7.324,-25.391,-26.855,51.270,0.000,0
1606140774.424,60.547,-20.020,-21.973,321.289,0.000,0
1606140774.428,-1.953,-29.785,-28.320,106.445,0.000,0
1606140774.432,-109.375,-34.180,-30.762,-305.176,0.000,0
1606140774.436,-121.582,-36.133,-30.762,-370.117,0.000,0
1606140774.440,-17.090,-27.832,-26.855,15.137,0.000,0
1606140774.444,53.711,-17.578,-17.578,329.102,0.000,0
1606140774.447,-0.488,-28.320,-17.578,172.852,0.000,0
1606140774.451,-108.398,-33.691,-29.297,-253.906,0.000,0
1606140774.455,-130.859,-32.715,-30.273,-384.277,0.000,0
1606140774.459,-42.969,-34.668,-24.414,-50.781,0.000,0
1606140774.463,36.133,-31.250,-16.602,295.410,0.000,0
1606140774.467,5.859,-28.320,-21.484,202.637,0.000,0
1606140774.471,-97.168,-30.273,-30.762,-212.402,0.000,0
1606140774.475,-134.766,-34.180,-27.832,-384.766,0.000,0
1606140774.479,-59.570,-34.668,-29.297,-102.539,0.000,0
1606140774.483,42.969,-23.926,-28.320,274.414,0.000,0
1606140774.487,41.016,-18.066,-25.391,259.766,0.000,0
1606140774.490,-61.035,-30.273,-25.391,-159.180,0.000,0
1606140774.494,-112.793,-35.156,-21.973,-403.809,0.000,0
1606140774.498,-43.457,-32.715,-17.090,-159.668,0.000,0
1606140774.502,54.199,-18.555,-17.090,246.582,0.000,0
1606140774.506,54.199,-13.672,-26.367,285.156,0.000,0
1606140774.510,-45.898,-32.715,-31.738,-115.234,0.000,0
1606140774.514,-113.281,-42.480,-37.109,-411.133,0.000,0
1606140774.518,-53.223,-41.016,-36.133,-224.121,0.000,0
1606140774.522,51.758,-30.273,-21.973,201.660,0.000,0
1606140774.526,61.523,-24.414,-26.855,293.945,0.000,0
1606140774.529,-36.133,-23.438,-29.297,-59.082,0.000,0
1606140774.533,-118.652,-26.367,-24.414,-382.324,0.000,0
1606140774.537,-88.379,-36.621,-36.133,-278.320,0.000,0
1606140774.541,20.508,-23.438,-39.551,143.066,0.000,0
1606140774.545,44.434,-6.836,-33.691,308.105,0.000,0
1606140774.549,-38.574,-20.508,-28.809,6.348,0.000,0
1606140774.553,-115.234,-32.715,-32.715,-348.145,0.000,0
1606140774.557,-90.332,-34.180,-27.832,-298.340,0.000,0
1606140774.561,25.391,-22.949,-18.066,126.465,0.000,0
1606140774.565,77.637,-15.625,-20.996,346.680,0.000,0
1606140774.569,5.859,-17.578,-21.973,77.148,0.000,0
1606140774.572,-87.891,-20.996,-32.227,-327.148,0.000,0
1606140774.576,-83.008,-32.227,-43.457,-339.355,0.000,0
1606140774.580,20.996,-22.949,-35.156,77.148,0.000,0
1606140774.584,71.289,-2.930,-33.691,327.637,0.000,0
1606140774.588,3.906,-14.160,-31.250,110.840,0.000,0
1606140774.592,-101.074,-30.762,-34.668,-297.363,0.000,0
1606140774.596,-113.770,-28.320,-41.992,-374.512,0.000,0
1606140774.600,-14.160,-22.461,-32.715,7.812,0.000,0
1606140774.604,57.617,-25.391,-26.855,322.754,0.000,0
1606140774.608,6.836,-29.297,-34.668,161.133,0.000,0
1606140774.612,-98.633,-28.320,-43.457,-263.184,0.000,0
1606140774.615,-116.699,-28.320,-38.574,-382.812,0.000,0
1606140774.619,-23.926,-31.738,-32.227,-43.457,0.000,0
1606140774.623,57.617,-25.391,-25.879,306.641,0.000,0
1606140774.627,23.438,-25.879,-23.438,217.773,0.000,0
1606140774.631,-86.426,-37.109,-32.227,-219.727,0.000,0
1606140774.635,-119.141,-37.109,-31.738,-405.762,0.000,0
1606140774.639,-36.621,-30.762,-20.996,-102.539,0.000,0
1606140774.643,56.152,-19.531,-15.625,283.203,0.000,0
1606140774.647,42.969,-23.438,-22.949,254.395,0.000,0
1606140774.651,-65.430,-37.598,-32.227,-172.852,0.000,0
1606140774.654,-117.676,-40.527,-30.762,-414.062,0.000,0
1606140774.658,-47.852,-35.645,-30.273,-164.551,0.000,0
1606140774.662,57.617,-24.902,-28.320,261.719,0.000,0
1606140774.666,51.270,-22.949,-22.949,274.414,0.000,0
1606140774.670,-55.176,-28.320,-24.414,-129.883,0.000,0
1606140774.674,-110.840,-31.738,-33.203,-373.535,0.000,0
1606140774.678,-56.152,-31.738,-29.297,-182.617,0.000,0
1606140774.682,42.969,-17.578,-23.438,228.516,0.000,0
1606140774.686,55.664,-4.395,-20.020,299.316,0.000,0
1606140774.690,-35.156,-22.949,-14.160,-63.477,0.000,0
1606140774.694,-108.887,-31.250,-21.973,-379.883,0.000,0
1606140774.697,-68.848,-22.461,-32.227,-249.023,0.000,0
1606140774.701,37.109,-18.555,-28.320,178.711,0.000,0
1606140774.705,72.266,-18.555,-13.672,341.309,0.000,0
1606140774.709,-19.531,-25.879,-14.160,26.367,0.000,0
1606140774.713,-115.723,-30.762,-24.414,-341.797,0.000,0
1606140774.717,-92.285,-30.762,-25.391,-280.273,0.000,0
1606140774.721,20.508,-16.602,-20.508,152.344,0.000,0
1606140774.725,62.500,-10.254,-13.184,349.609,0.000,0
1606140774.729,-16.113,-27.344,-20.996,59.570,0.000,0
1606140774.733,-108.887,-39.062,-34.668,-328.125,0.000,0
1606140774.737,-100.586,-40.039,-30.273,-323.242,0.000,0
1606140774.740,10.254,-26.367,-17.578,86.426,0.000,0
1606140774.744,68.848,-20.020,-15.137,342.773,0.000,0
1606140774.748,-3.418,-31.738,-20.020,120.605,0.000,0
1606140774.752,-106.934,-38.574,-27.832,-291.016,0.000,0
1606140774.756,-111.816,-44.434,-32.227,-353.027,0.000,0
1606140774.760,-16.602,-41.504,-26.367,33.203,0.000,0
1606140774.764,58.105,-22.461,-11.719,343.750,0.000,0
1606140774.768,11.230,-20.020,-14.160,179.199,0.000,0
1606140774.772,-105.469,-36.621,-36.133,-270.020,0.000,0
1606140774.776,-125.977,-38.574,-36.133,-405.273,0.000,0
1606140774.779,-33.691,-33.203,-28.320,-54.688,0.000,0
1606140774.783,40.527,-4.395,-34.180,296.387,0.000,0
1606140774.787,10.254,4.395,-37.598,208.984,0.000,0
1606140774.791,-92.773,-31.738,-42.969,-217.285,0.000,0
1606140774.795,-134.766,-40.039,-47.852,-413.574,0.000,0
1606140774.799,-45.898,-25.879,-33.691,-107.422,0.000,0
1606140774.803,55.664,-15.137,-22.949,276.855,0.000,0
1606140774.807,37.598,-22.461,-23.438,239.258,0.000,0
1606140774.811,-71.289,-27.344,-31.738,-178.711,0.000,0
1606140774.815,-115.723,-28.809,-37.598,-398.926,0.000,0
1606140774.819,-36.621,-32.227,-24.414,-132.324,0.000,0
1606140774.822,55.176,-28.320,-7.812,275.879,0.000,0
1606140774.826,38.086,-32.715,-12.695,285.156,0.000,0
1606140774.830,-74.219,-40.527,-22.461,-126.953,0.000,0
1606140774.834,-140.625,-39.551,-26.367,-413.574,0.000,0
1606140774.838,-77.148,-38.574,-22.949,-223.633,0.000,0
1606140774.842,33.691,-23.926,-20.996,204.590,0.000,0
1606140774.846,45.898,-24.902,-19.043,301.758,0.000,0
1606140774.850,-46.387,-38.086,-20.508,-47.852,0.000,0
1606140774.854,-114.258,-38.086,-20.020,-358.398,0.000,0
1606140774.858,-70.801,-46.875,-18.066,-232.910,0.000,0
1606140774.862,32.715,-20.996,-19.043,189.941,0.000,0
1606140774.865,56.641,9.277,-23.438,331.543,0.000,0
1606140774.869,-27.344,-23.926,-21.484,6.348,0.000,0
1606140774.873,-110.840,-46.875,-18.555,-350.586,0.000,0
1606140774.877,-89.355,-39.062,-20.508,-292.969,0.000,0
1606140774.881,20.996,-24.902,-17.578,129.883,0.000,0
1606140774.885,65.430,-22.949,-16.113,333.984,0.000,0
1606140774.889,-13.672,-37.598,-17.090,57.129,0.000,0
1606140774.893,-108.887,-39.062,-17.578,-333.496,0.000,0
1606140774.897,-102.539,-36.133,-20.996,-345.215,0.000,0
1606140774.901,2.930,-30.273,-28.320,60.547,0.000,0
1606140774.904,62.500,-27.344,-26.367,325.684,0.000,0
1606140774.908,0.977,-29.297,-21.973,105.957,0.000,0
1606140774.912,-103.516,-30.762,-24.414,-309.082,0.000,0
1606140774.916,-113.770,-40.527,-28.809,-374.512,0.000,0
1606140774.920,-19.043,-36.133,-31.250,6.836,0.000,0
1606140774.924,49.805,-8.789,-26.367,319.824,0.000,0
1606140774.928,2.441,-16.602,-23.438,157.227,0.000,0
1606140774.932,-100.586,-38.086,-31.250,-265.137,0.000,0
1606140774.936,-116.211,-41.016,-30.273,-372.559,0.000,0
1606140774.940,-28.809,-39.062,-32.715,-33.691,0.000,0
1606140774.944,48.828,-33.203,-29.297,306.152,0.000,0
1606140774.947,15.137,-34.668,-26.855,204.590,0.000,0
1606140774.951,-87.891,-39.062,-34.668,-218.262,0.000,0
1606140774.955,-120.605,-39.062,-35.156,-379.883,0.000,0
1606140774.959,-40.527,-42.969,-29.785,-74.219,0.000,0
1606140774.963,41.504,-21.973,-22.949,283.203,0.000,0
1606140774.967,16.113,-11.230,-28.320,240.234,0.000,0
1606140774.971,-84.473,-38.574,-36.133,-175.781,0.000,0
1606140774.975,-126.465,-45.898,-31.738,-405.762,0.000,0
1606140774.979,-61.035,-43.457,-27.832,-147.949,0.000,0
1606140774.983,35.156,-38.574,-26.855,250.000,0.000,0
1606140774.987,35.645,-35.645,-30.273,279.297,0.000,0
1606140774.990,-63.965,-35.645,-33.203,-107.910,0.000,0
1606140774.994,-123.047,-39.551,-32.715,-381.348,0.000,0
1606140774.998,-60.547,-42.480,-28.809,-180.664,0.000,0
1606140775.002,43.945,-17.578,-20.996,232.422,0.000,0
1606140775.006,55.664,-7.324,-15.137,308.594,0.000,0
1606140775.010,-40.527,-36.133,-23.926,-64.941,0.000,0
1606140775.014,-113.281,-39.062,-32.715,-388.184,0.000,0
1606140775.018,-69.336,-33.203,-25.879,-243.164,0.000,0
1606140775.022,36.621,-30.273,-22.461,190.430,0.000,0
1606140775.026,66.895,-27.344,-27.344,332.520,0.000,0
1606140775.029,-23.926,-31.250,-29.785,0.977,0.000,0
1606140775.033,-105.469,-31.738,-29.785,-349.609,0.000,0
1606140775.037,-71.777,-23.438,-34.180,-273.438,0.000,0
1606140775.041,43.457,-23.438,-28.809,160.156,0.000,0
1606140775.045,83.008,-29.785,-16.602,373.047,0.000,0
1606140775.049,-27.832,-40.039,-11.719,68.359,0.000,0
1606140775.053,-149.414,-48.340,-16.113,-346.191,0.000,0
1606140775.057,-144.043,-52.734,-12.695,-340.820,0.000,0
1606140775.061,-42.969,-38.086,-1.953,65.430,0.000,0
1606140775.065,6.836,15.625,3.906,317.383,0.000,0
1606140775.069,-67.871,0.000,9.766,86.914,0.000,0
1606140775.072,-170.410,-59.570,3.906,-328.613,0.000,0
1606140775.076,-168.945,-68.359,0.000,-381.836,0.000,0
1606140775.080,-60.547,-59.082,2.441,14.648,0.000,0
1606140775.084,15.625,-50.781,-2.930,317.871,0.000,0
1606140775.088,-30.273,-61.035,-4.883,147.461,0.000,0
1606140775.092,-130.859,-61.035,-8.789,-262.695,0.000,0
1606140775.096,-143.066,-61.035,-11.230,-367.676,0.000,0
1606140775.100,-45.898,-59.570,-5.859,-36.133,0.000,0
1606140775.104,35.156,-25.391,-4.883,294.922,0.000,0
1606140775.108,0.977,-34.180,-8.301,193.359,0.000,0
1606140775.112,-105.469,-59.082,-11.230,-229.004,0.000,0
1606140775.115,-139.648,-58.105,-13.184,-398.438,0.000,0
1606140775.119,-54.688,-53.223,-14.160,-89.355,0.000,0
1606140775.123,41.016,-41.016,-12.207,285.645,0.000,0
1606140775.127,20.996,-39.062,-5.859,247.070,0.000,0
1606140775.131,-89.844,-45.898,-11.230,-175.293,0.000,0
1606140775.135,-140.625,-48.340,-22.949,-408.691,0.000,0
1606140775.139,-68.848,-48.340,-20.020,-152.344,0.000,0
1606140775.143,36.621,-18.555,-14.648,260.742,0.000,0
1606140775.147,34.180,-5.371,-12.695,287.109,0.000,0
1606140775.151,-72.754,-40.039,-16.113,-129.395,0.000,0
1606140775.154,-132.324,-50.293,-19.043,-407.227,0.000,0
1606140775.158,-70.312,-41.016,-10.742,-188.965,0.000,0
1606140775.162,40.527,-33.691,-0.488,231.934,0.000,0
1606140775.166,58.105,-28.809,2.930,317.871,0.000,0
1606140775.170,-41.504,-34.180,-10.254,-51.270,0.000,0
1606140775.174,-117.188,-39.551,-15.625,-371.094,0.000,0
1606140775.178,-76.172,-41.504,-15.625,-235.840,0.000,0
1606140775.182,33.203,-38.086,-18.066,183.105,0.000,0
1606140775.186,62.500,-30.273,-14.160,331.055,0.000,0
1606140775.190,-28.809,-35.645,-16.602,5.371,0.000,0
1606140775.194,-110.352,-32.715,-21.973,-354.004,0.000,0
1606140775.197,-81.055,-28.809,-24.414,-281.738,0.000,0
1606140775.201,30.273,-6.348,-19.043,155.273,0.000,0
1606140775.205,73.730,13.184,-9.277,358.398,0.000,0
1606140775.209,-14.648,-25.391,-16.113,53.223,0.000,0
1606140775.213,-114.258,-39.062,-29.297,-342.773,0.000,0
1606140775.217,-105.957,-34.668,-33.203,-339.355,0.000,0
1606140775.221,1.465,-33.691,-24.902,78.613,0.000,0
1606140775.225,58.594,-32.227,-13.184,327.148,0.000,0
1606140775.229,-9.277,-38.086,-15.625,83.984,0.000,0
1606140775.233,-111.328,-40.039,-24.414,-312.500,0.000,0
1606140775.237,-115.723,-42.480,-25.879,-349.121,0.000,0
1606140775.240,-15.137,-34.668,-22.461,36.133,0.000,0
1606140775.244,52.246,15.137,-22.949,321.777,0.000,0
1606140775.248,2.930,3.906,-20.508,141.602,0.000,0
1606140775.252,-104.004,-37.598,-21.973,-275.391,0.000,0
1606140775.256,-131.836,-38.574,-20.996,-385.254,0.000,0
1606140775.260,-41.992,-38.086,-17.578,-31.250,0.000,0
1606140775.264,38.574,-33.691,-16.113,302.734,0.000,0
1606140775.268,2.930,-35.156,-15.625,188.477,0.000,0
1606140775.272,-108.887,-40.039,-21.484,-239.258,0.000,0
1606140775.276,-149.414,-43.457,-30.762,-408.691,0.000,0
1606140775.279,-62.500,-40.039,-32.715,-91.309,0.000,0
1606140775.283,33.691,-15.625,-40.039,284.668,0.000,0
1606140775.287,20.020,-20.508,-45.898,232.910,0.000,0
1606140775.291,-79.102,-42.969,-42.480,-190.918,0.000,0
1606140775.295,-125.977,-46.875,-45.410,-408.203,0.000,0
1606140775.299,-55.176,-42.480,-39.551,-144.043,0.000,0
1606140775.303,49.805,-30.273,-27.832,259.277,0.000,0
1606140775.307,49.316,-31.250,-30.762,277.344,0.000,0
1606140775.311,-55.664,-38.574,-38.574,-131.348,0.000,0
1606140775.315,-119.629,-44.922,-44.434,-404.297,0.000,0
1606140775.319,-56.152,-38.086,-35.156,-186.035,0.000,0
1606140775.322,58.594,-33.203,-28.320,241.699,0.000,0
1606140775.326,76.660,-29.785,-30.273,324.707,0.000,0
1606140775.330,-18.555,-21.973,-32.227,-47.852,0.000,0
1606140775.334,-96.680,-18.555,-36.133,-373.535,0.000,0
1606140775.338,-47.852,-24.902,-41.016,-230.957,0.000,0
1606140775.342,68.359,10.254,-39.551,199.219,0.000,0
1606140775.346,92.773,42.969,-42.480,337.402,0.000,0
1606140775.350,1.953,4.883,-52.246,4.395,0.000,0
1606140775.354,-73.242,-23.926,-48.828,-341.309,0.000,0
1606140775.358,-44.434,-20.508,-45.410,-261.230,0.000,0
1606140775.362,56.641,-7.324,-43.457,165.039,0.000,0
1606140775.365,97.168,-6.348,-37.109,352.051,0.000,0
1606140775.369,9.766,-19.043,-40.527,39.062,0.000,0
1606140775.373,-93.262,-25.879,-44.922,-350.098,0.000,0
1606140775.377,-72.266,-26.367,-46.387,-319.336,0.000,0
1606140775.381,41.504,-6.348,-41.992,96.191,0.000,0
1606140775.385,81.543,13.672,-33.203,333.984,0.000,0
1606140775.389,1.953,-19.531,-37.109,92.285,0.000,0
1606140775.393,-97.168,-38.086,-39.551,-302.734,0.000,0
1606140775.397,-93.750,-33.203,-36.621,-337.402,0.000,0
1606140775.401,7.812,-30.273,-37.109,53.223,0.000,0
1606140775.404,74.219,-28.809,-25.391,347.656,0.000,0
1606140775.408,21.484,-28.809,-24.902,158.691,0.000,0
1606140775.412,-80.078,-32.715,-33.691,-270.508,0.000,0
1606140775.416,-93.262,-38.086,-33.203,-374.512,0.000,0
1606140775.420,2.441,-27.832,-27.832,-11.719,0.000,0
1606140775.424,83.008,17.090,-24.902,336.914,0.000,0
1606140775.428,41.992,2.930,-28.320,214.355,0.000,0
1606140775.432,-74.707,-44.434,-31.250,-234.863,0.000,0
1606140775.436,-109.375,-41.992,-29.297,-399.902,0.000,0
1606140775.440,-27.344,-34.180,-29.785,-77.148,0.000,0
1606140775.444,67.383,-27.344,-25.879,290.039,0.000,0
1606140775.447,48.340,-32.227,-23.438,246.094,0.000,0
1606140775.451,-71.777,-38.574,-29.297,-176.758,0.000,0
1606140775.455,-119.629,-38.086,-32.227,-390.137,0.000,0
1606140775.459,-43.457,-34.668,-25.879,-111.328,0.000,0
1606140775.463,47.852,-34.668,-21.484,278.320,0.000,0
1606140775.467,40.527,-31.738,-23.926,287.598,0.000,0
1606140775.471,-56.641,-31.250,-28.809,-111.328,0.000,0
1606140775.475,-118.164,-43.945,-28.809,-390.137,0.000,0
1606140775.479,-56.641,-49.316,-26.855,-183.105,0.000,0
1606140775.483,47.363,-16.602,-25.879,233.398,0.000,0
1606140775.487,58.105,-3.906,-25.879,308.594,0.000,0
1606140775.490,-41.016,-35.156,-34.180,-69.824,0.000,0
1606140775.494,-107.910,-39.551,-32.227,-372.559,0.000,0
1606140775.498,-59.570,-35.645,-26.855,-212.891,0.000,0
1606140775.502,43.457,-23.438,-22.949,207.520,0.000,0
1606140775.506,62.988,-13.672,-25.391,327.637,0.000,0
1606140775.510,-35.645,-26.855,-33.691,-30.762,0.000,0
1606140775.514,-119.141,-38.086,-32.715,-376.953,0.000,0
1606140775.518,-81.055,-40.527,-27.832,-270.508,0.000,0
1606140775.522,26.855,-11.719,-28.320,149.414,0.000,0
1606140775.526,61.035,16.602,-33.203,321.289,0.000,0
1606140775.529,-12.695,-14.648,-29.785,35.645,0.000,0
1606140775.533,-95.215,-28.809,-29.785,-338.379,0.000,0
1606140775.537,-81.055,-27.832,-30.762,-317.871,0.000,0
1606140775.541,20.996,-26.367,-24.902,98.633,0.000,0
1606140775.545,71.777,-20.996,-19.531,325.684,0.000,0
1606140775.549,0.977,-26.855,-23.438,78.125,0.000,0
1606140775.553,-96.191,-28.320,-30.762,-309.082,0.000,0
1606140775.557,-96.680,-35.156,-32.227,-347.168,0.000,0
1606140775.561,5.371,-18.555,-22.949,42.480,0.000,0
1606140775.565,68.848,6.348,-16.602,335.938,0.000,0
1606140775.569,9.766,-21.484,-26.367,142.578,0.000,0
1606140775.572,-91.797,-34.668,-31.250,-277.344,0.000,0
1606140775.576,-117.676,-36.621,-30.273,-377.441,0.000,0
1606140775.580,-24.414,-31.250,-26.855,-15.625,0.000,0
1606140775.584,62.500,-22.949,-24.414,319.824,0.000,0
1606140775.588,19.043,-31.250,-30.762,188.965,0.000,0
1606140775.592,-99.609,-37.109,-35.645,-255.371,0.000,0
1606140775.596,-129.395,-34.668,-37.598,-414.551,0.000,0
1606140775.600,-27.344,-26.367,-29.785,-75.684,0.000,0
1606140775.604,70.801,-22.461,-27.344,301.758,0.000,0
1606140775.608,40.039,-29.297,-31.738,237.305,0.000,0
1606140775.612,-74.707,-39.062,-35.156,-183.105,0.000,0
1606140775.615,-123.535,-41.016,-42.480,-389.648,0.000,0
1606140775.619,-48.340,-45.898,-37.598,-126.465,0.000,0
1606140775.623,46.875,-9.277,-29.785,254.883,0.000,0
1606140775.627,37.598,1.953,-29.297,265.625,0.000,0
1606140775.631,-62.988,-44.434,-32.227,-134.277,0.000,0
1606140775.635,-118.164,-52.246,-35.156,-396.973,0.000,0
1606140775.639,-51.758,-44.922,-34.668,-180.176,0.000,0
1606140775.643,57.129,-35.645,-24.414,235.352,0.000,0
1606140775.647,67.871,-32.715,-22.461,297.363,0.000,0
1606140775.651,-34.668,-35.156,-26.367,-77.148,0.000,0
1606140775.654,-107.910,-33.691,-22.461,-372.070,0.000,0
1606140775.658,-60.059,-31.738,-23.926,-210.449,0.000,0
1606140775.662,37.109,-4.883,-22.461,210.449,0.000,0
1606140775.666,56.152,1.465,-17.090,331.543,0.000,0
1606140775.670,-31.738,-28.320,-20.508,-12.695,0.000,0
1606140775.674,-118.652,-36.133,-30.762,-359.375,0.000,0
1606140775.678,-80.566,-35.645,-30.762,-265.137,0.000,0
1606140775.682,33.203,-25.391,-22.461,164.062,0.000,0
1606140775.686,56.641,-28.320,-18.555,338.379,0.000,0
1606140775.690,-22.949,-33.691,-24.414,36.621,0.000,0
1606140775.694,-109.375,-33.691,-32.715,-345.215,0.000,0
1606140775.697,-95.215,-40.527,-28.320,-318.359,0.000,0
1606140775.701,9.277,-14.648,-25.391,100.586,0.000,0
1606140775.705,65.918,4.883,-23.438,340.820,0.000,0
1606140775.709,-4.395,-24.414,-25.391,94.727,0.000,0
1606140775.713,-108.887,-34.668,-32.227,-322.266,0.000,0
1606140775.717,-106.445,-39.551,-27.832,-364.258,0.000,0
1606140775.721,-6.836,-17.090,-23.926,34.668,0.000,0
1606140775.725,54.199,16.113,-26.367,322.754,0.000,0
1606140775.729,2.930,-16.113,-29.297,143.066,0.000,0
1606140775.733,-102.051,-41.016,-33.203,-276.855,0.000,0
1606140775.737,-121.582,-41.504,-41.016,-385.254,0.000,0
1606140775.740,-24.414,-38.086,-37.109,-19.043,0.000,0
1606140775.744,53.711,-30.273,-27.832,308.594,0.000,0
1606140775.748,15.625,-33.691,-30.762,184.570,0.000,0
1606140775.752,-83.984,-34.180,-35.156,-231.934,0.000,0
1606140775.756,-112.305,-36.133,-37.109,-387.207,0.000,0
1606140775.760,-29.785,-28.809,-33.691,-64.453,0.000,0
1606140775.764,52.734,4.395,-28.320,291.504,0.000,0
1606140775.768,19.531,-11.230,-27.832,226.562,0.000,0
1606140775.772,-92.773,-40.527,-30.273,-196.289,0.000,0
1606140775.776,-133.301,-43.945,-30.762,-400.879,0.000,0
1606140775.779,-61.035,-44.922,-25.879,-122.559,0.000,0
1606140775.783,35.156,-37.109,-26.367,256.348,0.000,0
1606140775.787,27.344,-39.062,-25.879,258.789,0.000,0
1606140775.791,-79.102,-47.852,-27.832,-144.043,0.000,0
1606140775.795,-126.953,-41.992,-33.203,-394.531,0.000,0
1606140775.799,-56.641,-40.527,-33.203,-162.598,0.000,0
1606140775.803,45.898,1.465,-21.484,242.188,0.000,0
1606140775.807,53.711,39.551,-19.531,292.969,0.000,0
1606140775.811,-51.758,-13.672,-30.273,-98.633,0.000,0
1606140775.815,-125.000,-45.898,-34.180,-396.484,0.000,0
1606140775.819,-71.777,-40.527,-28.320,-230.469,0.000,0
1606140775.822,29.785,-29.785,-23.438,187.988,0.000,0
1606140775.826,46.875,-29.785,-27.832,308.105,0.000,0
1606140775.830,-42.969,-38.086,-31.250,-34.668,0.000,0
1606140775.834,-126.953,-40.039,-41.016,-376.953,0.000,0
1606140775.838,-88.379,-40.039,-40.039,-277.344,0.000,0
1606140775.842,27.832,-19.531,-25.879,147.949,0.000,0
1606140775.846,65.430,-14.648,-24.902,320.312,0.000,0
1606140775.850,-12.207,-29.297,-24.902,25.391,0.000,0
1606140775.854,-103.516,-40.527,-28.320,-345.703,0.000,0
1606140775.858,-92.285,-54.688,-36.621,-313.477,0.000,0
1606140775.862,15.625,-26.855,-29.785,109.863,0.000,0
1606140775.865,69.336,-4.883,-20.020,342.285,0.000,0
1606140775.869,-4.395,-31.738,-20.020,82.031,0.000,0
1606140775.873,-102.539,-43.457,-27.344,-319.336,0.000,0
1606140775.877,-97.656,-33.691,-23.926,-335.938,0.000,0
1606140775.881,-1.465,-26.367,-19.531,61.035,0.000,0
1606140775.885,60.547,-24.902,-20.508,328.125,0.000,0
1606140775.889,4.883,-26.855,-21.484,131.836,0.000,0
1606140775.893,-100.586,-33.203,-26.367,-273.926,0.000,0
1606140775.897,-111.328,-34.668,-34.668,-359.375,0.000,0
1606140775.901,-20.020,-28.809,-35.156,0.000,0.000,0
1606140775.904,52.246,0.977,-29.785,320.801,0.000,0
1606140775.908,14.160,-7.812,-27.344,185.547,0.000,0
1606140775.912,-92.285,-39.062,-27.344,-251.953,0.000,0
1606140775.916,-117.188,-35.645,-29.297,-404.785,0.000,0
1606140775.920,-32.227,-27.832,-28.809,-78.613,0.000,0
1606140775.924,51.270,-27.344,-22.949,290.039,0.000,0
1606140775.928,26.855,-33.203,-26.855,222.656,0.000,0
1606140775.932,-76.660,-38.086,-36.133,-207.520,0.000,0
1606140775.936,-116.699,-40.039,-36.133,-401.367,0.000,0
1606140775.940,-41.992,-35.156,-31.738,-114.746,0.000,0
1606140775.944,51.758,-9.277,-27.832,261.719,0.000,0
1606140775.947,41.504,-13.184,-25.879,247.070,0.000,0
1606140775.951,-70.801,-35.645,-24.902,-163.086,0.000,0
1606140775.955,-126.953,-36.133,-30.273,-409.668,0.000,0
1606140775.959,-56.641,-34.668,-30.762,-187.988,0.000,0
1606140775.963,42.480,-27.344,-31.250,213.867,0.000,0
1606140775.967,49.805,-26.367,-40.527,281.738,0.000,0
1606140775.971,-47.852,-34.180,-42.969,-90.820,0.000,0
1606140775.975,-123.047,-40.039,-41.992,-387.695,0.000,0
1606140775.979,-74.219,-39.062,-37.598,-222.656,0.000,0
1606140775.983,35.156,-23.438,-26.855,201.660,0.000,0
1606140775.987,54.199,-17.090,-26.367,317.383,0.000,0
1606140775.990,-41.504,-31.738,-31.250,-42.969,0.000,0
1606140775.994,-125.977,-41.992,-30.273,-389.648,0.000,0
1606140775.998,-95.215,-40.527,-26.367,-284.180,0.000,0
1606140776.002,14.648,-3.906,-22.461,156.250,0.000,0
1606140776.006,58.105,19.043,-19.531,343.750,0.000,0
1606140776.010,-24.414,-29.297,-23.926,33.203,0.000,0
1606140776.014,-119.629,-47.363,-30.762,-346.680,0.000,0
1606140776.018,-98.633,-41.992,-29.297,-295.898,0.000,0
1606140776.022,13.184,-26.855,-17.090,129.395,0.000,0
1606140776.026,72.754,-21.973,-11.230,359.863,0.000,0
1606140776.029,5.859,-32.715,-25.391,102.051,0.000,0
1606140776.033,-96.680,-34.180,-37.109,-307.129,0.000,0
1606140776.037,-95.703,-43.457,-34.668,-340.820,0.000,0
1606140776.041,4.395,-20.508,-29.297,52.246,0.000,0
1606140776.045,67.871,5.371,-24.902,333.496,0.000,0
1606140776.049,11.719,-18.066,-27.344,132.812,0.000,0
1606140776.053,-91.797,-35.156,-37.598,-292.480,0.000,0
1606140776.057,-98.145,-41.504,-33.691,-374.512,0.000,0
1606140776.061,-0.488,-29.297,-27.344,-2.441,0.000,0
1606140776.065,80.566,-17.090,-31.738,317.871,0.000,0
1606140776.069,49.805,-23.926,-29.785,193.848,0.000,0
1606140776.072,-57.129,-35.156,-26.367,-209.473,0.000,0
1606140776.076,-104.004,-42.969,-27.344,-359.863,0.000,0
1606140776.080,-35.645,-38.086,-16.602,-52.734,0.000,0
1606140776.084,35.156,31.250,-5.371,293.945,0.000,0
1606140776.088,-1.953,15.137,2.441,220.215,0.000,0
1606140776.092,-118.652,-62.012,8.789,-211.914,0.000,0
1606140776.096,-169.434,-63.965,13.184,-417.969,0.000,0
1606140776.100,-103.516,-61.035,18.555,-132.324,0.000,0
1606140776.104,-19.043,-61.035,29.297,248.535,0.000,0
1606140776.108,-37.598,-65.430,26.367,226.562,0.000,0
1606140776.112,-151.367,-71.777,24.414,-180.176,0.000,0
1606140776.115,-207.031,-79.590,35.156,-422.363,0.000,0
1606140776.119,-140.137,-78.613,39.062,-191.895,0.000,0
1606140776.123,-40.039,-68.359,43.945,216.309,0.000,0
1606140776.127,-39.062,-74.707,41.992,270.996,0.000,0
1606140776.131,-137.207,-89.844,35.156,-113.281,0.000,0
1606140776.135,-195.801,-93.750,32.227,-399.414,0.000,0
1606140776.139,-139.160,-89.355,33.691,-225.098,0.000,0
1606140776.143,-25.391,-71.777,35.156,208.496,0.000,0
1606140776.147,1.465,-64.941,28.809,324.707,0.000,0
1606140776.151,-86.426,-76.660,26.367,-40.039,0.000,0
1606140776.154,-154.297,-80.566,20.020,-365.234,0.000,0
1606140776.158,-108.398,-73.242,19.531,-239.746,0.000,0
1606140776.162,8.789,-56.641,22.949,191.895,0.000,0
1606140776.166,47.363,-48.828,16.113,358.887,0.000,0
1606140776.170,-35.645,-57.617,5.371,53.711,0.000,0
1606140776.174,-113.281,-63.477,-8.789,-312.012,0.000,0
1606140776.178,-82.031,-67.871,-10.742,-278.809,0.000,0
1606140776.182,30.273,-40.527,0.000,136.230,0.000,0
1606140776.186,85.449,-27.344,2.441,363.281,0.000,0
1606140776.190,16.602,-48.828,-0.488,112.305,0.000,0
1606140776.194,-83.008,-47.852,-4.395,-281.738,0.000,0
1606140776.197,-77.637,-49.805,-3.906,-301.758,0.000,0
1606140776.201,23.926,-25.879,2.930,98.633,0.000,0
1606140776.205,76.172,-3.418,-4.883,362.793,0.000,0
1606140776.209,14.160,-40.039,-9.766,154.297,0.000,0
1606140776.213,-88.867,-55.664,-7.324,-261.230,0.000,0
1606140776.217,-102.539,-52.734,-11.230,-334.473,0.000,0
1606140776.221,-11.230,-29.297,-6.836,42.969,0.000,0
1606140776.225,61.035,-1.465,-2.441,353.516,0.000,0
1606140776.229,13.184,-37.109,-10.742,212.402,0.000,0
1606140776.233,-94.727,-52.734,-18.555,-213.379,0.000,0
1606140776.237,-117.676,-47.363,-20.508,-355.469,0.000,0
1606140776.240,-28.320,-45.410,-8.301,-21.484,0.000,0
1606140776.244,60.059,-32.227,-3.906,332.031,0.000,0
1606140776.248,31.250,-34.668,-13.672,244.629,0.000,0
1606140776.252,-75.684,-42.969,-14.160,-172.363,0.000,0
1606140776.256,-113.770,-49.316,-12.695,-369.629,0.000,0
1606140776.260,-36.133,-37.598,-17.090,-91.797,0.000,0
1606140776.264,58.105,-24.414,-17.090,293.945,0.000,0
1606140776.268,40.039,-37.598,-20.508,282.227,0.000,0
1606140776.272,-77.637,-49.316,-32.227,-134.766,0.000,0
1606140776.276,-136.719,-48.828,-34.668,-395.996,0.000,0
1606140776.279,-69.336,-48.340,-29.785,-167.480,0.000,0
1606140776.283,36.621,-7.812,-26.367,239.746,0.000,0
1606140776.287,43.457,1.465,-24.414,295.410,0.000,0
1606140776.291,-61.035,-41.992,-27.832,-94.238,0.000,0
1606140776.295,-129.395,-52.246,-28.809,-400.391,0.000,0
1606140776.299,-67.871,-39.551,-21.484,-217.285,0.000,0
1606140776.303,40.527,-29.785,-15.137,208.008,0.000,0
1606140776.307,48.340,-37.598,-17.090,300.781,0.000,0
1606140776.311,-45.410,-40.527,-22.461,-45.898,0.000,0
1606140776.315,-118.652,-45.410,-24.902,-367.188,0.000,0
1606140776.319,-78.613,-43.945,-22.461,-257.324,0.000,0
1606140776.322,33.691,-30.273,-16.602,170.410,0.000,0
1606140776.326,59.570,-35.156,-12.207,324.707,0.000,0
1606140776.330,-29.297,-44.922,-10.742,14.648,0.000,0
1606140776.334,-113.281,-47.852,-12.695,-342.285,0.000,0
1606140776.338,-82.031,-47.852,-15.625,-289.062,0.000,0
1606140776.342,26.367,-30.762,-17.578,130.371,0.000,0
1606140776.346,74.707,-20.508,-10.742,354.492,0.000,0
1606140776.350,2.930,-32.227,-12.695,97.656,0.000,0
1606140776.354,-95.703,-44.434,-25.879,-306.641,0.000,0
1606140776.358,-84.961,-50.293,-27.344,-327.148,0.000,0
1606140776.362,21.973,-24.902,-23.438,84.473,0.000,0
1606140776.365,77.637,-15.625,-18.066,348.633,0.000,0
1606140776.369,14.160,-45.410,-19.531,129.883,0.000,0
1606140776.373,-83.008,-45.898,-24.902,-277.344,0.000,0
1606140776.377,-87.402,-41.992,-24.414,-342.285,0.000,0
1606140776.381,5.371,-22.461,-27.832,20.508,0.000,0
1606140776.385,73.730,-12.695,-24.902,320.801,0.000,0
1606140776.389,30.762,-39.551,-23.438,177.246,0.000,0
1606140776.393,-76.172,-41.016,-30.762,-240.723,0.000,0
1606140776.397,-104.492,-45.410,-30.762,-379.395,0.000,0
1606140776.401,-18.066,-32.227,-24.902,-48.340,0.000,0
1606140776.404,62.988,-11.230,-18.555,306.641,0.000,0
1606140776.408,31.738,-23.926,-14.648,220.703,0.000,0
1606140776.412,-83.984,-37.109,-21.973,-208.008,0.000,0
1606140776.416,-129.883,-45.898,-32.227,-396.973,0.000,0
1606140776.420,-45.898,-38.574,-26.855,-104.004,0.000,0
1606140776.424,56.641,5.859,-23.926,286.621,0.000,0
1606140776.428,50.781,-0.488,-26.855,272.949,0.000,0
1606140776.432,-56.152,-41.016,-33.203,-150.879,0.000,0
1606140776.436,-108.398,-40.527,-36.133,-398.926,0.000,0
1606140776.440,-39.062,-35.156,-28.320,-161.621,0.000,0
1606140776.444,66.406,-26.367,-18.066,240.234,0.000,0
1606140776.447,68.359,-27.832,-15.625,284.180,0.000,0
1606140776.451,-41.504,-32.715,-24.414,-102.539,0.000,0
1606140776.455,-100.586,-27.832,-27.832,-381.836,0.000,0
1606140776.459,-47.852,-30.762,-22.949,-201.172,0.000,0
1606140776.463,48.828,-1.465,-20.020,214.355,0.000,0
1606140776.467,58.594,11.719,-20.508,313.965,0.000,0
1606140776.471,-40.527,-28.809,-20.996,-48.828,0.000,0
1606140776.475,-113.770,-38.574,-19.043,-386.230,0.000,0
1606140776.479,-78.125,-34.180,-21.973,-283.203,0.000,0
1606140776.483,24.902,-29.297,-17.578,141.602,0.000,0
1606140776.487,60.059,-20.996,-13.184,317.383,0.000,0
1606140776.490,-23.926,-24.414,-19.043,10.742,0.000,0
1606140776.494,-109.863,-37.598,-28.809,-359.375,0.000,0
1606140776.498,-75.684,-31.738,-21.484,-295.410,0.000,0
1606140776.502,38.086,-3.906,-8.789,144.043,0.000,0
1606140776.506,79.590,-3.906,-11.719,347.656,0.000,0
1606140776.510,0.000,-27.344,-16.113,61.523,0.000,0
1606140776.514,-104.004,-35.156,-23.926,-337.402,0.000,0
1606140776.518,-100.098,-35.645,-25.879,-347.168,0.000,0
1606140776.522,2.930,-9.277,-21.973,58.594,0.000,0
1606140776.526,63.965,-3.906,-20.996,324.219,0.000,0
1606140776.529,-0.488,-35.645,-29.785,102.539,0.000,0
1606140776.533,-104.004,-35.645,-41.016,-305.176,0.000,0
1606140776.537,-110.352,-32.715,-39.062,-371.582,0.000,0
1606140776.541,-9.277,-30.273,-24.414,8.301,0.000,0
1606140776.545,62.012,-25.879,-25.879,327.637,0.000,0
1606140776.549,12.695,-30.273,-35.645,177.246,0.000,0
1606140776.553,-94.727,-33.691,-35.156,-250.488,0.000,0
1606140776.557,-116.211,-40.039,-31.250,-381.836,0.000,0
1606140776.561,-26.855,-27.832,-28.809,-45.898,0.000,0
1606140776.565,49.316,30.762,-26.855,309.570,0.000,0
1606140776.569,18.066,11.230,-19.043,226.562,0.000,0
1606140776.572,-87.891,-39.062,-22.461,-201.172,0.000,0
1606140776.576,-131.348,-39.062,-26.367,-390.137,0.000,0
1606140776.580,-50.293,-27.344,-16.602,-93.750,0.000,0
1606140776.584,39.551,-20.508,-12.695,281.250,0.000,0
1606140776.588,20.996,-33.203,-22.461,255.859,0.000,0
1606140776.592,-82.031,-41.016,-29.297,-158.203,0.000,0
1606140776.596,-131.836,-41.504,-32.227,-402.344,0.000,0
1606140776.600,-67.383,-37.109,-34.668,-174.316,0.000,0
1606140776.604,27.832,-4.395,-33.691,220.215,0.000,0
1606140776.608,23.926,-13.184,-32.227,259.766,0.000,0
1606140776.612,-78.125,-41.504,-33.691,-125.000,0.000,0
1606140776.615,-136.230,-41.016,-39.062,-410.156,0.000,0
1606140776.619,-82.031,-38.574,-37.109,-232.422,0.000,0
1606140776.623,21.484,-30.273,-32.227,187.500,0.000,0
1606140776.627,44.922,-24.414,-29.785,308.105,0.000,0
1606140776.631,-43.945,-26.367,-27.832,-39.551,0.000,0
1606140776.635,-116.699,-28.809,-30.762,-375.488,0.000,0
1606140776.639,-75.195,-34.180,-34.668,-255.371,0.000,0
1606140776.643,36.621,9.766,-33.691,185.547,0.000,0
1606140776.647,72.754,30.273,-30.273,344.727,0.000,0
1606140776.651,-22.461,-22.949,-40.039,7.324,0.000,0
1606140776.654,-115.723,-36.621,-47.852,-358.887,0.000,0
1606140776.658,-84.961,-25.879,-40.039,-288.086,0.000,0
1606140776.662,23.926,-19.043,-27.832,142.578,0.000,0
1606140776.666,67.383,-18.066,-21.484,358.887,0.000,0
1606140776.670,-7.324,-24.902,-31.738,83.008,0.000,0
1606140776.674,-103.516,-29.297,-31.738,-307.129,0.000,0
1606140776.678,-96.191,-26.855,-20.508,-314.453,0.000,0
1606140776.682,7.812,-24.414,-20.996,77.637,0.000,0
1606140776.686,71.777,-16.113,-18.555,345.215,0.000,0
1606140776.690,13.184,-21.484,-19.043,134.277,0.000,0
1606140776.694,-88.867,-32.227,-27.832,-287.598,0.000,0
1606140776.697,-96.680,-32.715,-24.902,-354.004,0.000,0
1606140776.701,-1.465,-18.066,-13.672,26.855,0.000,0
1606140776.705,66.895,-10.254,-11.230,334.961,0.000,0
1606140776.709,17.578,-27.832,-14.648,179.199,0.000,0
1606140776.713,-91.797,-34.180,-17.090,-246.094,0.000,0
1606140776.717,-114.258,-37.109,-16.113,-373.535,0.000,0
1606140776.721,-24.414,-33.691,-18.066,-29.785,0.000,0
1606140776.725,49.316,-28.320,-20.020,297.363,0.000,0
1606140776.729,17.578,-26.855,-16.113,196.289,0.000,0
1606140776.733,-90.820,-28.809,-19.043,-210.449,0.000,0
1606140776.737,-131.836,-30.273,-26.367,-400.391,0.000,0
1606140776.740,-51.758,-23.926,-28.809,-107.422,0.000,0
1606140776.744,35.645,-10.742,-21.484,266.602,0.000,0
1606140776.748,15.625,-18.066,-19.043,230.469,0.000,0
1606140776.752,-87.891,-32.227,-23.438,-182.617,0.000,0
1606140776.756,-139.160,-35.156,-30.762,-419.922,0.000,0
1606140776.760,-68.359,-36.133,-24.902,-166.504,0.000,0
1606140776.764,47.363,-34.180,-16.113,247.559,0.000,0
1606140776.768,59.082,-23.926,-27.832,281.250,0.000,0
1606140776.772,-51.758,-20.020,-41.504,-126.953,0.000,0
1606140776.776,-129.395,-27.832,-43.457,-422.363,0.000,0
1606140776.779,-70.801,-23.438,-41.016,-233.887,0.000,0
1606140776.783,29.785,4.395,-35.645,185.059,0.000,0
1606140776.787,35.156,6.836,-41.016,266.602,0.000,0
1606140776.791,-53.711,-11.230,-56.152,-108.887,0.000,0
1606140776.795,-136.719,-13.184,-62.988,-438.965,0.000,0
1606140776.799,-107.422,-13.672,-65.918,-302.734,0.000,0
1606140776.803,-0.488,-2.930,-62.012,116.211,0.000,0
1606140776.807,23.438,2.930,-61.523,244.629,0.000,0
1606140776.811,-69.824,-2.930,-73.730,-92.285,0.000,0
1606140776.815,-151.367,3.906,-79.102,-449.707,0.000,0
1606140776.819,-120.605,7.812,-72.754,-379.883,0.000,0
1606140776.822,-12.695,8.789,-72.754,38.086,0.000,0
1606140776.826,34.668,16.113,-73.730,248.047,0.000,0
1606140776.830,-28.809,18.555,-70.312,-2.441,0.000,0
1606140776.834,-118.652,14.648,-78.613,-391.602,0.000,0
1606140776.838,-104.980,11.230,-82.031,-406.250,0.000,0
1606140776.842,-5.859,27.344,-81.543,0.000,0.000,0
1606140776.846,55.176,44.922,-79.590,267.578,0.000,0
1606140776.850,13.184,21.973,-80.078,65.918,0.000,0
1606140776.854,-77.148,5.859,-83.496,-339.355,0.000,0
1606140776.858,-67.871,7.324,-79.102,-399.902,0.000,0
1606140776.862,30.762,3.906,-71.289,1.465,0.000,0
1606140776.865,84.961,5.371,-57.617,315.918,0.000,0
1606140776.869,38.574,-3.906,-57.617,150.391,0.000,0
1606140776.873,-66.406,-12.695,-67.383,-271.973,0.000,0
1606140776.877,-88.379,-16.113,-68.359,-389.648,0.000,0
1606140776.881,1.465,-13.672,-63.965,-45.898,0.000,0
1606140776.885,86.914,-2.930,-57.129,302.246,0.000,0
1606140776.889,55.664,-9.766,-50.781,212.402,0.000,0
1606140776.893,-52.734,-19.043,-56.152,-207.031,0.000,0
1606140776.897,-81.543,-21.484,-60.059,-387.695,0.000,0
1606140776.901,1.465,-17.090,-57.617,-89.355,0.000,0
1606140776.904,85.449,-12.207,-52.246,285.645,0.000,0
1606140776.908,68.359,-12.695,-51.758,261.719,0.000,0
1606140776.912,-36.621,-20.996,-61.523,-144.531,0.000,0
1606140776.916,-92.773,-36.133,-59.082,-387.695,0.000,0
1606140776.920,-20.996,-31.738,-51.270,-107.910,0.000,0
1606140776.924,73.242,-4.395,-52.246,309.082,0.000,0
1606140776.928,62.988,-7.812,-48.828,294.434,0.000,0
1606140776.932,-41.016,-26.367,-48.340,-109.863,0.000,0
1606140776.936,-99.609,-29.785,-49.805,-384.277,0.000,0
1606140776.940,-35.645,-19.043,-45.898,-184.570,0.000,0
1606140776.944,64.941,-16.113,-45.410,227.539,0.000,0
1606140776.947,77.637,-20.508,-41.992,319.336,0.000,0
1606140776.951,-16.602,-23.926,-44.922,-40.039,0.000,0
1606140776.955,-100.586,-33.691,-52.734,-368.164,0.000,0
1606140776.959,-62.012,-33.203,-50.781,-238.770,0.000,0
1606140776.963,49.805,-27.344,-37.598,192.383,0.000,0
1606140776.967,81.055,-21.973,-30.762,351.074,0.000,0
1606140776.971,-3.906,-32.715,-40.527,29.297,0.000,0
1606140776.975,-89.844,-48.340,-44.922,-342.773,0.000,0
1606140776.979,-56.641,-42.480,-41.992,-283.691,0.000,0
1606140776.983,52.246,-22.949,-41.504,134.766,0.000,0
1606140776.987,98.145,-13.672,-36.133,343.262,0.000,0
1606140776.990,20.020,-27.832,-43.457,62.012,0.000,0
1606140776.994,-78.613,-36.621,-52.246,-322.754,0.000,0
1606140776.998,-65.918,-32.227,-49.805,-307.129,0.000,0
1606140777.002,44.434,-20.996,-37.598,105.469,0.000,0
1606140777.006,107.910,-13.184,-28.809,365.234,0.000,0
1606140777.010,40.527,-24.414,-28.809,133.301,0.000,0
1606140777.014,-70.801,-34.668,-38.574,-278.809,0.000,0
1606140777.018,-78.613,-31.250,-42.969,-333.008,0.000,0
1606140777.022,19.043,-25.879,-32.227,47.852,0.000,0
1606140777.026,77.148,-23.438,-27.832,345.703,0.000,0
1606140777.029,19.043,-28.809,-28.809,174.316,0.000,0
1606140777.033,-89.355,-35.156,-35.156,-251.953,0.000,0
1606140777.037,-108.398,-32.715,-34.668,-358.887,0.000,0
1606140777.041,-16.602,-30.273,-20.508,-7.812,0.000,0
1606140777.045,60.547,-23.926,-15.137,329.590,0.000,0
1606140777.049,23.926,-26.367,-21.973,222.656,0.000,0
1606140777.053,-86.914,-36.621,-28.809,-209.961,0.000,0
1606140777.057,-123.535,-34.668,-29.297,-386.230,0.000,0
1606140777.061,-38.086,-25.391,-23.438,-79.590,0.000,0
1606140777.065,57.617,-13.184,-20.020,296.875,0.000,0
1606140777.069,41.504,-19.531,-20.996,251.953,0.000,0
1606140777.072,-67.871,-30.273,-28.320,-167.480,0.000,0
1606140777.076,-117.188,-34.668,-35.645,-397.949,0.000,0
1606140777.080,-41.504,-25.879,-29.785,-144.043,0.000,0
1606140777.084,64.453,-18.066,-22.461,256.348,0.000,0
1606140777.088,61.523,-26.855,-28.809,275.879,0.000,0
1606140777.092,-46.875,-33.691,-33.203,-129.883,0.000,0
1606140777.096,-109.863,-37.109,-43.945,-413.086,0.000,0
1606140777.100,-41.504,-34.668,-43.945,-202.148,0.000,0
1606140777.104,63.965,-31.250,-20.020,224.609,0.000,0
1606140777.108,64.453,-30.762,-17.090,309.570,0.000,0
1606140777.112,-36.621,-30.273,-27.832,-59.570,0.000,0
1606140777.115,-113.770,-35.156,-34.668,-389.160,0.000,0
1606140777.119,-70.801,-37.598,-40.527,-260.254,0.000,0
1606140777.123,40.039,-27.832,-30.273,172.363,0.000,0
1606140777.127,74.219,-23.438,-16.602,325.195,0.000,0
1606140777.131,-15.137,-27.344,-26.367,-3.418,0.000,0
1606140777.135,-111.328,-34.668,-40.039,-362.793,0.000,0
1606140777.139,-86.426,-30.273,-34.180,-288.574,0.000,0
1606140777.143,27.344,-19.043,-26.367,151.855,0.000,0
1606140777.147,74.707,-18.066,-24.414,356.934,0.000,0
1606140777.151,-7.812,-31.738,-27.344,69.824,0.000,0
1606140777.154,-107.422,-39.551,-32.227,-308.105,0.000,0
1606140777.158,-92.773,-40.527,-29.785,-298.828,0.000,0
1606140777.162,8.789,-13.184,-32.227,88.379,0.000,0
1606140777.166,54.688,-3.418,-26.855,331.055,0.000,0
1606140777.170,-14.160,-31.738,-25.391,107.422,0.000,0
1606140777.174,-114.746,-38.086,-36.621,-302.734,0.000,0
1606140777.178,-119.141,-34.668,-29.297,-361.328,0.000,0
1606140777.182,-9.766,-20.996,-15.625,30.762,0.000,0
1606140777.186,69.336,-14.648,-10.254,344.238,0.000,0
1606140777.190,18.066,-17.578,-16.602,179.199,0.000,0
1606140777.194,-86.914,-19.531,-25.879,-245.117,0.000,0
1606140777.197,-106.445,-24.414,-27.832,-361.816,0.000,0
1606140777.201,-13.672,-15.137,-27.344,-15.625,0.000,0
1606140777.205,68.359,-4.883,-26.855,325.684,0.000,0
1606140777.209,33.691,-20.020,-23.438,217.773,0.000,0
1606140777.213,-75.195,-28.320,-29.297,-216.797,0.000,0
1606140777.217,-116.211,-34.180,-39.062,-394.043,0.000,0
1606140777.221,-23.926,-23.926,-31.738,-87.891,0.000,0
1606140777.225,78.613,-0.488,-24.902,287.109,0.000,0
1606140777.229,47.363,-12.695,-29.785,251.465,0.000,0
1606140777.233,-65.430,-30.273,-32.715,-162.598,0.000,0
1606140777.237,-106.934,-29.297,-30.762,-375.977,0.000,0
1606140777.240,-38.086,-29.785,-31.738,-115.234,0.000,0
1606140777.244,54.688,-22.949,-30.273,275.391,0.000,0
1606140777.248,51.270,-18.555,-29.785,298.828,0.000,0
1606140777.252,-58.105,-25.391,-32.715,-98.145,0.000,0
1606140777.256,-128.906,-37.109,-36.133,-386.719,0.000,0
1606140777.260,-64.941,-37.109,-34.668,-184.082,0.000,0
1606140777.264,33.691,-19.531,-24.902,231.445,0.000,0
1606140777.268,34.668,-22.461,-22.461,310.059,0.000,0
1606140777.272,-51.758,-32.227,-24.902,-58.594,0.000,0
1606140777.276,-127.441,-34.180,-25.391,-388.184,0.000,0
1606140777.279,-91.309,-39.551,-30.273,-252.441,0.000,0
1606140777.283,18.066,-32.227,-23.926,180.176,0.000,0
1606140777.287,45.898,-26.855,-20.508,318.359,0.000,0
1606140777.291,-42.969,-33.691,-37.598,-13.672,0.000,0
1606140777.295,-113.281,-35.156,-38.574,-359.863,0.000,0
1606140777.299,-75.195,-34.668,-32.715,-268.555,0.000,0
1606140777.303,21.973,-13.184,-37.598,155.273,0.000,0
1606140777.307,64.453,-2.930,-40.039,338.379,0.000,0
1606140777.311,-9.277,-27.344,-40.039,53.223,0.000,0
1606140777.315,-97.168,-32.715,-43.945,-328.613,0.000,0
1606140777.319,-82.520,-33.691,-41.504,-310.547,0.000,0
1606140777.322,19.531,-27.832,-39.551,104.492,0.000,0
1606140777.326,80.078,-23.438,-35.645,338.867,0.000,0
1606140777.330,19.531,-31.250,-28.809,102.539,0.000,0
1606140777.334,-83.496,-36.621,-28.809,-297.363,0.000,0
1606140777.338,-85.449,-34.180,-27.344,-351.562,0.000,0
1606140777.342,18.066,-14.648,-22.949,33.203,0.000,0
1606140777.346,87.402,-13.184,-19.043,328.613,0.000,0
1606140777.350,43.457,-27.832,-20.020,151.855,0.000,0
1606140777.354,-73.242,-32.227,-18.066,-264.160,0.000,0
1606140777.358,-118.652,-37.598,-20.996,-379.883,0.000,0
1606140777.362,-30.762,-25.879,-26.855,-30.762,0.000,0
1606140777.365,52.246,-15.625,-24.414,311.523,0.000,0
1606140777.369,18.066,-25.391,-23.438,206.055,0.000,0
1606140777.373,-92.773,-33.691,-20.996,-220.215,0.000,0
1606140777.377,-122.559,-31.250,-15.137,-373.047,0.000,0
1606140777.381,-41.016,-27.832,-10.742,-64.941,0.000,0
1606140777.385,41.992,-28.320,-14.648,282.227,0.000,0
1606140777.389,22.461,-26.855,-18.555,237.305,0.000,0
1606140777.393,-82.520,-35.645,-25.391,-169.922,0.000,0
1606140777.397,-134.277,-45.898,-32.227,-401.367,0.000,0
1606140777.401,-65.430,-44.922,-28.809,-144.531,0.000,0
1606140777.404,31.738,-19.043,-24.902,252.441,0.000,0
1606140777.408,25.879,-19.531,-24.902,270.020,0.000,0
1606140777.412,-75.195,-45.410,-33.203,-132.324,0.000,0
1606140777.416,-138.672,-47.852,-35.645,-413.086,0.000,0
1606140777.420,-79.590,-42.480,-27.344,-212.891,0.000,0
1606140777.424,29.785,-33.691,-26.367,205.566,0.000,0
1606140777.428,45.410,-35.156,-23.438,285.156,0.000,0
1606140777.432,-46.875,-39.062,-29.297,-83.496,0.000,0
1606140777.436,-121.094,-36.621,-42.480,-406.250,0.000,0
1606140777.440,-78.613,-33.203,-36.621,-257.324,0.000,0
1606140777.444,20.996,-24.902,-29.297,174.805,0.000,0
1606140777.447,48.340,-25.391,-25.391,315.430,0.000,0
1606140777.451,-30.273,-35.156,-27.344,-4.395,0.000,0
1606140777.455,-112.793,-38.574,-33.691,-352.539,0.000,0
1606140777.459,-84.473,-36.621,-32.715,-268.555,0.000,0
1606140777.463,30.762,-31.250,-24.414,165.039,0.000,0
1606140777.467,76.172,-27.344,-18.555,355.957,0.000,0
1606140777.471,-8.789,-33.203,-30.273,54.199,0.000,0
1606140777.475,-102.539,-37.598,-35.156,-329.590,0.000,0
1606140777.479,-84.961,-30.762,-21.973,-307.129,0.000,0
1606140777.483,22.461,-20.508,-15.625,104.004,0.000,0
1606140777.487,77.148,-20.020,-22.461,337.402,0.000,0
1606140777.490,7.324,-26.855,-26.855,101.562,0.000,0
1606140777.494,-101.562,-33.691,-27.832,-296.387,0.000,0
1606140777.498,-106.445,-34.180,-30.273,-346.191,0.000,0
1606140777.502,-1.953,-24.902,-22.949,38.086,0.000,0
1606140777.506,61.523,-16.113,-25.391,338.867,0.000,0
1606140777.510,20.020,-25.391,-31.250,169.434,0.000,0
1606140777.514,-75.684,-36.621,-26.367,-253.418,0.000,0
1606140777.518,-104.004,-36.621,-31.250,-361.816,0.000,0
1606140777.522,-11.719,-36.133,-23.926,-10.254,0.000,0
1606140777.526,61.035,-38.086,-22.461,311.035,0.000,0
1606140777.529,19.043,-34.180,-32.715,204.102,0.000,0
1606140777.533,-78.613,-26.367,-32.715,-190.918,0.000,0
1606140777.537,-110.352,-33.203,-28.809,-371.582,0.000,0
1606140777.541,-32.227,-40.527,-26.855,-103.027,0.000,0
1606140777.545,60.059,-35.156,-24.902,261.230,0.000,0
1606140777.549,46.875,-24.902,-18.066,234.863,0.000,0
1606140777.553,-58.105,-27.832,-21.484,-176.270,0.000,0
1606140777.557,-115.723,-37.109,-34.180,-404.297,0.000,0
1606140777.561,-47.852,-32.227,-27.344,-149.414,0.000,0
1606140777.565,49.805,-25.391,-19.531,249.023,0.000,0
1606140777.569,36.621,-31.738,-32.715,256.348,0.000,0
1606140777.572,-72.754,-41.504,-37.598,-155.273,0.000,0
1606140777.576,-130.859,-49.805,-36.133,-421.387,0.000,0
1606140777.580,-66.895,-39.551,-35.156,-208.008,0.000,0
1606140777.584,34.668,-22.949,-30.273,205.078,0.000,0
1606140777.588,43.457,-26.855,-27.832,277.344,0.000,0
1606140777.592,-53.223,-41.016,-33.691,-104.004,0.000,0
1606140777.596,-124.023,-45.898,-41.016,-411.133,0.000,0
1606140777.600,-72.266,-38.574,-38.086,-248.047,0.000,0
1606140777.604,33.203,-32.227,-30.762,184.082,0.000,0
1606140777.608,59.082,-29.297,-24.902,329.102,0.000,0
1606140777.612,-26.855,-37.598,-21.484,9.766,0.000,0
1606140777.615,-113.770,-45.410,-23.926,-342.285,0.000,0
1606140777.619,-86.914,-43.457,-27.344,-267.578,0.000,0
1606140777.623,24.902,-34.668,-20.020,168.457,0.000,0
1606140777.627,74.219,-27.832,-14.160,358.887,0.000,0
1606140777.631,-4.395,-33.691,-19.531,65.918,0.000,0
1606140777.635,-100.098,-40.527,-29.785,-310.547,0.000,0
1606140777.639,-77.637,-36.621,-26.367,-290.527,0.000,0
1606140777.643,32.227,-17.578,-18.066,126.465,0.000,0
1606140777.647,77.637,-17.090,-18.555,363.770,0.000,0
1606140777.651,15.625,-27.344,-15.625,128.906,0.000,0
1606140777.654,-86.426,-36.621,-20.020,-274.902,0.000,0
1606140777.658,-97.168,-39.551,-24.414,-324.219,0.000,0
1606140777.662,5.371,-28.320,-20.020,66.895,0.000,0
1606140777.666,72.754,-25.879,-20.020,352.539,0.000,0
1606140777.670,22.949,-24.902,-25.879,175.781,0.000,0
1606140777.674,-80.078,-25.391,-32.227,-239.258,0.000,0
1606140777.678,-98.633,-29.785,-29.297,-352.051,0.000,0
1606140777.682,-8.789,-6.836,-20.996,-3.418,0.000,0
1606140777.686,70.801,20.508,-14.648,315.918,0.000,0
1606140777.690,38.574,-3.418,-9.766,201.172,0.000,0
1606140777.694,-72.754,-26.367,-11.719,-218.750,0.000,0
1606140777.697,-110.840,-28.809,-19.043,-385.254,0.000,0
1606140777.701,-27.344,-24.902,-24.414,-73.242,0.000,0
1606140777.705,63.965,-17.090,-15.625,294.922,0.000,0
1606140777.709,44.434,-15.625,-15.137,251.465,0.000,0
1606140777.713,-64.453,-19.531,-24.414,-159.668,0.000,0
1606140777.717,-116.699,-24.414,-27.832,-385.742,0.000,0
1606140777.721,-44.922,-20.508,-20.508,-124.023,0.000,0
1606140777.725,46.387,-12.207,-16.113,263.184,0.000,0
1606140777.729,40.527,-14.648,-22.949,270.020,0.000,0
1606140777.733,-57.617,-21.484,-24.902,-128.906,0.000,0
1606140777.737,-122.070,-22.949,-35.645,-404.785,0.000,0
1606140777.740,-64.453,-20.508,-50.781,-205.566,0.000,0
1606140777.744,56.641,-18.066,-36.133,232.910,0.000,0
1606140777.748,54.199,-22.461,-11.230,306.152,0.000,0
1606140777.752,-88.379,-31.738,-16.602,-111.816,0.000,0
1606140777.756,-177.246,-39.551,-25.391,-437.500,0.000,0
1606140777.760,-137.695,-42.969,-19.531,-290.527,0.000,0
1606140777.764,-42.480,-40.039,-9.277,127.930,0.000,0
1606140777.768,-28.809,-44.922,-1.465,252.930,0.000,0
1606140777.772,-139.160,-56.641,-6.836,-105.469,0.000,0
1606140777.776,-230.469,-62.500,-8.789,-467.773,0.000,0
1606140777.779,-191.406,-60.547,-0.488,-382.324,0.000,0
1606140777.783,-97.168,-65.918,13.184,29.785,0.000,0
1606140777.787,-63.477,-70.801,20.020,220.215,0.000,0
1606140777.791,-132.812,-63.477,2.930,-62.012,0.000,0
1606140777.795,-228.027,-64.453,-5.371,-447.754,0.000,0
1606140777.799,-212.891,-65.430,5.371,-428.223,0.000,0
1606140777.803,-104.004,-63.965,13.672,-6.836,0.000,0
1606140777.807,-50.293,-64.941,19.043,247.070,0.000,0
1606140777.811,-114.746,-68.359,13.184,20.508,0.000,0
1606140777.815,-211.914,-72.266,7.812,-379.883,0.000,0
1606140777.819,-205.078,-73.242,10.254,-415.039,0.000,0
1606140777.822,-91.797,-70.801,12.207,-10.254,0.000,0
1606140777.826,-8.789,-70.312,17.090,294.922,0.000,0
1606140777.830,-48.340,-61.523,17.090,135.254,0.000,0
1606140777.834,-147.461,-58.105,3.906,-270.508,0.000,0
1606140777.838,-154.297,-62.012,-4.883,-370.605,0.000,0
1606140777.842,-50.293,-55.664,0.000,-4.883,0.000,0
1606140777.846,30.273,-50.781,-0.488,336.426,0.000,0
1606140777.850,-6.836,-52.246,-7.812,220.215,0.000,0
1606140777.854,-109.863,-57.129,-16.602,-218.750,0.000,0
1606140777.858,-136.230,-54.199,-16.113,-386.230,0.000,0
1606140777.862,-42.969,-47.363,-10.254,-59.570,0.000,0
1606140777.865,47.363,-42.969,-13.184,300.293,0.000,0
1606140777.869,21.484,-40.039,-13.672,242.676,0.000,0
1606140777.873,-92.773,-44.434,-16.602,-177.734,0.000,0
1606140777.877,-143.066,-47.363,-23.926,-391.602,0.000,0
1606140777.881,-62.012,-44.922,-19.531,-129.883,0.000,0
1606140777.885,39.062,-37.598,-12.695,252.441,0.000,0
1606140777.889,26.367,-37.598,-20.996,257.812,0.000,0
1606140777.893,-79.590,-40.039,-26.367,-140.625,0.000,0
1606140777.897,-146.484,-42.969,-23.926,-406.738,0.000,0
1606140777.901,-92.285,-41.992,-21.973,-191.895,0.000,0
1606140777.904,14.648,-33.691,-9.277,231.934,0.000,0
1606140777.908,23.926,-30.762,-10.254,311.035,0.000,0
1606140777.912,-78.125,-34.180,-23.926,-58.105,0.000,0
1606140777.916,-149.902,-40.527,-23.926,-375.977,0.000,0
1606140777.920,-99.121,-38.086,-20.508,-231.445,0.000,0
1606140777.924,18.555,-24.414,-17.090,196.289,0.000,0
1606140777.928,45.410,-27.344,-18.555,331.055,0.000,0
1606140777.932,-43.457,-33.691,-20.508,-2.930,0.000,0
1606140777.936,-120.117,-33.203,-17.578,-348.633,0.000,0
1606140777.940,-86.426,-33.691,-12.695,-259.277,0.000,0
1606140777.944,23.926,-22.461,-11.719,169.434,0.000,0
1606140777.947,61.035,-21.484,-16.113,358.398,0.000,0
1606140777.951,-24.414,-30.762,-16.113,61.523,0.000,0
1606140777.955,-114.746,-34.180,-19.531,-318.848,0.000,0
1606140777.959,-98.633,-36.133,-26.855,-304.688,0.000,0
1606140777.963,5.859,-22.949,-25.391,98.633,0.000,0
1606140777.967,59.082,-21.973,-16.113,339.844,0.000,0
1606140777.971,-7.324,-33.691,-12.695,103.027,0.000,0
1606140777.975,-113.770,-32.715,-23.926,-308.105,0.000,0
1606140777.979,-116.211,-33.203,-24.902,-351.562,0.000,0
1606140777.983,-14.160,-23.926,-24.414,40.039,0.000,0
1606140777.987,52.246,-18.066,-25.879,324.707,0.000,0
1606140777.990,4.395,-31.250,-22.949,144.531,0.000,0
1606140777.994,-95.703,-34.668,-33.203,-278.320,0.000,0
1606140777.998,-111.328,-32.227,-30.762,-369.629,0.000,0
1606140778.002,-18.066,-28.809,-23.438,3.906,0.000,0
1606140778.006,79.102,-22.461,-22.461,350.098,0.000,0
1606140778.010,53.223,-18.066,-26.855,229.492,0.000,0
1606140778.014,-67.871,-17.578,-40.527,-230.469,0.000,0
1606140778.018,-106.445,-18.555,-43.945,-399.902,0.000,0
1606140778.022,-17.578,-17.578,-34.668,-71.777,0.000,0
1606140778.026,64.941,-6.348,-32.715,295.898,0.000,0
1606140778.029,41.504,-0.977,-46.387,230.957,0.000,0
1606140778.033,-60.059,-19.043,-54.688,-201.660,0.000,0
1606140778.037,-109.375,-25.879,-47.852,-408.203,0.000,0
1606140778.041,-48.828,-17.090,-42.969,-130.371,0.000,0
1606140778.045,41.016,-8.789,-43.945,266.113,0.000,0
1606140778.049,45.410,-11.230,-44.434,279.785,0.000,0
1606140778.053,-55.176,-24.414,-44.434,-132.324,0.000,0
1606140778.057,-113.770,-29.297,-44.922,-407.227,0.000,0
1606140778.061,-39.551,-18.066,-44.922,-189.453,0.000,0
1606140778.065,65.918,10.254,-41.016,231.934,0.000,0
1606140778.069,81.055,2.930,-38.574,313.965,0.000,0
1606140778.072,-13.184,-27.832,-49.316,-68.359,0.000,0
1606140778.076,-87.402,-31.738,-47.363,-385.742,0.000,0
1606140778.080,-37.109,-26.367,-43.945,-227.051,0.000,0
1606140778.084,73.242,-16.113,-41.016,200.684,0.000,0
1606140778.088,91.797,-15.625,-31.738,329.102,0.000,0
1606140778.092,-6.836,-21.484,-34.668,-6.348,0.000,0
1606140778.096,-87.402,-25.879,-37.598,-346.680,0.000,0
1606140778.100,-52.246,-24.414,-31.738,-264.648,0.000,0
1606140778.104,52.734,-20.996,-33.203,148.438,0.000,0
1606140778.108,93.750,-16.113,-28.320,336.914,0.000,0
1606140778.112,18.066,-21.484,-25.879,51.758,0.000,0
1606140778.115,-76.660,-34.180,-38.086,-324.707,0.000,0
1606140778.119,-67.871,-35.156,-38.086,-293.457,0.000,0
1606140778.123,35.156,-28.320,-30.762,125.488,0.000,0
1606140778.127,87.402,-22.949,-27.344,364.746,0.000,0
1606140778.131,15.137,-28.320,-29.297,120.117,0.000,0
1606140778.135,-93.262,-35.645,-37.598,-290.527,0.000,0
1606140778.139,-96.191,-30.273,-36.133,-324.219,0.000,0
1606140778.143,6.836,-18.066,-24.414,88.379,0.000,0
1606140778.147,70.312,-10.254,-23.438,367.676,0.000,0
1606140778.151,17.090,-23.926,-29.297,157.227,0.000,0
1606140778.154,-87.891,-40.527,-35.645,-261.230,0.000,0
1606140778.158,-92.773,-37.598,-37.109,-357.422,0.000,0
1606140778.162,8.301,-24.414,-32.227,1.953,0.000,0
1606140778.166,75.684,-20.020,-32.715,333.984,0.000,0
1606140778.170,39.551,-21.484,-35.156,216.797,0.000,0
1606140778.174,-58.105,-25.391,-34.180,-203.613,0.000,0
1606140778.178,-90.332,-30.762,-37.109,-370.605,0.000,0
1606140778.182,-3.418,-29.785,-29.785,-53.711,0.000,0
1606140778.186,87.891,-26.367,-20.508,316.895,0.000,0
1606140778.190,58.594,-29.297,-21.484,254.395,0.000,0
1606140778.194,-56.641,-33.691,-32.715,-176.270,0.000,0
1606140778.197,-110.352,-32.715,-42.969,-401.367,0.000,0
1606140778.201,-42.969,-31.250,-33.203,-136.230,0.000,0
1606140778.205,52.246,-24.414,-28.320,262.695,0.000,0
1606140778.209,51.270,-20.020,-30.273,267.090,0.000,0
1606140778.213,-57.129,-30.273,-36.621,-145.020,0.000,0
1606140778.217,-114.258,-32.227,-39.062,-395.996,0.000,0
1606140778.221,-43.945,-24.414,-32.715,-169.434,0.000,0
1606140778.225,66.406,-14.648,-33.691,246.094,0.000,0
1606140778.229,77.148,-16.113,-27.344,326.660,0.000,0
1606140778.233,-46.387,-28.320,-20.996,-60.059,0.000,0
1606140778.237,-134.766,-31.738,-18.555,-373.047,0.000,0
1606140778.240,-83.984,-30.273,-12.207,-210.938,0.000,0
1606140778.244,12.207,-20.996,-13.672,201.172,0.000,0
1606140778.248,26.367,-18.066,-11.230,320.312,0.000,0
1606140778.252,-63.477,-33.203,-14.160,-21.973,0.000,0
1606140778.256,-141.113,-38.086,-21.973,-371.582,0.000,0
1606140778.260,-103.027,-36.133,-20.996,-276.367,0.000,0
1606140778.264,16.113,-33.691,-16.602,150.391,0.000,0
1606140778.268,62.012,-37.109,-10.742,329.102,0.000,0
1606140778.272,-20.508,-41.504,-9.766,32.715,0.000,0
1606140778.276,-110.840,-40.039,-15.137,-340.820,0.000,0
1606140778.279,-101.074,-33.691,-21.973,-312.500,0.000,0
1606140778.283,-7.324,-24.902,-26.367,93.262,0.000,0
1606140778.287,40.527,-33.691,-26.367,317.871,0.000,0
1606140778.291,-26.855,-41.992,-22.461,79.102,0.000,0
1606140778.295,-125.000,-40.039,-31.738,-319.336,0.000,0
1606140778.299,-118.652,-38.086,-36.621,-364.746,0.000,0
1606140778.303,-11.230,-34.180,-28.809,29.785,0.000,0
1606140778.307,55.664,-31.250,-24.414,319.336,0.000,0
1606140778.311,-4.395,-35.645,-25.879,125.000,0.000,0
1606140778.315,-113.281,-44.434,-26.855,-295.410,0.000,0
1606140778.319,-125.488,-43.945,-27.344,-384.766,0.000,0
1606140778.322,-28.809,-41.504,-31.250,-24.902,0.000,0
1606140778.326,46.387,-41.016,-30.273,307.617,0.000,0
1606140778.330,12.695,-35.156,-27.832,190.918,0.000,0
1606140778.334,-90.820,-31.250,-30.762,-239.746,0.000,0
1606140778.338,-121.582,-33.691,-30.762,-387.695,0.000,0
1606140778.342,-34.180,-20.996,-26.367,-64.941,0.000,0
1606140778.346,51.758,2.930,-22.461,292.969,0.000,0
1606140778.350,29.785,-14.160,-21.973,240.234,0.000,0
1606140778.354,-78.125,-39.551,-30.762,-183.594,0.000,0
1606140778.358,-123.535,-40.039,-34.180,-400.879,0.000,0
1606140778.362,-43.945,-33.203,-24.414,-115.234,0.000,0
1606140778.365,53.223,-25.879,-14.648,279.297,0.000,0
1606140778.369,46.875,-27.832,-11.230,280.273,0.000,0
1606140778.373,-54.199,-35.645,-16.602,-120.605,0.000,0
1606140778.377,-116.699,-42.969,-23.926,-381.836,0.000,0
1606140778.381,-57.129,-37.109,-21.484,-167.969,0.000,0
1606140778.385,41.016,-32.715,-20.508,233.398,0.000,0
1606140778.389,48.828,-29.785,-24.902,299.805,0.000,0
1606140778.393,-42.969,-24.902,-26.855,-75.684,0.000,0
1606140778.397,-117.188,-31.250,-27.344,-390.625,0.000,0
1606140778.401,-72.266,-29.297,-21.484,-234.863,0.000,0
1606140778.404,32.715,-25.391,-19.043,193.848,0.000,0
1606140778.408,60.059,-20.996,-19.531,318.848,0.000,0
1606140778.412,-28.320,-22.461,-22.461,-29.297,0.000,0
1606140778.416,-119.629,-33.203,-31.738,-379.395,0.000,0
1606140778.420,-87.891,-29.297,-32.227,-280.273,0.000,0
1606140778.424,25.879,-6.836,-25.391,156.738,0.000,0
1606140778.428,60.059,-6.836,-22.949,338.379,0.000,0
1606140778.432,-25.879,-33.203,-24.414,35.645,0.000,0
1606140778.436,-105.957,-41.016,-29.785,-338.867,0.000,0
1606140778.440,-70.312,-28.809,-30.273,-303.223,0.000,0
1606140778.444,35.156,-9.277,-26.855,109.863,0.000,0
1606140778.447,72.266,-6.836,-29.297,331.543,0.000,0
1606140778.451,-7.812,-17.090,-40.527,66.406,0.000,0
1606140778.455,-107.910,-17.090,-50.293,-335.449,0.000,0
1606140778.459,-106.934,-14.160,-54.199,-363.770,0.000,0
1606140778.463,-7.324,-6.836,-52.734,26.855,0.000,0
1606140778.467,61.523,0.977,-47.363,311.035,0.000,0
1606140778.471,1.465,1.953,-51.758,120.117,0.000,0
1606140778.475,-120.117,-8.789,-68.848,-318.848,0.000,0
1606140778.479,-137.695,-14.648,-77.637,-424.316,0.000,0
1606140778.483,-32.715,0.488,-75.684,-46.387,0.000,0
1606140778.487,51.270,5.371,-76.660,297.852,0.000,0
1606140778.490,6.836,-12.695,-67.383,172.852,0.000,0
1606140778.494,-105.957,-21.973,-57.617,-241.211,0.000,0
1606140778.498,-130.371,-26.855,-58.594,-390.625,0.000,0
1606140778.502,-38.086,-20.020,-62.500,-78.125,0.000,0
1606140778.506,63.477,-10.742,-55.664,282.227,0.000,0
1606140778.510,46.387,-18.066,-51.270,224.609,0.000,0
1606140778.514,-62.988,-31.250,-58.594,-196.289,0.000,0
1606140778.518,-95.215,-30.273,-61.035,-393.555,0.000,0
1606140778.522,-25.879,-18.066,-50.293,-118.164,0.000,0
1606140778.526,57.129,-9.277,-44.922,262.207,0.000,0
1606140778.529,54.688,-18.066,-45.898,264.648,0.000,0
1606140778.533,-47.363,-28.809,-43.945,-146.973,0.000,0
1606140778.537,-106.934,-33.691,-48.828,-410.156,0.000,0
1606140778.541,-44.922,-27.344,-44.434,-182.129,0.000,0
1606140778.545,60.547,-18.555,-38.086,233.398,0.000,0
1606140778.549,75.195,-18.066,-39.551,295.410,0.000,0
1606140778.553,-24.902,-22.461,-44.434,-88.867,0.000,0
1606140778.557,-96.680,-28.809,-48.340,-396.973,0.000,0
1606140778.561,-42.480,-16.602,-47.363,-234.863,0.000,0
1606140778.565,57.617,0.488,-41.992,191.895,0.000,0
1606140778.569,72.754,-16.602,-33.691,312.012,0.000,0
1606140778.572,-20.996,-31.250,-36.133,-28.320,0.000,0
1606140778.576,-104.980,-36.621,-44.922,-367.188,0.000,0
1606140778.580,-65.918,-33.203,-41.504,-273.438,0.000,0
1606140778.584,41.016,-29.785,-37.109,158.203,0.000,0
1606140778.588,79.102,-22.461,-32.227,343.262,0.000,0
1606140778.592,-0.977,-26.367,-32.227,35.645,0.000,0
1606140778.596,-94.727,-37.598,-38.574,-342.773,0.000,0
1606140778.600,-79.590,-28.320,-43.457,-309.570,0.000,0
1606140778.604,24.902,-22.461,-40.527,105.469,0.000,0
1606140778.608,76.172,-23.438,-32.715,345.215,0.000,0
1606140778.612,11.719,-22.461,-29.785,109.375,0.000,0
1606140778.615,-84.961,-27.344,-35.156,-288.574,0.000,0
1606140778.619,-85.938,-37.598,-38.086,-333.008,0.000,0
1606140778.623,11.719,-12.207,-33.691,47.852,0.000,0
1606140778.627,79.590,13.672,-26.367,334.473,0.000,0
1606140778.631,29.297,-10.742,-20.020,146.484,0.000,0
1606140778.635,-80.566,-25.391,-29.297,-277.832,0.000,0
1606140778.639,-100.586,-30.762,-43.457,-376.953,0.000,0
1606140778.643,-9.277,-24.902,-40.527,-12.695,0.000,0
1606140778.647,61.523,-21.484,-33.691,306.152,0.000,0
1606140778.651,18.555,-29.785,-36.133,171.387,0.000,0
1606140778.654,-87.891,-30.273,-40.039,-247.070,0.000,0
1606140778.658,-117.188,-33.203,-39.062,-389.648,0.000,0
1606140778.662,-38.086,-12.695,-36.133,-78.613,0.000,0
1606140778.666,48.340,5.371,-31.250,276.855,0.000,0
1606140778.670,18.066,-20.020,-31.738,218.262,0.000,0
1606140778.674,-98.145,-29.785,-35.645,-204.590,0.000,0
1606140778.678,-146.973,-31.738,-37.598,-422.363,0.000,0
1606140778.682,-71.289,-34.668,-39.062,-143.066,0.000,0
1606140778.686,39.062,-20.508,-35.645,256.836,0.000,0
1606140778.690,28.809,-15.625,-30.762,250.488,0.000,0
1606140778.694,-89.355,-26.367,-33.691,-170.410,0.000,0
1606140778.697,-136.719,-32.715,-40.039,-427.734,0.000,0
1606140778.701,-52.734,0.000,-46.875,-178.223,0.000,0
1606140778.705,60.547,25.879,-48.828,254.395,0.000,0
1606140778.709,79.102,-9.766,-46.387,321.777,0.000,0
1606140778.713,-9.277,-22.461,-41.016,-46.875,0.000,0
1606140778.717,-76.660,-34.180,-36.621,-333.008,0.000,0
1606140778.721,-24.414,-25.879,-35.156,-160.645,0.000,0
1606140778.725,83.984,3.418,-34.180,263.184,0.000,0
1606140778.729,117.676,-11.719,-35.645,387.695,0.000,0
1606140778.733,25.391,-26.855,-37.598,43.457,0.000,0
1606140778.737,-62.988,-35.156,-35.645,-301.758,0.000,0
1606140778.740,-26.367,-37.598,-35.156,-200.684,0.000,0
1606140778.744,83.984,-31.250,-29.785,225.098,0.000,0
1606140778.748,126.465,-25.879,-20.020,403.809,0.000,0
1606140778.752,51.758,-23.438,-20.508,109.863,0.000,0
1606140778.756,-42.969,-34.180,-24.902,-274.902,0.000,0
1606140778.760,-31.250,-42.480,-26.855,-254.395,0.000,0
1606140778.764,69.336,-21.973,-32.227,157.227,0.000,0
1606140778.768,118.652,-22.461,-28.809,392.090,0.000,0
1606140778.772,47.852,-36.621,-31.250,143.555,0.000,0
1606140778.776,-53.223,-41.992,-39.062,-264.648,0.000,0
1606140778.779,-51.270,-43.945,-37.598,-299.316,0.000,0
1606140778.783,50.293,-14.648,-23.926,97.168,0.000,0
1606140778.787,112.305,-13.184,-21.484,377.441,0.000,0
1606140778.791,57.617,-31.738,-32.227,178.711,0.000,0
1606140778.795,-51.758,-35.156,-37.109,-243.164,0.000,0
1606140778.799,-71.289,-46.387,-38.574,-327.637,0.000,0
1606140778.803,23.438,-9.277,-30.273,36.133,0.000,0
1606140778.807,97.656,21.973,-24.902,354.980,0.000,0
1606140778.811,51.270,-30.273,-28.320,219.727,0.000,0
1606140778.815,-54.688,-46.875,-33.691,-198.730,0.000,0
1606140778.819,-83.496,-47.852,-33.203,-342.773,0.000,0
1606140778.822,-5.371,-52.734,-32.227,-25.879,0.000,0
1606140778.826,75.684,-43.457,-26.855,322.266,0.000,0
1606140778.830,48.828,-39.551,-17.578,260.254,0.000,0
1606140778.834,-52.246,-41.504,-22.461,-154.297,0.000,0
1606140778.838,-94.727,-47.363,-31.250,-370.117,0.000,0
1606140778.842,-28.320,-23.438,-29.297,-98.633,0.000,0
1606140778.846,59.082,-10.254,-25.879,288.086,0.000,0
1606140778.850,49.316,-34.180,-19.531,289.551,0.000,0
1606140778.854,-47.852,-46.875,-23.926,-118.164,0.000,0
1606140778.858,-106.445,-53.711,-34.180,-379.883,0.000,0
1606140778.862,-46.387,-35.645,-32.715,-161.621,0.000,0
1606140778.865,57.617,-23.438,-24.902,240.234,0.000,0
1606140778.869,70.801,-35.156,-19.531,303.223,0.000,0
1606140778.873,-32.715,-41.504,-23.438,-76.172,0.000,0
1606140778.877,-103.027,-42.969,-24.414,-373.535,0.000,0
1606140778.881,-55.176,-42.969,-23.926,-210.938,0.000,0
1606140778.885,45.898,-38.574,-22.461,197.266,0.000,0
1606140778.889,75.195,-34.668,-19.043,321.777,0.000,0
1606140778.893,-6.836,-32.227,-26.855,-6.836,0.000,0
1606140778.897,-89.844,-39.062,-36.621,-353.516,0.000,0
1606140778.901,-58.105,-31.738,-32.227,-265.137,0.000,0
1606140778.904,51.270,-18.555,-24.902,162.109,0.000,0
1606140778.908,86.426,-20.508,-22.461,344.238,0.000,0
1606140778.912,-0.977,-26.855,-26.367,37.598,0.000,0
1606140778.916,-94.727,-33.203,-35.156,-334.961,0.000,0
1606140778.920,-72.754,-32.227,-35.645,-297.852,0.000,0
1606140778.924,30.762,-14.648,-25.391,119.141,0.000,0
1606140778.928,78.613,-6.836,-21.484,353.027,0.000,0
1606140778.932,8.789,-17.578,-34.180,94.238,0.000,0
1606140778.936,-92.285,-26.367,-32.715,-311.035,0.000,0
1606140778.940,-81.543,-26.855,-27.832,-338.379,0.000,0
1606140778.944,10.742,-8.301,-30.762,47.363,0.000,0
1606140778.947,61.035,-6.836,-24.902,326.172,0.000,0
1606140778.951,8.301,-21.484,-25.391,140.625,0.000,0
1606140778.955,-84.961,-26.367,-29.297,-259.766,0.000,0
1606140778.959,-90.820,-31.250,-25.391,-344.727,0.000,0
1606140778.963,0.000,-27.344,-19.043,14.648,0.000,0
1606140778.967,72.754,-22.461,-18.066,331.543,0.000,0
1606140778.971,31.250,-23.926,-19.043,197.754,0.000,0
1606140778.975,-77.637,-28.809,-23.926,-224.609,0.000,0
1606140778.979,-108.887,-24.902,-31.738,-377.930,0.000,0
1606140778.983,-27.344,-17.578,-22.461,-54.688,0.000,0
1606140778.987,53.711,-24.414,-16.113,302.734,0.000,0
1606140778.990,31.738,-32.715,-20.996,229.980,0.000,0
1606140778.994,-88.867,-41.504,-28.809,-203.613,0.000,0
1606140778.998,-135.742,-46.875,-31.250,-404.785,0.000,0
1606140779.002,-54.688,-29.297,-26.855,-122.559,0.000,0
1606140779.006,37.598,-10.254,-26.855,260.742,0.000,0
1606140779.010,26.367,-26.367,-25.391,247.070,0.000,0
1606140779.014,-79.102,-38.574,-31.250,-163.574,0.000,0
1606140779.018,-138.672,-44.434,-38.086,-417.480,0.000,0
1606140779.022,-79.102,-39.551,-29.785,-192.383,0.000,0
1606140779.026,28.809,-22.949,-15.137,223.633,0.000,0
1606140779.029,40.039,-20.020,-18.066,286.133,0.000,0
1606140779.033,-63.965,-32.227,-31.250,-94.238,0.000,0
1606140779.037,-137.207,-39.062,-32.715,-404.785,0.000,0
1606140779.041,-84.473,-31.738,-33.203,-235.352,0.000,0
1606140779.045,23.438,-21.484,-33.203,196.289,0.000,0
1606140779.049,49.805,-19.531,-22.461,324.707,0.000,0
1606140779.053,-44.922,-34.180,-28.320,-17.578,0.000,0
1606140779.057,-129.883,-42.969,-27.344,-366.699,0.000,0
1606140779.061,-90.820,-31.250,-21.484,-270.996,0.000,0
1606140779.065,16.602,-27.344,-27.832,160.645,0.000,0
1606140779.069,56.641,-26.855,-20.996,347.168,0.000,0
1606140779.072,-17.578,-32.715,-25.391,52.734,0.000,0
1606140779.076,-101.074,-41.016,-34.180,-312.988,0.000,0
1606140779.080,-74.707,-34.668,-21.973,-266.602,0.000,0
1606140779.084,31.250,-28.320,-18.555,138.184,0.000,0
1606140779.088,81.543,-28.320,-20.996,333.984,0.000,0
1606140779.092,12.207,-28.809,-17.578,68.848,0.000,0
1606140779.096,-90.332,-34.668,-28.320,-325.195,0.000,0
1606140779.100,-86.914,-35.156,-31.738,-349.121,0.000,0
1606140779.104,21.973,-25.391,-21.484,53.711,0.000,0
1606140779.108,83.496,-17.578,-21.484,329.590,0.000,0
1606140779.112,26.367,-24.414,-24.414,134.277,0.000,0
1606140779.115,-77.637,-31.738,-23.438,-274.414,0.000,0
1606140779.119,-100.098,-29.785,-23.926,-361.816,0.000,0
1606140779.123,-4.883,-24.414,-22.461,6.836,0.000,0
1606140779.127,62.500,-25.391,-25.391,321.289,0.000,0
1606140779.131,14.648,-29.785,-26.855,180.176,0.000,0
1606140779.135,-92.285,-36.133,-34.668,-243.164,0.000,0
1606140779.139,-122.070,-34.180,-33.203,-386.719,0.000,0
1606140779.143,-37.598,-23.926,-28.320,-60.059,0.000,0
1606140779.147,40.527,-22.949,-34.180,284.180,0.000,0
1606140779.151,19.531,-21.484,-30.762,212.891,0.000,0
1606140779.154,-75.684,-20.020,-36.621,-209.961,0.000,0
1606140779.158,-104.980,-22.949,-45.410,-395.996,0.000,0
1606140779.162,-34.180,-31.250,-24.414,-103.516,0.000,0
1606140779.166,27.832,-32.715,-5.371,247.559,0.000,0
1606140779.170,4.883,-29.297,-9.766,229.004,0.000,0
1606140779.174,-98.633,-31.250,-15.625,-164.062,0.000,0
1606140779.178,-159.668,-40.039,-11.719,-427.246,0.000,0
1606140779.182,-100.586,-30.273,-5.859,-214.355,0.000,0
1606140779.186,-0.488,-15.625,-0.488,203.613,0.000,0
1606140779.190,4.883,-31.250,3.418,267.578,0.000,0
1606140779.194,-101.562,-48.340,-5.859,-122.559,0.000,0
1606140779.197,-172.852,-55.176,-17.578,-422.363,0.000,0
1606140779.201,-114.746,-48.340,-16.113,-245.117,0.000,0
1606140779.205,-2.441,-37.109,-5.371,184.570,0.000,0
1606140779.209,21.973,-37.598,-1.953,295.898,0.000,0
1606140779.213,-67.871,-45.898,-7.812,-57.129,0.000,0
1606140779.217,-153.320,-57.617,-15.625,-401.367,0.000,0
1606140779.221,-113.770,-44.434,-14.648,-294.922,0.000,0
1606140779.225,5.859,-16.602,-14.160,130.371,0.000,0
1606140779.229,31.738,-27.344,-17.090,301.758,0.000,0
1606140779.233,-53.223,-39.062,-20.996,3.418,0.000,0
1606140779.237,-133.789,-41.016,-26.855,-360.352,0.000,0
1606140779.240,-112.793,-38.086,-26.367,-322.754,0.000,0
1606140779.244,-2.441,-25.879,-19.043,93.750,0.000,0
1606140779.248,50.293,-28.809,-12.207,329.590,0.000,0
1606140779.252,-20.020,-36.133,-16.602,85.449,0.000,0
1606140779.256,-116.211,-37.598,-14.160,-306.152,0.000,0
1606140779.260,-112.793,-34.668,-15.625,-337.891,0.000,0
1606140779.264,-8.789,-27.344,-24.902,51.270,0.000,0
1606140779.268,59.082,-28.320,-18.066,336.426,0.000,0
1606140779.272,3.418,-30.762,-20.508,142.090,0.000,0
1606140779.276,-100.098,-33.203,-30.762,-277.344,0.000,0
1606140779.279,-109.863,-37.598,-28.809,-361.816,0.000,0
1606140779.283,-13.184,-23.926,-25.879,9.277,0.000,0
1606140779.287,63.477,-13.672,-22.461,326.660,0.000,0
1606140779.291,26.367,-26.855,-20.020,184.570,0.000,0
1606140779.295,-79.590,-34.180,-22.461,-237.793,0.000,0
1606140779.299,-111.328,-38.086,-26.855,-380.371,0.000,0
1606140779.303,-29.297,-37.109,-28.809,-59.570,0.000,0
1606140779.307,46.875,-31.738,-25.391,290.039,0.000,0
1606140779.311,16.602,-31.738,-23.438,228.516,0.000,0
1606140779.315,-90.332,-36.133,-30.762,-188.965,0.000,0
1606140779.319,-136.230,-43.945,-35.156,-401.855,0.000,0
1606140779.322,-65.430,-23.438,-33.691,-131.836,0.000,0
1606140779.326,27.344,-10.254,-30.273,253.418,0.000,0
1606140779.330,19.043,-28.320,-23.926,264.160,0.000,0
1606140779.334,-84.961,-35.156,-28.809,-135.254,0.000,0
1606140779.338,-144.043,-43.457,-35.645,-396.973,0.000,0
1606140779.342,-82.031,-40.527,-23.926,-172.363,0.000,0
1606140779.346,19.531,-31.250,-14.648,242.676,0.000,0
1606140779.350,32.227,-28.809,-21.973,293.945,0.000,0
1606140779.354,-80.566,-39.551,-30.273,-103.027,0.000,0
1606140779.358,-160.156,-46.875,-30.273,-391.602,0.000,0
1606140779.362,-93.262,-32.227,-23.438,-201.660,0.000,0
1606140779.365,16.602,-30.273,-19.043,213.379,0.000,0
1606140779.369,36.621,-40.527,-19.043,319.824,0.000,0
1606140779.373,-57.617,-45.410,-17.578,-26.367,0.000,0
1606140779.377,-137.695,-52.734,-24.902,-359.863,0.000,0
1606140779.381,-102.539,-43.945,-27.832,-256.836,0.000,0
1606140779.385,6.836,-28.320,-25.391,158.691,0.000,0
1606140779.389,47.852,-31.738,-21.973,333.496,0.000,0
1606140779.393,-26.367,-41.504,-20.996,35.156,0.000,0
1606140779.397,-119.141,-55.176,-31.738,-351.562,0.000,0
1606140779.401,-101.562,-55.176,-33.203,-329.102,0.000,0
1606140779.404,11.230,-41.504,-26.855,97.656,0.000,0
1606140779.408,61.523,-29.785,-17.090,346.191,0.000,0
1606140779.412,-10.254,-36.133,-22.949,84.961,0.000,0
1606140779.416,-107.910,-46.387,-39.551,-323.730,0.000,0
1606140779.420,-102.539,-42.480,-35.645,-345.703,0.000,0
1606140779.424,10.254,-28.809,-20.996,71.777,0.000,0
1606140779.428,87.891,-20.996,-11.230,368.164,0.000,0
1606140779.432,23.926,-27.344,-18.066,160.156,0.000,0
1606140779.436,-98.633,-29.785,-35.156,-275.391,0.000,0
1606140779.440,-115.234,-25.879,-41.992,-368.164,0.000,0
1606140779.444,-3.418,-21.484,-33.691,6.836,0.000,0
1606140779.447,81.543,-21.973,-34.668,325.684,0.000,0
1606140779.451,37.598,-22.949,-38.086,191.406,0.000,0
1606140779.455,-71.289,-20.996,-38.574,-217.773,0.000,0
1606140779.459,-100.098,-26.367,-39.551,-368.164,0.000,0
1606140779.463,-12.207,-9.766,-42.969,-52.246,0.000,0
1606140779.467,73.242,4.395,-41.504,302.734,0.000,0
1606140779.471,61.035,-10.742,-32.227,250.000,0.000,0
1606140779.475,-44.434,-12.207,-29.785,-161.621,0.000,0
1606140779.479,-89.844,-17.578,-26.855,-364.746,0.000,0
1606140779.483,-17.578,-26.367,-29.297,-98.145,0.000,0
1606140779.487,79.590,-17.090,-26.367,282.715,0.000,0
1606140779.490,76.660,-16.602,-26.855,276.367,0.000,0
1606140779.494,-47.852,-25.391,-37.109,-133.301,0.000,0
1606140779.498,-113.770,-28.320,-44.434,-389.160,0.000,0
1606140779.502,-54.199,-22.461,-40.527,-174.316,0.000,0
1606140779.506,41.016,-17.090,-32.227,227.539,0.000,0
1606140779.510,44.922,-27.832,-30.762,289.062,0.000,0
1606140779.514,-57.129,-32.715,-31.738,-90.820,0.000,0
1606140779.518,-126.465,-32.715,-35.645,-390.137,0.000,0
1606140779.522,-80.566,-29.785,-37.598,-220.703,0.000,0
1606140779.526,24.902,-21.484,-32.715,203.125,0.000,0
1606140779.529,47.363,-21.973,-26.855,324.219,0.000,0
1606140779.533,-45.410,-32.227,-28.809,-22.461,0.000,0
1606140779.537,-122.559,-40.039,-35.156,-371.094,0.000,0
1606140779.541,-93.750,-44.922,-44.434,-275.391,0.000,0
1606140779.545,11.230,-39.062,-39.062,159.668,0.000,0
1606140779.549,50.781,-29.785,-30.273,338.379,0.000,0
1606140779.553,-32.227,-30.762,-32.715,23.438,0.000,0
1606140779.557,-121.582,-39.062,-39.551,-359.375,0.000,0
1606140779.561,-97.656,-34.180,-39.062,-325.684,0.000,0
1606140779.565,10.254,-10.742,-31.738,95.215,0.000,0
1606140779.569,57.129,-13.672,-31.250,329.590,0.000,0
1606140779.572,-13.184,-37.109,-38.086,75.684,0.000,0
1606140779.576,-110.840,-43.457,-40.527,-327.637,0.000,0
1606140779.580,-100.586,-37.109,-31.250,-341.797,0.000,0
1606140779.584,12.207,-32.227,-28.320,65.430,0.000,0
1606140779.588,77.637,-31.250,-25.879,334.961,0.000,0
1606140779.592,12.695,-30.273,-28.320,134.277,0.000,0
1606140779.596,-89.355,-32.715,-35.645,-270.996,0.000,0
1606140779.600,-104.980,-36.621,-37.598,-362.305,0.000,0
1606140779.604,-18.066,-13.672,-33.203,-2.930,0.000,0
1606140779.608,55.664,-12.695,-30.273,312.012,0.000,0
1606140779.612,15.625,-31.250,-30.762,175.293,0.000,0
1606140779.615,-88.379,-35.645,-35.156,-246.582,0.000,0
1606140779.619,-115.723,-38.086,-37.598,-388.672,0.000,0
1606140779.623,-37.109,-32.227,-31.738,-59.570,0.000,0
1606140779.627,47.852,-25.391,-22.461,304.199,0.000,0
1606140779.631,25.391,-26.367,-24.902,230.957,0.000,0
1606140779.635,-84.473,-34.180,-34.180,-199.707,0.000,0
1606140779.639,-123.535,-36.621,-32.715,-395.508,0.000,0
1606140779.643,-44.922,-13.672,-33.203,-113.281,0.000,0
1606140779.647,44.434,6.348,-31.738,269.043,0.000,0
1606140779.651,32.227,-16.602,-25.391,254.883,0.000,0
1606140779.654,-69.824,-35.156,-25.879,-152.832,0.000,0
1606140779.658,-125.000,-34.180,-23.438,-391.602,0.000,0
1606140779.662,-61.523,-29.785,-24.902,-153.320,0.000,0
1606140779.666,38.086,-27.832,-23.438,250.977,0.000,0
1606140779.670,48.340,-23.926,-18.066,299.316,0.000,0
1606140779.674,-48.340,-25.879,-25.879,-82.031,0.000,0
1606140779.678,-123.047,-34.668,-34.180,-381.348,0.000,0
1606140779.682,-68.359,-30.273,-23.438,-211.426,0.000,0
1606140779.686,35.645,-21.973,-18.555,211.426,0.000,0
1606140779.690,52.246,-25.391,-25.391,320.801,0.000,0
1606140779.694,-38.086,-33.203,-31.250,-38.086,0.000,0
1606140779.697,-118.652,-38.574,-33.691,-379.395,0.000,0
1606140779.701,-82.031,-28.809,-32.227,-273.926,0.000,0
1606140779.705,28.320,-9.766,-22.949,158.691,0.000,0
1606140779.709,59.082,-21.973,-18.066,327.637,0.000,0
1606140779.713,-31.250,-40.039,-32.715,7.812,0.000,0
1606140779.717,-118.164,-39.062,-40.039,-370.117,0.000,0
1606140779.721,-95.703,-34.668,-28.809,-320.312,0.000,0
1606140779.725,12.695,-31.250,-23.438,106.445,0.000,0
1606140779.729,65.430,-28.809,-23.926,333.008,0.000,0
1606140779.733,-4.883,-27.832,-24.414,81.543,0.000,0
1606140779.737,-99.609,-25.391,-27.832,-312.012,0.000,0
1606140779.740,-98.633,-26.855,-32.227,-343.750,0.000,0
1606140779.744,-5.371,-14.160,-28.809,39.551,0.000,0
1606140779.748,54.199,-13.184,-20.020,321.777,0.000,0
1606140779.752,-2.441,-29.297,-24.902,136.719,0.000,0
1606140779.756,-105.957,-37.598,-34.668,-280.273,0.000,0
1606140779.760,-118.652,-39.062,-32.227,-374.023,0.000,0
1606140779.764,-26.367,-33.691,-23.926,-5.859,0.000,0
1606140779.768,50.293,-32.715,-19.531,316.895,0.000,0
1606140779.772,10.742,-34.180,-21.973,184.570,0.000,0
1606140779.776,-107.422,-40.527,-27.344,-242.676,0.000,0
1606140779.779,-137.207,-40.527,-25.879,-386.719,0.000,0
1606140779.783,-41.992,-31.250,-21.484,-50.293,0.000,0
1606140779.787,45.410,-19.531,-13.672,295.898,0.000,0
1606140779.791,13.184,-23.926,-16.113,215.820,0.000,0
1606140779.795,-102.539,-40.527,-29.297,-213.867,0.000,0
1606140779.799,-139.160,-38.574,-30.762,-414.062,0.000,0
1606140779.803,-61.523,-30.762,-20.508,-133.301,0.000,0
1606140779.807,33.691,-19.531,-19.043,235.840,0.000,0
1606140779.811,30.273,-16.602,-20.508,224.609,0.000,0
1606140779.815,-82.031,-33.691,-12.695,-174.805,0.000,0
1606140779.819,-145.020,-34.668,-13.672,-436.523,0.000,0
1606140779.822,-88.379,-27.832,-17.090,-215.332,0.000,0
1606140779.826,0.977,-16.113,-14.648,189.941,0.000,0
1606140779.830,3.418,-11.230,-18.555,244.629,0.000,0
1606140779.834,-92.773,-22.949,-22.461,-137.695,0.000,0
1606140779.838,-165.039,-22.461,-22.461,-438.965,0.000,0
1606140779.842,-111.816,-30.762,-30.273,-275.879,0.000,0
1606140779.846,10.742,-37.109,-30.762,160.156,0.000,0
1606140779.850,27.832,-28.809,-18.066,288.086,0.000,0
1606140779.854,-68.359,-30.273,-13.672,-72.754,0.000,0
1606140779.858,-146.973,-29.297,-21.484,-413.574,0.000,0
1606140779.862,-109.375,-25.879,-25.391,-299.805,0.000,0
1606140779.865,3.906,-25.879,-16.113,135.742,0.000,0
1606140779.869,36.133,-20.996,-9.766,306.152,0.000,0
1606140779.873,-41.504,-21.973,-19.531,2.930,0.000,0
1606140779.877,-120.117,-25.879,-27.832,-356.445,0.000,0
1606140779.881,-101.562,-30.273,-25.879,-311.523,0.000,0
1606140779.885,5.371,-34.668,-22.461,110.840,0.000,0
1606140779.889,60.059,-31.250,-17.578,341.797,0.000,0
1606140779.893,-15.137,-32.227,-18.555,89.355,0.000,0
1606140779.897,-116.699,-42.969,-26.367,-310.059,0.000,0
1606140779.901,-113.281,-43.945,-27.344,-338.379,0.000,0
1606140779.904,-6.348,-38.086,-20.996,60.547,0.000,0
1606140779.908,65.918,-28.320,-18.066,348.633,0.000,0
1606140779.912,14.160,-27.344,-19.531,154.297,0.000,0
1606140779.916,-89.355,-36.621,-23.926,-265.137,0.000,0
1606140779.920,-106.934,-38.086,-30.273,-353.027,0.000,0
1606140779.924,-10.742,-36.621,-28.809,20.020,0.000,0
1606140779.928,64.941,-33.203,-27.832,334.961,0.000,0
1606140779.932,21.973,-35.645,-27.832,186.523,0.000,0
1606140779.936,-79.102,-41.992,-27.832,-233.398,0.000,0
1606140779.940,-97.168,-41.504,-32.227,-363.770,0.000,0
1606140779.944,-3.906,-35.645,-27.832,-29.297,0.000,0
1606140779.947,79.590,-32.227,-21.484,323.242,0.000,0
1606140779.951,48.828,-35.645,-20.508,245.605,0.000,0
1606140779.955,-56.641,-40.039,-20.996,-168.457,0.000,0
1606140779.959,-98.145,-38.086,-23.438,-360.352,0.000,0
1606140779.963,-26.367,-35.156,-22.949,-84.473,0.000,0
1606140779.967,65.918,-27.832,-19.531,299.316,0.000,0
1606140779.971,55.176,-27.344,-19.043,290.527,0.000,0
1606140779.975,-52.734,-38.574,-25.879,-131.348,0.000,0
1606140779.979,-111.816,-41.016,-31.250,-387.207,0.000,0
1606140779.983,-43.457,-33.691,-29.785,-156.738,0.000,0
1606140779.987,61.035,-21.973,-24.902,257.812,0.000,0
1606140779.990,60.059,-20.020,-23.438,307.129,0.000,0
1606140779.994,-43.945,-27.344,-30.273,-91.797,0.000,0
1606140779.998,-105.957,-27.344,-32.715,-387.207,0.000,0
1606140780.002,-54.688,-22.949,-29.297,-218.262,0.000,0
1606140780.006,45.898,-17.578,-29.785,193.359,0.000,0
1606140780.010,63.477,-20.996,-32.227,304.688,0.000,0
1606140780.014,-28.809,-27.344,-38.574,-38.574,0.000,0
1606140780.018,-104.492,-26.855,-42.969,-366.211,0.000,0
1606140780.022,-73.730,-25.391,-41.992,-266.113,0.000,0
1606140780.026,20.996,-15.625,-41.504,145.996,0.000,0
1606140780.029,49.805,-16.602,-31.250,316.895,0.000,0
1606140780.033,-33.203,-27.344,-24.902,17.578,0.000,0
1606140780.037,-122.559,-32.227,-35.645,-349.121,0.000,0
1606140780.041,-109.375,-33.691,-38.086,-310.059,0.000,0
1606140780.045,-5.371,-26.367,-28.320,106.445,0.000,0
1606140780.049,51.270,-21.973,-24.902,338.867,0.000,0
1606140780.053,-17.090,-29.297,-31.250,85.449,0.000,0
1606140780.057,-112.305,-35.156,-38.086,-314.453,0.000,0
1606140780.061,-107.422,-36.133,-33.691,-334.473,0.000,0
1606140780.065,-3.418,-34.668,-26.367,71.777,0.000,0
1606140780.069,61.035,-28.809,-28.320,339.355,0.000,0
1606140780.072,4.883,-28.320,-28.320,133.789,0.000,0
1606140780.076,-94.727,-30.762,-29.297,-282.227,0.000,0
1606140780.080,-91.309,-27.344,-35.156,-360.840,0.000,0
1606140780.084,20.020,-27.832,-31.738,22.949,0.000,0
1606140780.088,87.891,-31.250,-16.113,334.961,0.000,0
1606140780.092,20.996,-36.621,-6.348,183.594,0.000,0
1606140780.096,-107.422,-47.852,-11.719,-247.070,0.000,0
1606140780.100,-145.508,-50.293,-9.766,-401.367,0.000,0
1606140780.104,-57.617,-44.922,8.789,-72.754,0.000,0
1606140780.108,25.879,-46.387,24.414,285.156,0.000,0
1606140780.112,-15.625,-51.270,22.949,209.961,0.000,0
1606140780.115,-125.000,-57.617,18.555,-208.496,0.000,0
1606140780.119,-169.922,-67.383,21.973,-411.133,0.000,0
1606140780.123,-93.750,-55.664,24.414,-134.277,0.000,0
1606140780.127,9.766,-44.922,29.785,260.254,0.000,0
1606140780.131,4.395,-58.105,35.645,254.883,0.000,0
1606140780.135,-101.074,-70.312,30.762,-150.879,0.000,0
1606140780.139,-157.227,-74.219,28.809,-386.719,0.000,0
1606140780.143,-92.773,-70.801,30.762,-148.926,0.000,0
1606140780.147,16.602,-64.941,31.738,261.719,0.000,0
1606140780.151,29.785,-65.918,34.180,321.289,0.000,0
1606140780.154,-69.336,-68.359,29.785,-56.152,0.000,0
1606140780.158,-138.184,-74.219,16.113,-354.004,0.000,0
1606140780.162,-82.520,-64.453,17.090,-185.059,0.000,0
1606140780.166,24.902,-42.480,24.902,240.234,0.000,0
1606140780.170,37.598,-51.270,12.695,344.238,0.000,0
1606140780.174,-57.617,-62.988,3.418,-7.324,0.000,0
1606140780.178,-127.441,-59.082,7.324,-334.473,0.000,0
1606140780.182,-82.520,-50.293,5.371,-228.516,0.000,0
1606140780.186,28.320,-44.922,6.836,182.617,0.000,0
1606140780.190,67.871,-41.504,10.742,349.121,0.000,0
1606140780.194,-8.789,-42.480,1.465,46.875,0.000,0
1606140780.197,-99.121,-46.875,-7.812,-322.754,0.000,0
1606140780.201,-80.566,-51.270,-14.648,-277.344,0.000,0
1606140780.205,28.809,-49.316,-13.184,150.391,0.000,0
1606140780.209,78.613,-37.598,-5.859,372.559,0.000,0
1606140780.213,3.418,-42.480,-7.324,96.680,0.000,0
1606140780.217,-96.680,-51.270,-11.719,-303.711,0.000,0
1606140780.221,-90.332,-41.504,-14.648,-318.359,0.000,0
1606140780.225,10.254,-31.738,-11.230,85.938,0.000,0
1606140780.229,73.242,-37.109,-6.348,365.234,0.000,0
1606140780.233,18.555,-39.551,-7.324,162.109,0.000,0
1606140780.237,-86.914,-41.016,-14.160,-254.395,0.000,0
1606140780.240,-103.027,-43.457,-14.160,-341.797,0.000,0
1606140780.244,-9.766,-44.434,-12.207,22.949,0.000,0
1606140780.248,67.871,-38.574,-6.348,347.168,0.000,0
1606140780.252,29.297,-35.156,-2.930,213.867,0.000,0
1606140780.256,-80.566,-40.527,-16.602,-221.680,0.000,0
1606140780.260,-109.863,-47.852,-22.461,-368.652,0.000,0
1606140780.264,-19.531,-41.016,-19.043,-41.016,0.000,0
1606140780.268,73.730,-30.273,-9.277,321.777,0.000,0
1606140780.272,49.316,-30.273,-4.883,257.324,0.000,0
1606140780.276,-61.035,-35.645,-16.602,-167.480,0.000,0
1606140780.279,-102.051,-40.039,-26.367,-376.465,0.000,0
1606140780.283,-19.531,-31.250,-19.531,-98.145,0.000,0
1606140780.287,77.148,-23.438,-10.254,292.480,0.000,0
1606140780.291,63.965,-26.855,-14.160,282.715,0.000,0
1606140780.295,-47.852,-34.668,-23.926,-133.301,0.000,0
1606140780.299,-102.539,-29.785,-25.391,-376.953,0.000,0
1606140780.303,-38.574,-26.855,-21.484,-142.090,0.000,0
1606140780.307,49.316,-29.785,-26.367,247.559,0.000,0
1606140780.311,49.316,-27.832,-26.367,291.992,0.000,0
1606140780.315,-46.875,-27.832,-27.832,-84.961,0.000,0
1606140780.319,-108.887,-27.832,-32.227,-375.977,0.000,0
1606140780.322,-44.922,-20.508,-19.531,-197.266,0.000,0
1606140780.326,59.082,-12.207,-11.230,221.191,0.000,0
1606140780.330,72.266,-15.137,-18.555,327.148,0.000,0
1606140780.334,-23.926,-25.391,-25.391,-28.320,0.000,0
1606140780.338,-110.352,-33.203,-31.738,-369.629,0.000,0
1606140780.342,-75.684,-20.996,-25.391,-252.930,0.000,0
1606140780.346,27.344,-11.230,-17.090,180.176,0.000,0
1606140780.350,55.664,-16.113,-19.043,344.238,0.000,0
1606140780.354,-27.344,-21.973,-22.461,35.156,0.000,0
1606140780.358,-120.605,-35.645,-26.855,-335.938,0.000,0
1606140780.362,-103.516,-34.180,-26.367,-291.992,0.000,0
1606140780.365,5.371,-25.391,-18.555,126.953,0.000,0
1606140780.369,54.199,-25.879,-16.602,351.074,0.000,0
1606140780.373,-20.996,-30.762,-20.996,94.238,0.000,0
1606140780.377,-109.375,-35.156,-23.438,-284.180,0.000,0
1606140780.381,-106.445,-37.598,-26.855,-312.988,0.000,0
1606140780.385,-11.230,-37.598,-25.879,68.848,0.000,0
1606140780.389,58.594,-31.738,-23.438,353.027,0.000,0
1606140780.393,6.348,-31.250,-27.344,153.809,0.000,0
1606140780.397,-100.098,-39.551,-38.574,-271.973,0.000,0
1606140780.401,-108.887,-39.551,-35.156,-365.234,0.000,0
1606140780.404,-17.090,-26.367,-27.344,-0.488,0.000,0
1606140780.408,49.805,-24.902,-29.785,315.918,0.000,0
1606140780.412,8.789,-38.086,-31.250,172.363,0.000,0
1606140780.416,-96.680,-43.457,-34.668,-252.441,0.000,0
1606140780.420,-124.512,-41.992,-36.133,-388.672,0.000,0
1606140780.424,-38.574,-31.738,-35.645,-56.152,0.000,0
1606140780.428,42.969,-30.762,-28.320,292.969,0.000,0
1606140780.432,13.672,-35.156,-27.344,217.285,0.000,0
1606140780.436,-92.285,-40.039,-31.250,-205.078,0.000,0
1606140780.440,-126.953,-38.574,-29.297,-393.555,0.000,0
1606140780.444,-46.875,-32.715,-24.414,-100.098,0.000,0
1606140780.447,43.945,-33.691,-20.020,281.250,0.000,0
1606140780.451,31.250,-34.668,-23.926,266.602,0.000,0
1606140780.455,-73.242,-32.715,-25.879,-141.113,0.000,0
1606140780.459,-127.441,-32.227,-23.926,-384.277,0.000,0
1606140780.463,-60.547,-31.250,-33.203,-154.785,0.000,0
1606140780.467,48.340,-28.320,-32.715,246.582,0.000,0
1606140780.471,59.570,-25.391,-23.438,305.664,0.000,0
1606140780.475,-47.363,-27.832,-29.297,-79.102,0.000,0
1606140780.479,-121.582,-32.227,-34.180,-383.301,0.000,0
1606140780.483,-66.406,-28.320,-27.344,-207.520,0.000,0
1606140780.487,42.480,-17.090,-20.508,223.633,0.000,0
1606140780.490,59.570,-17.090,-20.996,328.125,0.000,0
1606140780.494,-37.109,-25.391,-26.855,-30.762,0.000,0
1606140780.498,-120.117,-31.250,-30.273,-363.770,0.000,0
1606140780.502,-85.938,-27.832,-25.391,-253.418,0.000,0
1606140780.506,25.879,-19.043,-20.508,176.758,0.000,0
1606140780.510,66.406,-20.508,-15.625,346.680,0.000,0
1606140780.514,-9.277,-25.391,-24.902,29.785,0.000,0
1606140780.518,-97.168,-28.320,-31.738,-339.844,0.000,0
1606140780.522,-77.148,-26.855,-24.414,-290.527,0.000,0
1606140780.526,32.227,-18.555,-20.996,126.465,0.000,0
1606140780.529,79.102,-17.578,-19.043,349.609,0.000,0
1606140780.533,0.488,-27.832,-26.367,90.820,0.000,0
1606140780.537,-98.633,-38.574,-34.668,-311.035,0.000,0
1606140780.541,-92.773,-27.344,-31.250,-335.449,0.000,0
1606140780.545,6.348,-9.277,-25.879,61.035,0.000,0
1606140780.549,67.871,-16.113,-20.508,337.402,0.000,0
1606140780.553,6.348,-22.461,-20.020,139.648,0.000,0
1606140780.557,-96.191,-28.809,-25.879,-279.785,0.000,0
1606140780.561,-113.281,-33.203,-33.203,-371.094,0.000,0
1606140780.565,-16.602,-21.973,-25.879,1.953,0.000,0
1606140780.569,61.035,-19.043,-20.996,319.336,0.000,0
1606140780.572,9.277,-27.344,-25.391,173.828,0.000,0
1606140780.576,-101.074,-35.645,-27.832,-239.746,0.000,0
1606140780.580,-123.047,-35.645,-28.809,-367.188,0.000,0
1606140780.584,-33.691,-19.531,-26.855,-43.945,0.000,0
1606140780.588,45.410,-18.066,-19.531,297.852,0.000,0
1606140780.592,15.137,-28.320,-13.672,218.262,0.000,0
1606140780.596,-95.215,-36.621,-26.855,-202.637,0.000,0
1606140780.600,-134.277,-41.504,-33.691,-392.578,0.000,0
1606140780.604,-51.758,-35.156,-26.367,-104.980,0.000,0
1606140780.608,42.969,-28.320,-20.996,274.902,0.000,0
1606140780.612,36.133,-27.344,-17.090,272.949,0.000,0
1606140780.615,-70.312,-35.156,-26.367,-131.348,0.000,0
1606140780.619,-125.000,-40.527,-35.156,-389.648,0.000,0
1606140780.623,-37.598,-27.832,-36.133,-139.160,0.000,0
1606140780.627,65.918,-20.020,-30.762,273.926,0.000,0
1606140780.631,41.504,-27.832,-19.531,299.316,0.000,0
1606140780.635,-64.941,-39.551,-17.090,-86.914,0.000,0
1606140780.639,-113.281,-41.504,-26.367,-369.629,0.000,0
1606140780.643,-52.734,-29.297,-24.414,-189.941,0.000,0
1606140780.647,56.152,-23.438,-15.137,227.539,0.000,0
1606140780.651,75.684,-21.973,-21.973,334.961,0.000,0
1606140780.654,-20.508,-26.855,-33.691,-14.160,0.000,0
1606140780.658,-103.516,-31.250,-38.086,-359.863,0.000,0
1606140780.662,-64.941,-26.855,-33.691,-255.859,0.000,0
1606140780.666,43.945,-22.461,-28.320,177.734,0.000,0
1606140780.670,74.219,-20.996,-24.902,347.168,0.000,0
1606140780.674,-5.371,-25.879,-31.250,44.434,0.000,0
1606140780.678,-92.285,-34.668,-41.992,-322.266,0.000,0
1606140780.682,-79.590,-33.691,-43.945,-298.340,0.000,0
1606140780.686,18.066,-24.414,-36.133,100.098,0.000,0
1606140780.690,73.242,-17.090,-24.902,332.520,0.000,0
1606140780.694,1.465,-25.879,-25.879,83.984,0.000,0
1606140780.697,-104.980,-40.039,-33.691,-308.594,0.000,0
1606140780.701,-102.051,-39.062,-27.832,-332.031,0.000,0
1606140780.705,2.441,-30.273,-15.137,76.660,0.000,0
1606140780.709,63.965,-29.785,-14.648,356.445,0.000,0
1606140780.713,4.395,-35.156,-14.160,146.484,0.000,0
1606140780.717,-103.027,-38.086,-12.207,-264.160,0.000,0
1606140780.721,-118.164,-39.062,-20.996,-336.914,0.000,0
1606140780.725,-20.508,-32.227,-24.902,31.738,0.000,0
1606140780.729,62.500,-22.949,-19.043,350.098,0.000,0
1606140780.733,22.461,-25.879,-18.555,208.496,0.000,0
1606140780.737,-85.938,-36.621,-28.320,-226.074,0.000,0
1606140780.740,-115.234,-38.574,-31.250,-371.582,0.000,0
1606140780.744,-27.832,-31.738,-23.926,-43.457,0.000,0
1606140780.748,62.012,-28.809,-20.508,307.617,0.000,0
1606140780.752,31.738,-27.832,-20.996,233.887,0.000,0
1606140780.756,-81.543,-34.180,-27.344,-185.547,0.000,0
1606140780.760,-125.977,-39.551,-30.762,-377.930,0.000,0
1606140780.764,-50.293,-37.598,-27.832,-93.262,0.000,0
1606140780.768,47.852,-32.227,-19.531,288.086,0.000,0
1606140780.772,34.180,-27.832,-19.531,265.137,0.000,0
1606140780.776,-80.566,-31.738,-27.832,-157.715,0.000,0
1606140780.779,-134.277,-41.504,-27.832,-403.320,0.000,0
1606140780.783,-64.941,-26.367,-30.273,-169.434,0.000,0
1606140780.787,35.156,-12.695,-32.715,241.211,0.000,0
1606140780.791,36.621,-30.762,-29.785,296.875,0.000,0
1606140780.795,-70.801,-42.969,-31.738,-94.727,0.000,0
1606140780.799,-143.066,-43.457,-32.227,-388.184,0.000,0
1606140780.803,-86.914,-41.504,-28.320,-215.332,0.000,0
1606140780.807,20.020,-38.086,-23.438,194.824,0.000,0
1606140780.811,33.691,-37.109,-20.508,301.758,0.000,0
1606140780.815,-55.176,-36.133,-21.973,-28.320,0.000,0
1606140780.819,-131.836,-43.945,-23.438,-354.980,0.000,0
1606140780.822,-92.773,-38.086,-23.438,-247.559,0.000,0
1606140780.826,25.391,-26.367,-16.113,177.246,0.000,0
1606140780.830,59.082,-34.668,-19.531,333.008,0.000,0
1606140780.834,-29.785,-40.039,-27.832,25.391,0.000,0
1606140780.838,-114.258,-41.504,-28.320,-331.055,0.000,0
1606140780.842,-93.750,-42.480,-28.320,-301.270,0.000,0
