timestamps,TP9,AF7,AF8,TP10,Right AUX
1606132858.742,0.000,0.000,0.000,-0.488,0.000
1606132858.746,-0.488,0.000,0.000,-0.977,0.000
1606132858.750,1.953,-0.977,-1.465,6.348,0.000
1606132858.753,-3.418,1.953,1.953,-9.277,0.000
1606132858.757,6.836,-12.695,-11.719,31.738,0.000
1606132858.761,65.430,-28.320,-34.668,199.219,0.000
1606132858.765,31.250,-23.926,-38.086,149.902,0.000
1606132858.769,-103.516,-33.691,-42.480,-153.320,0.000
1606132858.773,-142.090,-47.852,-34.668,-272.949,0.000
1606132858.777,-39.062,-39.062,-28.809,-59.082,0.000
1606132858.781,57.129,-34.180,-29.297,189.453,0.000
1606132858.785,21.973,-38.086,-29.785,170.410,0.000
1606132858.789,-97.168,-42.969,-35.645,-121.094,0.000
1606132858.792,-144.531,-48.340,-34.180,-283.203,0.000
1606132858.796,-54.688,-36.621,-29.297,-84.961,0.000
1606132858.800,55.176,-27.832,-25.391,193.359,0.000
1606132858.804,56.152,-30.273,-25.879,212.891,0.000
1606132858.808,-62.500,-24.414,-23.926,-52.734,0.000
1606132858.812,-141.113,-34.180,-26.855,-244.141,0.000
1606132858.816,-64.453,-41.016,-31.250,-110.840,0.000
1606132858.820,70.312,-30.762,-24.902,183.594,0.000
1606132858.824,94.238,-22.949,-20.508,243.652,0.000
1606132858.828,-19.043,-23.926,-26.855,-25.391,0.000
1606132858.832,-104.980,-33.691,-29.785,-238.281,0.000
1606132858.835,-53.223,-36.621,-23.926,-129.395,0.000
1606132858.839,73.730,-22.461,-19.043,170.898,0.000
1606132858.843,110.840,-16.602,-20.508,258.789,0.000
1606132858.847,0.000,-24.902,-21.973,23.926,0.000
1606132858.851,-104.980,-31.738,-20.996,-219.238,0.000
1606132858.855,-64.453,-23.438,-16.602,-167.969,0.000
1606132858.859,62.012,34.668,-10.742,135.742,0.000
1606132858.863,100.098,51.270,-14.160,247.070,0.000
1606132858.867,-0.488,-6.348,-16.602,31.738,0.000
1606132858.871,-104.980,-33.203,-20.996,-210.449,0.000
1606132858.875,-85.938,-33.203,-24.902,-205.566,0.000
1606132858.878,32.715,-31.738,-24.902,64.453,0.000
1606132858.882,97.168,-27.832,-18.066,237.793,0.000
1606132858.886,7.812,-32.227,-16.602,63.965,0.000
1606132858.890,-106.934,-39.062,-26.855,-213.867,0.000
1606132858.894,-103.027,-38.574,-31.250,-230.469,0.000
1606132858.898,3.418,-27.832,-20.020,55.176,0.000
1606132858.902,74.219,-28.320,-15.625,241.699,0.000
1606132858.906,14.648,-14.648,-25.879,94.238,0.000
1606132858.910,-109.863,-9.277,-32.715,-196.777,0.000
1606132858.914,-133.789,-41.504,-27.344,-257.812,0.000
1606132858.917,-15.137,-39.551,-20.508,5.859,0.000
1606132858.921,74.219,-33.203,-20.020,221.191,0.000
1606132858.925,20.020,-39.551,-23.438,122.559,0.000
1606132858.929,-107.910,-41.504,-29.785,-182.617,0.000
1606132858.933,-125.488,-38.574,-33.691,-287.598,0.000
1606132858.937,-14.160,-32.715,-31.250,-59.082,0.000
1606132858.941,70.312,-23.926,-23.926,178.223,0.000
1606132858.945,28.320,-25.391,-22.461,128.906,0.000
1606132858.949,-94.238,-29.297,-34.668,-162.598,0.000
1606132858.953,-129.395,-35.645,-34.668,-285.645,0.000
1606132858.957,-29.297,-8.301,-25.391,-72.754,0.000
1606132858.960,65.430,28.809,-30.273,182.129,0.000
1606132858.964,35.645,-14.648,-32.715,146.973,0.000
1606132858.968,-87.891,-45.898,-33.203,-154.297,0.000
1606132858.972,-150.391,-42.969,-35.645,-304.688,0.000
1606132858.976,-70.801,-39.062,-31.250,-116.699,0.000
1606132858.980,57.617,-26.367,-25.391,158.203,0.000
1606132858.984,61.523,-26.367,-30.762,169.922,0.000
1606132858.988,-85.449,-40.039,-34.668,-108.398,0.000
1606132858.992,-172.852,-42.480,-30.273,-284.668,0.000
1606132858.996,-96.191,-36.133,-22.949,-137.695,0.000
1606132859.000,36.621,-27.832,-16.602,142.090,0.000
1606132859.003,50.293,-27.832,-16.113,190.430,0.000
1606132859.007,-65.918,-36.133,-24.414,-70.312,0.000
1606132859.011,-153.809,-42.480,-31.738,-287.598,0.000
1606132859.015,-101.074,-38.574,-26.855,-174.805,0.000
1606132859.019,36.621,-26.367,-22.461,124.023,0.000
1606132859.023,63.477,-24.902,-26.855,215.820,0.000
1606132859.027,-52.246,-32.715,-28.809,-23.926,0.000
1606132859.031,-134.766,-34.668,-28.320,-272.949,0.000
1606132859.035,-96.680,-31.738,-23.926,-209.473,0.000
1606132859.039,15.625,-23.926,-16.602,98.145,0.000
1606132859.042,66.895,-16.113,-20.020,212.402,0.000
1606132859.046,-21.973,-21.973,-26.367,-15.625,0.000
1606132859.050,-132.324,-36.621,-26.855,-270.996,0.000
1606132859.054,-117.676,-39.551,-30.762,-235.352,0.000
1606132859.058,14.160,-20.996,-28.809,62.012,0.000
1606132859.062,61.523,-12.695,-20.020,215.820,0.000
1606132859.066,-22.949,-23.926,-25.391,33.691,0.000
1606132859.070,-128.418,-30.273,-31.738,-256.348,0.000
1606132859.074,-115.723,-33.203,-28.320,-265.137,0.000
1606132859.078,10.742,-31.250,-14.648,40.039,0.000
1606132859.082,83.984,-28.320,-15.625,218.750,0.000
1606132859.085,10.742,-38.086,-21.484,64.941,0.000
1606132859.089,-113.770,-46.875,-22.949,-221.191,0.000
1606132859.093,-123.535,-43.457,-24.414,-263.672,0.000
1606132859.097,-6.348,-32.715,-24.902,-16.602,0.000
1606132859.101,55.176,-28.320,-30.762,180.664,0.000
1606132859.105,1.953,-26.855,-34.180,84.473,0.000
1606132859.109,-96.680,-15.625,-35.156,-205.078,0.000
1606132859.113,-130.371,-22.949,-34.180,-300.781,0.000
1606132859.117,-22.949,-25.391,-27.832,-52.246,0.000
1606132859.121,79.590,-18.555,-23.438,195.801,0.000
1606132859.125,30.762,-22.461,-20.996,132.324,0.000
1606132859.128,-99.609,-32.227,-27.344,-173.340,0.000
1606132859.132,-125.977,-30.762,-30.762,-306.641,0.000
1606132859.136,-34.180,-26.367,-17.578,-82.031,0.000
1606132859.140,70.312,-18.555,-10.742,189.453,0.000
1606132859.144,66.895,-18.066,-16.113,163.574,0.000
1606132859.148,-61.523,-35.645,-20.020,-128.418,0.000
1606132859.152,-137.695,-43.945,-20.996,-285.156,0.000
1606132859.156,-54.199,-24.414,-16.113,-103.027,0.000
1606132859.160,74.219,0.488,-8.789,174.805,0.000
1606132859.164,59.570,-13.184,-10.254,186.523,0.000
1606132859.167,-65.430,-31.738,-17.578,-86.914,0.000
1606132859.171,-136.230,-38.086,-21.484,-281.250,0.000
1606132859.175,-69.824,-34.180,-18.555,-136.719,0.000
1606132859.179,52.246,-20.508,-12.695,142.090,0.000
1606132859.183,69.336,-15.625,-12.207,202.148,0.000
1606132859.187,-33.203,-20.996,-19.531,-34.180,0.000
1606132859.191,-118.164,-31.250,-24.414,-260.254,0.000
1606132859.195,-68.848,-27.344,-21.484,-159.180,0.000
1606132859.199,54.688,-10.742,-15.625,137.695,0.000
1606132859.203,77.148,-16.113,-17.090,220.703,0.000
1606132859.207,-33.203,-26.367,-20.996,-12.207,0.000
1606132859.210,-129.883,-36.621,-24.902,-242.188,0.000
1606132859.214,-100.586,-34.668,-25.391,-179.688,0.000
1606132859.218,29.785,-16.602,-19.043,104.492,0.000
1606132859.222,77.148,-18.555,-19.531,215.820,0.000
1606132859.226,-27.832,-30.762,-25.879,11.230,0.000
1606132859.230,-136.719,-40.527,-28.320,-250.000,0.000
1606132859.234,-123.535,-47.363,-30.273,-230.957,0.000
1606132859.238,3.418,-2.930,-24.902,56.641,0.000
1606132859.242,63.965,12.695,-22.949,198.242,0.000
1606132859.246,-29.297,-31.250,-27.832,15.625,0.000
1606132859.250,-148.926,-40.527,-34.668,-256.836,0.000
1606132859.253,-146.973,-44.434,-34.180,-280.273,0.000
1606132859.257,-20.996,-38.574,-24.902,2.930,0.000
1606132859.261,53.711,-29.785,-20.508,190.430,0.000
1606132859.265,-11.719,-32.715,-25.391,43.945,0.000
1606132859.269,-128.906,-44.922,-34.180,-248.047,0.000
1606132859.273,-144.531,-46.387,-37.598,-295.898,0.000
1606132859.277,-27.832,-26.855,-28.809,-19.531,0.000
1606132859.281,66.406,-17.090,-23.926,211.914,0.000
1606132859.285,20.996,-27.344,-22.949,117.188,0.000
1606132859.289,-102.051,-35.645,-29.785,-176.758,0.000
1606132859.292,-131.348,-40.527,-34.668,-272.461,0.000
1606132859.296,-23.438,-35.156,-26.367,-36.621,0.000
1606132859.300,71.289,-27.344,-23.926,198.730,0.000
1606132859.304,35.156,-27.832,-30.762,135.742,0.000
1606132859.308,-83.496,-40.527,-30.762,-150.879,0.000
1606132859.312,-120.605,-43.457,-31.738,-272.949,0.000
1606132859.316,-25.391,-34.668,-31.250,-66.895,0.000
1606132859.320,78.125,-34.180,-23.438,195.312,0.000
1606132859.324,59.082,-35.156,-20.508,178.223,0.000
1606132859.328,-63.477,-37.109,-24.902,-103.516,0.000
1606132859.332,-122.070,-41.992,-29.297,-257.324,0.000
1606132859.335,-43.945,-31.250,-22.461,-86.914,0.000
1606132859.339,74.219,-5.371,-20.996,190.918,0.000
1606132859.343,68.848,-17.090,-21.484,208.984,0.000
1606132859.347,-59.570,-40.527,-29.297,-81.543,0.000
1606132859.351,-131.348,-39.551,-36.621,-273.926,0.000
1606132859.355,-67.383,-35.645,-29.297,-133.789,0.000
1606132859.359,47.363,-28.809,-15.625,152.344,0.000
1606132859.363,59.570,-22.461,-10.254,212.402,0.000
1606132859.367,-63.477,-30.762,-14.648,-49.805,0.000
1606132859.371,-151.367,-34.180,-15.625,-273.438,0.000
1606132859.375,-104.004,-28.809,-19.531,-172.852,0.000
1606132859.378,22.461,-21.973,-21.484,116.211,0.000
1606132859.382,54.199,-19.043,-22.949,198.242,0.000
1606132859.386,-44.434,-25.391,-25.391,-31.250,0.000
1606132859.390,-130.859,-33.691,-27.344,-263.672,0.000
1606132859.394,-102.051,-33.203,-29.297,-207.031,0.000
1606132859.398,22.949,-24.902,-27.344,82.520,0.000
1606132859.402,71.777,-23.926,-28.320,208.496,0.000
1606132859.406,-26.855,-26.855,-26.367,6.836,0.000
1606132859.410,-139.160,-34.180,-29.785,-251.465,0.000
1606132859.414,-118.164,-34.180,-31.738,-231.934,0.000
1606132859.417,9.277,-19.043,-24.414,58.594,0.000
1606132859.421,64.453,-15.137,-24.414,212.891,0.000
1606132859.425,-19.531,-28.809,-38.086,28.320,0.000
1606132859.429,-131.348,-37.109,-41.504,-251.465,0.000
1606132859.433,-134.277,-37.598,-32.715,-264.648,0.000
1606132859.437,-14.648,-20.996,-28.809,12.207,0.000
1606132859.441,62.988,-9.766,-32.227,196.289,0.000
1606132859.445,-5.859,-31.738,-36.133,53.223,0.000
1606132859.449,-120.605,-38.086,-38.574,-234.863,0.000
1606132859.453,-131.836,-33.691,-36.621,-283.203,0.000
1606132859.457,-17.578,-27.344,-28.320,-16.113,0.000
1606132859.460,62.988,-23.438,-26.367,201.660,0.000
1606132859.464,20.508,-25.879,-25.879,108.887,0.000
1606132859.468,-91.309,-35.645,-30.273,-181.641,0.000
1606132859.472,-145.996,-45.898,-34.180,-279.297,0.000
1606132859.476,-40.039,-27.344,-22.461,-35.645,0.000
1606132859.480,65.430,-13.184,-20.996,207.031,0.000
1606132859.484,24.902,-31.738,-24.902,144.043,0.000
1606132859.488,-96.191,-40.527,-32.715,-146.973,0.000
1606132859.492,-133.301,-43.945,-40.039,-270.020,0.000
1606132859.496,-35.156,-35.645,-30.273,-52.734,0.000
1606132859.500,69.824,-25.391,-15.137,215.332,0.000
1606132859.503,58.105,-32.227,-18.066,189.453,0.000
1606132859.507,-66.406,-39.062,-23.926,-96.680,0.000
1606132859.511,-130.371,-37.598,-22.949,-246.582,0.000
1606132859.515,-41.016,-28.320,-22.461,-65.918,0.000
1606132859.519,70.312,-10.742,-17.578,197.266,0.000
1606132859.523,57.129,-21.484,-21.973,188.477,0.000
1606132859.527,-63.965,-46.387,-35.156,-100.586,0.000
1606132859.531,-133.301,-41.504,-31.738,-278.320,0.000
1606132859.535,-71.289,-31.250,-23.438,-142.090,0.000
1606132859.539,48.828,-24.414,-21.973,134.766,0.000
1606132859.542,66.895,-29.297,-24.414,185.547,0.000
1606132859.546,-54.688,-37.598,-27.832,-64.941,0.000
1606132859.550,-121.094,-38.086,-31.250,-271.973,0.000
1606132859.554,-63.477,-35.156,-26.367,-173.340,0.000
1606132859.558,31.250,-30.762,-19.043,116.699,0.000
1606132859.562,60.059,-31.250,-24.902,202.637,0.000
1606132859.566,-48.828,-39.551,-37.109,-31.738,0.000
1606132859.570,-151.367,-46.387,-45.898,-273.438,0.000
1606132859.574,-113.281,-47.363,-38.574,-223.633,0.000
1606132859.578,24.414,-25.879,-22.461,78.613,0.000
1606132859.582,72.266,-16.602,-21.973,201.660,0.000
1606132859.585,-29.297,-33.691,-28.320,-12.207,0.000
1606132859.589,-140.137,-41.504,-35.645,-265.625,0.000
1606132859.593,-122.070,-32.715,-41.016,-253.418,0.000
1606132859.597,2.930,-26.367,-40.039,33.691,0.000
1606132859.601,66.406,-27.832,-36.621,200.684,0.000
1606132859.605,-15.137,-29.785,-35.156,29.297,0.000
1606132859.609,-118.652,-33.691,-38.086,-237.793,0.000
1606132859.613,-107.910,-38.086,-39.062,-254.883,0.000
1606132859.617,-10.742,-37.109,-32.227,17.578,0.000
1606132859.621,57.129,-32.715,-24.902,210.449,0.000
1606132859.625,-6.348,-28.320,-25.391,79.102,0.000
1606132859.628,-127.930,-36.621,-28.809,-209.961,0.000
1606132859.632,-140.625,-40.039,-30.273,-273.438,0.000
1606132859.636,-19.043,-31.250,-20.508,-5.859,0.000
1606132859.640,73.730,-20.020,-13.672,216.797,0.000
1606132859.644,16.113,-23.438,-18.555,112.793,0.000
1606132859.648,-93.750,-37.109,-28.320,-179.199,0.000
1606132859.652,-121.582,-31.738,-23.438,-261.719,0.000
1606132859.656,-35.156,-24.414,-14.160,-21.484,0.000
1606132859.660,72.754,-21.484,-16.602,211.426,0.000
1606132859.664,42.480,-16.602,-22.461,159.668,0.000
1606132859.667,-80.078,-23.926,-24.414,-125.977,0.000
1606132859.671,-126.465,-27.344,-29.297,-256.836,0.000
1606132859.675,-19.531,-19.043,-31.250,-64.453,0.000
1606132859.679,87.402,-10.254,-18.555,200.195,0.000
1606132859.683,55.176,-13.184,-15.625,187.012,0.000
1606132859.687,-68.848,-29.297,-26.367,-112.793,0.000
1606132859.691,-136.719,-38.574,-25.879,-269.043,0.000
1606132859.695,-59.570,-34.668,-18.555,-101.562,0.000
1606132859.699,56.641,-26.855,-10.742,162.598,0.000
1606132859.703,62.012,-17.090,-9.766,189.941,0.000
1606132859.707,-58.594,-25.879,-24.902,-87.891,0.000
1606132859.710,-133.301,-36.621,-34.668,-285.156,0.000
1606132859.714,-68.359,-29.785,-26.367,-148.926,0.000
1606132859.718,48.340,-24.414,-12.207,138.184,0.000
1606132859.722,63.477,-29.297,-9.766,201.172,0.000
1606132859.726,-55.176,-37.598,-24.414,-62.500,0.000
1606132859.730,-140.625,-40.039,-27.344,-288.086,0.000
1606132859.734,-80.566,-33.691,-25.879,-192.383,0.000
1606132859.738,25.391,-23.926,-29.785,100.586,0.000
1606132859.742,48.340,-26.367,-30.762,195.312,0.000
1606132859.746,-49.316,-34.668,-36.621,-29.297,0.000
1606132859.750,-156.250,-36.133,-40.527,-260.254,0.000
1606132859.753,-121.094,-36.621,-33.203,-204.102,0.000
1606132859.757,13.184,-33.691,-25.879,90.332,0.000
1606132859.761,60.547,-31.250,-32.715,210.938,0.000
1606132859.765,-34.180,-33.691,-37.598,3.906,0.000
1606132859.769,-142.090,-36.133,-41.992,-251.953,0.000
1606132859.773,-124.023,-34.180,-40.527,-239.258,0.000
1606132859.777,-0.488,-34.180,-37.598,39.062,0.000
1606132859.781,61.035,-28.320,-33.691,200.195,0.000
1606132859.785,-21.484,-31.738,-38.574,33.203,0.000
1606132859.789,-142.090,-38.086,-48.828,-239.746,0.000
1606132859.792,-121.582,-30.762,-43.945,-252.930,0.000
1606132859.796,3.418,-23.438,-34.668,32.227,0.000
1606132859.800,61.523,-21.484,-21.973,227.539,0.000
1606132859.804,9.277,-29.297,-24.902,81.055,0.000
1606132859.808,-112.305,-38.086,-39.062,-209.961,0.000
1606132859.812,-132.324,-39.062,-36.621,-265.137,0.000
1606132859.816,-15.625,-31.738,-31.250,-14.160,0.000
1606132859.820,64.453,-23.438,-37.109,198.242,0.000
1606132859.824,20.508,-21.973,-37.109,108.398,0.000
1606132859.828,-92.285,-25.879,-36.133,-171.875,0.000
1606132859.832,-127.441,-30.762,-33.691,-268.066,0.000
1606132859.835,-23.438,-24.902,-24.414,-35.156,0.000
1606132859.839,87.402,-12.207,-14.648,209.961,0.000
1606132859.843,61.523,-15.625,-16.113,151.367,0.000
1606132859.847,-77.148,-23.926,-31.738,-141.602,0.000
1606132859.851,-113.770,-29.297,-25.391,-269.043,0.000
1606132859.855,-20.020,-28.809,-15.625,-65.430,0.000
1606132859.859,72.266,-12.207,-18.066,194.336,0.000
1606132859.863,63.965,-9.766,-16.602,180.176,0.000
1606132859.867,-60.547,-27.344,-25.391,-115.234,0.000
1606132859.871,-128.906,-33.691,-35.645,-284.180,0.000
1606132859.875,-54.199,-25.879,-35.645,-114.258,0.000
1606132859.878,63.965,-19.531,-24.902,166.504,0.000
1606132859.882,63.477,-21.484,-19.043,191.406,0.000
1606132859.886,-62.012,-30.273,-26.367,-89.844,0.000
1606132859.890,-141.113,-32.715,-26.367,-272.461,0.000
1606132859.894,-77.637,-33.691,-25.391,-140.625,0.000
1606132859.898,44.922,-21.484,-24.902,143.066,0.000
1606132859.902,51.758,-20.996,-25.879,201.172,0.000
1606132859.906,-52.734,-37.598,-33.691,-55.664,0.000
1606132859.910,-149.902,-45.898,-34.668,-274.414,0.000
1606132859.914,-113.770,-46.387,-30.762,-192.871,0.000
1606132859.917,18.555,-30.273,-29.297,99.121,0.000
1606132859.921,55.176,-25.391,-25.879,207.031,0.000
1606132859.925,-42.480,-35.156,-33.691,-22.461,0.000
1606132859.929,-138.672,-40.527,-45.898,-268.555,0.000
1606132859.933,-111.328,-41.504,-39.062,-210.449,0.000
1606132859.937,18.066,-31.738,-27.344,85.938,0.000
1606132859.941,68.359,-26.855,-23.926,210.938,0.000
1606132859.945,-29.297,-35.645,-26.367,5.859,0.000
1606132859.949,-135.254,-45.898,-33.691,-263.672,0.000
1606132859.953,-123.047,-42.969,-42.969,-252.441,0.000
1606132859.957,7.812,-32.227,-35.156,42.969,0.000
1606132859.960,83.496,-29.297,-27.832,210.938,0.000
1606132859.964,-11.719,-30.762,-35.645,47.363,0.000
1606132859.968,-127.930,-35.645,-39.551,-225.098,0.000
1606132859.972,-120.117,-37.109,-40.527,-247.070,0.000
1606132859.976,-8.301,-37.109,-38.574,26.855,0.000
1606132859.980,71.777,-29.297,-30.762,219.727,0.000
1606132859.984,10.254,-22.949,-33.691,84.473,0.000
1606132859.988,-104.004,-28.320,-39.551,-196.289,0.000
1606132859.992,-120.605,-31.250,-37.109,-241.699,0.000
1606132859.996,-23.438,-24.414,-32.227,0.000,0.000
1606132860.000,67.383,-10.742,-29.785,216.309,0.000
1606132860.003,20.020,-21.973,-35.156,126.953,0.000
1606132860.007,-101.074,-40.527,-37.109,-167.969,0.000
1606132860.011,-127.930,-37.109,-27.832,-262.207,0.000
1606132860.015,-18.555,-27.832,-26.855,-36.621,0.000
1606132860.019,71.777,-25.879,-30.273,201.660,0.000
1606132860.023,16.602,-30.273,-30.762,133.301,0.000
1606132860.027,-95.703,-36.621,-38.086,-158.203,0.000
1606132860.031,-125.000,-40.527,-35.645,-259.277,0.000
1606132860.035,-30.273,-34.668,-28.320,-60.059,0.000
1606132860.039,85.449,-11.230,-21.973,203.125,0.000
1606132860.042,66.895,-15.625,-21.973,189.941,0.000
1606132860.046,-45.410,-32.227,-28.320,-95.703,0.000
1606132860.050,-106.934,-31.738,-31.738,-259.277,0.000
1606132860.054,-52.734,-24.414,-26.367,-104.492,0.000
1606132860.058,67.383,-16.113,-19.531,170.898,0.000
1606132860.062,59.082,-15.137,-19.531,208.008,0.000
1606132860.066,-66.895,-25.879,-22.461,-69.824,0.000
1606132860.070,-140.625,-33.203,-24.902,-275.879,0.000
1606132860.074,-79.590,-30.273,-23.438,-142.578,0.000
1606132860.078,41.504,-23.438,-24.414,144.043,0.000
1606132860.082,63.477,-19.043,-31.250,196.777,0.000
1606132860.085,-52.246,-34.180,-35.156,-66.406,0.000
1606132860.089,-139.160,-42.969,-35.156,-282.227,0.000
1606132860.093,-68.359,-33.691,-32.715,-188.965,0.000
1606132860.097,47.363,-9.277,-27.344,108.887,0.000
1606132860.101,55.176,-3.418,-32.227,199.707,0.000
1606132860.105,-40.527,-26.367,-43.457,-35.645,0.000
1606132860.109,-132.324,-31.738,-40.039,-266.602,0.000
1606132860.113,-108.398,-32.715,-31.738,-217.285,0.000
1606132860.117,22.949,-26.855,-23.926,84.473,0.000
1606132860.121,76.172,-24.902,-17.578,218.262,0.000
1606132860.125,-21.484,-32.715,-21.484,6.348,0.000
1606132860.128,-128.906,-41.504,-30.273,-255.371,0.000
1606132860.132,-119.141,-44.434,-29.785,-244.141,0.000
1606132860.136,5.859,-16.113,-22.461,44.922,0.000
1606132860.140,76.172,-4.395,-19.531,227.539,0.000
1606132860.144,7.324,-31.738,-25.391,59.570,0.000
1606132860.148,-113.281,-39.062,-29.785,-229.492,0.000
1606132860.152,-145.996,-43.457,-30.762,-258.301,0.000
1606132860.156,-14.648,-36.621,-29.785,21.484,0.000
1606132860.160,63.965,-28.320,-30.762,210.938,0.000
1606132860.164,-6.348,-34.180,-34.668,78.613,0.000
1606132860.167,-119.141,-46.387,-39.062,-205.078,0.000
1606132860.171,-133.301,-51.270,-41.504,-265.625,0.000
1606132860.175,-15.137,-39.062,-33.691,3.418,0.000
1606132860.179,78.125,-17.578,-22.949,227.051,0.000
1606132860.183,24.902,-20.020,-27.832,125.977,0.000
1606132860.187,-103.027,-41.992,-33.691,-170.410,0.000
1606132860.191,-138.672,-43.945,-32.227,-271.484,0.000
1606132860.195,-33.203,-35.156,-21.973,-36.133,0.000
1606132860.199,81.543,-24.414,-16.113,216.309,0.000
1606132860.203,51.758,-19.531,-20.508,164.551,0.000
1606132860.207,-95.215,-23.926,-21.484,-128.906,0.000
1606132860.210,-139.648,-37.598,-29.785,-272.949,0.000
1606132860.214,-43.945,-36.133,-28.320,-68.848,0.000
1606132860.218,65.430,-10.254,-18.555,212.891,0.000
1606132860.222,52.734,-16.602,-22.949,188.965,0.000
1606132860.226,-67.871,-36.621,-23.926,-104.004,0.000
1606132860.230,-125.977,-37.109,-24.902,-268.066,0.000
1606132860.234,-55.664,-30.273,-25.391,-107.910,0.000
1606132860.238,77.637,-20.996,-25.391,168.457,0.000
1606132860.242,73.242,-23.438,-24.902,194.824,0.000
1606132860.246,-67.871,-28.809,-28.809,-79.590,0.000
1606132860.250,-129.883,-28.809,-41.504,-275.879,0.000
1606132860.253,-69.336,-26.855,-40.527,-158.691,0.000
1606132860.257,53.223,-20.020,-32.715,135.742,0.000
1606132860.261,72.754,-14.648,-29.785,209.473,0.000
1606132860.265,-46.387,-21.484,-30.273,-58.594,0.000
1606132860.269,-131.836,-30.762,-36.133,-290.527,0.000
1606132860.273,-84.961,-41.016,-36.133,-200.195,0.000
1606132860.277,38.086,-10.742,-27.344,104.004,0.000
1606132860.281,83.008,25.879,-20.996,208.984,0.000
1606132860.285,-30.273,-13.672,-25.879,-32.715,0.000
1606132860.289,-153.320,-41.016,-33.691,-279.785,0.000
1606132860.292,-110.840,-41.504,-27.344,-224.121,0.000
1606132860.296,20.996,-36.133,-19.043,83.496,0.000
1606132860.300,68.359,-27.344,-20.996,226.074,0.000
1606132860.304,-23.438,-33.691,-26.367,10.742,0.000
1606132860.308,-134.766,-36.133,-29.785,-253.906,0.000
1606132860.312,-121.582,-36.621,-27.832,-235.840,0.000
1606132860.316,2.930,-17.090,-21.484,41.992,0.000
1606132860.320,68.848,-7.324,-22.949,209.961,0.000
1606132860.324,-12.207,-35.645,-21.484,48.828,0.000
1606132860.328,-119.141,-45.410,-19.043,-230.469,0.000
1606132860.332,-119.141,-43.945,-24.414,-257.812,0.000
1606132860.335,-11.719,-29.785,-25.391,21.484,0.000
1606132860.339,66.406,-27.832,-27.344,212.402,0.000
1606132860.343,4.883,-37.598,-34.668,93.262,0.000
1606132860.347,-108.887,-39.551,-36.133,-187.012,0.000
1606132860.351,-125.977,-42.969,-39.062,-277.832,0.000
1606132860.355,-12.695,-27.832,-36.621,-27.344,0.000
1606132860.359,88.379,17.090,-26.367,217.773,0.000
1606132860.363,38.086,-6.348,-27.344,130.371,0.000
1606132860.367,-93.750,-41.504,-31.738,-173.828,0.000
1606132860.371,-123.535,-42.969,-26.855,-286.621,0.000
1606132860.375,-14.648,-35.645,-21.973,-42.480,0.000
1606132860.378,93.262,-15.625,-20.020,219.727,0.000
1606132860.382,54.688,-32.227,-24.902,162.598,0.000
1606132860.386,-68.848,-45.898,-31.250,-131.836,0.000
1606132860.390,-114.746,-35.645,-30.762,-265.625,0.000
1606132860.394,-41.992,-28.320,-22.949,-66.895,0.000
1606132860.398,69.824,-20.508,-12.695,192.383,0.000
1606132860.402,57.617,-20.508,-5.371,187.988,0.000
1606132860.406,-77.148,-35.156,-20.020,-100.586,0.000
1606132860.410,-147.461,-43.457,-33.691,-284.668,0.000
1606132860.414,-66.895,-40.039,-29.297,-120.117,0.000
1606132860.417,61.035,-11.230,-23.438,164.551,0.000
1606132860.421,62.012,-4.395,-23.926,185.059,0.000
1606132860.425,-74.219,-35.645,-40.039,-94.238,0.000
1606132860.429,-145.996,-45.410,-44.922,-287.109,0.000
1606132860.433,-80.078,-36.621,-36.621,-158.691,0.000
1606132860.437,46.387,-17.578,-31.738,143.555,0.000
1606132860.441,74.707,-21.484,-28.320,213.867,0.000
1606132860.445,-58.105,-38.086,-27.344,-52.246,0.000
1606132860.449,-154.297,-40.527,-27.832,-288.086,0.000
1606132860.453,-97.168,-41.504,-24.414,-198.242,0.000
1606132860.457,27.832,-16.113,-22.461,103.516,0.000
1606132860.460,64.941,7.812,-23.926,205.078,0.000
1606132860.464,-38.574,-23.438,-35.156,-31.250,0.000
1606132860.468,-140.625,-42.480,-43.945,-280.273,0.000
1606132860.472,-110.840,-40.527,-37.109,-232.910,0.000
1606132860.476,19.043,-35.156,-29.297,64.453,0.000
1606132860.480,76.660,-27.832,-26.855,203.125,0.000
1606132860.484,-8.789,-27.344,-28.320,10.742,0.000
1606132860.488,-123.047,-34.180,-37.109,-247.070,0.000
1606132860.492,-97.168,-41.992,-35.645,-242.188,0.000
1606132860.496,30.762,-13.672,-24.902,59.082,0.000
1606132860.500,74.219,7.324,-22.949,237.305,0.000
1606132860.503,-0.977,-28.320,-30.762,62.500,0.000
1606132860.507,-124.023,-45.898,-39.551,-219.238,0.000
1606132860.511,-127.930,-52.246,-41.992,-254.395,0.000
1606132860.515,-3.418,-32.715,-33.203,22.949,0.000
1606132860.519,74.219,-13.672,-23.438,229.492,0.000
1606132860.523,1.953,-38.574,-26.855,91.797,0.000
1606132860.527,-131.348,-49.805,-36.621,-210.938,0.000
1606132860.531,-145.508,-45.410,-39.062,-270.996,0.000
1606132860.535,-27.344,-36.621,-29.297,-10.254,0.000
1606132860.539,69.824,-26.367,-16.602,215.820,0.000
1606132860.542,39.551,-22.949,-16.602,130.859,0.000
1606132860.546,-100.098,-29.297,-25.391,-165.039,0.000
1606132860.550,-143.066,-41.504,-23.438,-266.113,0.000
1606132860.554,-30.762,-44.922,-17.578,-38.574,0.000
1606132860.558,79.590,-7.812,-23.926,211.426,0.000
1606132860.562,54.688,-0.488,-32.715,160.156,0.000
1606132860.566,-76.660,-38.086,-35.156,-144.043,0.000
1606132860.570,-126.465,-39.062,-32.227,-280.762,0.000
1606132860.574,-34.180,-32.227,-26.367,-83.496,0.000
1606132860.578,82.520,-24.414,-15.625,188.477,0.000
1606132860.582,66.406,-28.320,-15.137,183.594,0.000
1606132860.585,-73.730,-41.992,-22.949,-110.840,0.000
1606132860.589,-128.906,-42.480,-26.367,-281.738,0.000
1606132860.593,-33.203,-36.133,-25.879,-117.676,0.000
1606132860.597,55.176,-17.578,-28.320,158.691,0.000
1606132860.601,53.711,-15.137,-32.715,192.383,0.000
1606132860.605,-56.152,-38.086,-38.574,-75.684,0.000
1606132860.609,-146.484,-41.504,-37.109,-276.855,0.000
1606132860.613,-82.031,-35.156,-31.250,-148.438,0.000
1606132860.617,42.969,-23.926,-30.762,138.672,0.000
1606132860.621,60.059,-23.438,-37.109,197.266,0.000
1606132860.625,-41.992,-35.156,-46.387,-50.781,0.000
1606132860.628,-130.859,-46.387,-37.109,-274.414,0.000
1606132860.632,-95.703,-50.293,-32.227,-199.219,0.000
1606132860.636,29.297,-18.066,-36.133,100.586,0.000
1606132860.640,81.055,-1.953,-28.320,224.609,0.000
1606132860.644,-23.926,-27.832,-33.203,-7.324,0.000
1606132860.648,-156.250,-37.109,-43.457,-270.508,0.000
1606132860.652,-126.465,-47.363,-45.898,-226.074,0.000
1606132860.656,12.207,-29.785,-36.133,64.453,0.000
1606132860.660,68.848,-4.395,-30.273,191.895,0.000
1606132860.664,-22.949,-27.832,-38.086,-7.812,0.000
1606132860.667,-139.160,-46.387,-42.969,-273.438,0.000
1606132860.671,-122.070,-38.574,-38.086,-256.836,0.000
1606132860.675,9.277,-27.832,-32.715,36.133,0.000
1606132860.679,70.312,-30.273,-27.832,205.078,0.000
1606132860.683,-4.883,-34.668,-32.715,45.410,0.000
1606132860.687,-125.000,-38.086,-39.551,-222.656,0.000
1606132860.691,-124.512,-43.945,-35.156,-259.766,0.000
1606132860.695,-4.395,-30.762,-28.320,7.812,0.000
1606132860.699,56.152,-5.859,-23.926,223.145,0.000
1606132860.703,4.395,-18.066,-25.391,106.934,0.000
1606132860.707,-117.676,-42.969,-35.645,-190.918,0.000
1606132860.710,-144.531,-51.758,-37.109,-265.625,0.000
1606132860.714,-24.414,-44.922,-29.785,-9.277,0.000
1606132860.718,72.266,-32.227,-24.902,222.656,0.000
1606132860.722,34.180,-35.645,-26.367,142.578,0.000
1606132860.726,-87.891,-45.898,-30.273,-150.391,0.000
1606132860.730,-130.371,-41.504,-33.203,-254.395,0.000
1606132860.734,-29.785,-41.016,-26.367,-25.391,0.000
1606132860.738,92.285,-7.812,-18.555,221.680,0.000
1606132860.742,55.176,6.348,-22.949,173.828,0.000
1606132860.746,-89.844,-38.574,-31.738,-123.047,0.000
1606132860.750,-133.789,-46.387,-35.645,-265.137,0.000
1606132860.753,-41.992,-38.086,-28.320,-72.266,0.000
1606132860.757,68.359,-24.902,-16.602,194.336,0.000
1606132860.761,51.270,-20.508,-21.484,175.781,0.000
1606132860.765,-62.500,-28.809,-31.738,-119.629,0.000
1606132860.769,-128.418,-34.668,-32.227,-288.574,0.000
1606132860.773,-72.266,-45.410,-32.715,-140.625,0.000
1606132860.777,41.992,-32.715,-23.926,140.137,0.000
1606132860.781,58.594,-17.578,-20.508,185.547,0.000
1606132860.785,-57.129,-31.738,-32.227,-95.703,0.000
1606132860.789,-136.719,-38.574,-37.598,-299.316,0.000
1606132860.792,-69.336,-32.227,-23.926,-166.504,0.000
1606132860.796,73.730,-13.672,-21.973,125.488,0.000
1606132860.800,86.426,-14.160,-32.227,200.195,0.000
1606132860.804,-32.715,-31.250,-37.598,-46.387,0.000
1606132860.808,-120.117,-37.109,-38.574,-280.273,0.000
1606132860.812,-79.590,-30.273,-31.250,-186.035,0.000
1606132860.816,44.922,-16.602,-21.484,123.047,0.000
1606132860.820,82.031,-18.066,-18.066,233.887,0.000
1606132860.824,-18.066,-29.297,-29.785,8.789,0.000
1606132860.828,-126.953,-37.598,-40.527,-250.488,0.000
1606132860.832,-104.492,-31.738,-39.062,-213.867,0.000
1606132860.835,17.578,-23.926,-28.809,72.266,0.000
1606132860.839,70.312,-13.672,-23.926,208.496,0.000
1606132860.843,-17.090,-18.066,-23.926,21.973,0.000
1606132860.847,-134.277,-29.297,-34.668,-246.094,0.000
1606132860.851,-115.234,-32.715,-38.574,-246.094,0.000
1606132860.855,4.883,-31.738,-28.809,40.039,0.000
1606132860.859,60.547,-23.926,-23.926,211.914,0.000
1606132860.863,-1.465,-24.902,-20.996,59.082,0.000
1606132860.867,-126.465,-31.738,-28.320,-216.309,0.000
1606132860.871,-145.508,-34.668,-35.645,-259.766,0.000
1606132860.875,-26.367,-23.438,-29.297,16.113,0.000
1606132860.878,57.617,-10.254,-23.926,222.656,0.000
1606132860.882,-2.930,-21.973,-23.926,102.051,0.000
1606132860.886,-122.070,-35.645,-26.367,-182.129,0.000
1606132860.890,-137.207,-30.273,-28.320,-262.695,0.000
1606132860.894,-20.020,-26.367,-23.926,-18.555,0.000
1606132860.898,82.520,-24.902,-23.926,213.867,0.000
1606132860.902,44.922,-23.438,-25.879,133.789,0.000
1606132860.906,-84.961,-29.297,-30.273,-167.480,0.000
1606132860.910,-112.793,-34.180,-36.133,-276.367,0.000
1606132860.914,-9.766,-30.762,-33.691,-61.035,0.000
1606132860.917,75.684,-19.531,-29.785,185.059,0.000
1606132860.921,43.457,-17.578,-29.785,151.367,0.000
1606132860.925,-87.402,-31.738,-30.273,-143.555,0.000
1606132860.929,-146.484,-44.434,-39.062,-288.574,0.000
1606132860.933,-66.895,-41.504,-37.598,-101.562,0.000
1606132860.937,53.711,-22.461,-20.508,170.898,0.000
1606132860.941,50.293,-20.020,-19.531,175.781,0.000
1606132860.945,-73.242,-36.621,-30.762,-117.188,0.000
1606132860.949,-141.113,-38.574,-34.180,-301.758,0.000
1606132860.953,-73.730,-32.227,-30.762,-143.555,0.000
1606132860.957,50.293,-22.949,-20.996,143.555,0.000
1606132860.960,75.684,-31.738,-22.949,174.316,0.000
1606132860.964,-55.176,-39.062,-34.180,-91.309,0.000
1606132860.968,-155.273,-32.227,-38.086,-283.203,0.000
1606132860.972,-99.609,-33.691,-35.156,-168.945,0.000
1606132860.976,25.879,-19.043,-31.738,114.258,0.000
1606132860.980,61.035,-12.207,-32.227,187.012,0.000
1606132860.984,-53.223,-31.738,-33.203,-55.664,0.000
1606132860.988,-149.414,-37.598,-41.016,-282.227,0.000
1606132860.992,-100.586,-35.156,-33.691,-201.660,0.000
1606132860.996,24.414,-32.715,-20.996,88.867,0.000
1606132861.000,61.523,-26.367,-22.949,200.195,0.000
1606132861.003,-39.551,-32.227,-28.320,-9.766,0.000
1606132861.007,-140.137,-42.969,-30.273,-260.254,0.000
1606132861.011,-109.375,-38.574,-28.809,-211.914,0.000
1606132861.015,13.672,-18.066,-26.855,89.355,0.000
1606132861.019,63.477,-8.789,-30.273,228.516,0.000
1606132861.023,-25.391,-25.879,-36.133,25.879,0.000
1606132861.027,-132.324,-44.434,-37.109,-251.465,0.000
1606132861.031,-120.605,-42.969,-36.133,-247.070,0.000
1606132861.035,0.000,-38.086,-35.156,35.645,0.000
1606132861.039,66.895,-33.203,-30.762,217.773,0.000
1606132861.042,-5.859,-27.344,-29.785,66.406,0.000
1606132861.046,-122.070,-34.180,-29.785,-219.727,0.000
1606132861.050,-112.793,-42.480,-31.738,-247.559,0.000
1606132861.054,8.789,-30.762,-34.668,26.855,0.000
1606132861.058,85.449,-15.625,-33.691,226.074,0.000
1606132861.062,23.926,-16.602,-31.738,100.586,0.000
1606132861.066,-109.863,-25.391,-32.715,-202.148,0.000
1606132861.070,-131.836,-32.715,-34.668,-277.832,0.000
1606132861.074,-24.414,-28.320,-32.227,-31.250,0.000
1606132861.078,67.871,5.371,-24.902,202.637,0.000
1606132861.082,31.250,7.812,-23.926,137.695,0.000
1606132861.085,-94.238,-29.785,-28.320,-154.297,0.000
1606132861.089,-129.883,-36.621,-33.203,-270.996,0.000
1606132861.093,-37.109,-28.809,-27.832,-59.082,0.000
1606132861.097,67.871,-26.855,-19.043,186.523,0.000
1606132861.101,41.016,-31.738,-30.762,141.602,0.000
1606132861.105,-77.148,-35.156,-42.969,-154.785,0.000
1606132861.109,-122.070,-31.738,-42.480,-282.227,0.000
1606132861.113,-50.293,-37.598,-31.250,-78.125,0.000
1606132861.117,63.477,-12.207,-22.949,181.152,0.000
1606132861.121,67.383,21.484,-27.832,179.688,0.000
1606132861.125,-54.688,-13.184,-28.809,-99.609,0.000
1606132861.128,-126.465,-33.691,-25.391,-281.738,0.000
1606132861.132,-58.105,-32.227,-29.785,-135.742,0.000
1606132861.136,56.641,-25.391,-25.391,147.949,0.000
1606132861.140,69.824,-19.531,-25.391,193.359,0.000
1606132861.144,-50.781,-36.621,-37.598,-71.289,0.000
1606132861.148,-137.695,-44.922,-40.039,-285.645,0.000
1606132861.152,-83.984,-41.992,-37.109,-177.246,0.000
1606132861.156,47.852,-17.090,-33.203,125.977,0.000
1606132861.160,62.988,-10.742,-34.668,190.918,0.000
1606132861.164,-59.082,-37.598,-44.434,-63.965,0.000
1606132861.167,-143.066,-39.062,-41.992,-281.738,0.000
1606132861.171,-101.562,-35.645,-36.621,-217.773,0.000
1606132861.175,22.461,-31.250,-38.086,77.148,0.000
1606132861.179,59.570,-22.949,-30.762,203.125,0.000
1606132861.183,-38.086,-31.738,-29.785,-9.277,0.000
1606132861.187,-145.020,-45.410,-35.645,-256.836,0.000
1606132861.191,-107.910,-44.434,-36.133,-223.145,0.000
1606132861.195,26.855,-34.180,-29.785,78.613,0.000
1606132861.199,65.430,-25.391,-27.344,241.699,0.000
1606132861.203,-21.973,-34.180,-38.574,49.316,0.000
1606132861.207,-137.207,-44.922,-41.016,-229.492,0.000
1606132861.210,-135.742,-41.016,-39.551,-243.164,0.000
1606132861.214,-15.137,-34.668,-35.156,41.992,0.000
1606132861.218,62.500,0.977,-25.879,229.492,0.000
1606132861.222,-1.953,9.277,-25.879,85.449,0.000
1606132861.226,-127.930,-34.180,-30.762,-204.590,0.000
1606132861.230,-144.531,-47.363,-34.180,-257.812,0.000
1606132861.234,-28.320,-37.109,-30.762,16.113,0.000
1606132861.238,62.500,-29.297,-23.438,220.703,0.000
1606132861.242,8.789,-37.598,-23.926,100.586,0.000
1606132861.246,-98.633,-47.852,-27.832,-184.570,0.000
1606132861.250,-117.676,-43.945,-27.344,-255.371,0.000
1606132861.253,-29.785,-32.227,-22.461,-17.090,0.000
1606132861.257,75.684,-13.184,-13.672,216.309,0.000
1606132861.261,41.504,-14.160,-15.137,148.438,0.000
1606132861.265,-93.262,-36.621,-25.879,-149.414,0.000
1606132861.269,-125.977,-39.062,-30.273,-266.113,0.000
1606132861.273,-27.832,-34.180,-25.391,-54.199,0.000
1606132861.277,76.660,-22.461,-16.113,194.336,0.000
1606132861.281,67.871,-23.926,-17.578,164.551,0.000
1606132861.285,-57.617,-39.551,-27.344,-123.535,0.000
1606132861.289,-117.676,-40.527,-34.668,-281.250,0.000
1606132861.292,-25.391,-34.668,-25.391,-93.262,0.000
1606132861.296,92.773,-28.809,-20.508,188.477,0.000
1606132861.300,84.961,-22.949,-27.344,194.336,0.000
1606132861.304,-47.852,-36.133,-32.227,-97.656,0.000
1606132861.308,-125.488,-38.574,-36.621,-283.203,0.000
1606132861.312,-50.781,-31.738,-31.738,-134.766,0.000
1606132861.316,70.312,-24.902,-18.555,146.484,0.000
1606132861.320,71.777,-19.531,-18.555,189.941,0.000
1606132861.324,-44.434,-27.344,-32.715,-81.543,0.000
1606132861.328,-138.672,-35.645,-42.969,-298.828,0.000
1606132861.332,-110.840,-39.062,-35.156,-189.941,0.000
1606132861.335,18.066,-28.320,-23.438,107.422,0.000
1606132861.339,51.270,-23.438,-28.320,199.219,0.000
1606132861.343,-52.246,-32.227,-34.668,-36.133,0.000
1606132861.347,-145.508,-37.598,-35.645,-268.066,0.000
1606132861.351,-114.258,-42.480,-36.621,-198.730,0.000
1606132861.355,20.508,-36.133,-28.320,115.723,0.000
1606132861.359,83.984,-18.555,-23.926,248.047,0.000
1606132861.363,-10.254,-13.672,-32.715,24.902,0.000
1606132861.367,-126.953,-26.367,-41.016,-244.629,0.000
1606132861.371,-110.840,-25.879,-43.945,-225.098,0.000
1606132861.375,13.184,-8.301,-41.016,70.801,0.000
1606132861.378,67.871,-2.930,-41.016,230.469,0.000
1606132861.382,-10.254,-17.090,-50.781,50.781,0.000
1606132861.386,-122.070,-25.391,-55.664,-224.609,0.000
1606132861.390,-103.027,-19.043,-42.969,-239.258,0.000
1606132861.394,9.766,-19.043,-35.156,38.086,0.000
1606132861.398,71.777,13.672,-38.086,211.914,0.000
1606132861.402,12.207,21.484,-46.387,61.035,0.000
1606132861.406,-103.516,-23.926,-49.805,-221.680,0.000
1606132861.410,-109.863,-30.762,-39.062,-262.207,0.000
1606132861.414,13.672,-21.484,-32.227,5.371,0.000
1606132861.417,95.703,-21.484,-31.250,208.496,0.000
1606132861.421,37.598,-24.902,-30.762,98.145,0.000
1606132861.425,-77.148,-29.297,-28.809,-183.594,0.000
1606132861.429,-105.469,-32.715,-29.785,-263.184,0.000
1606132861.433,-8.301,-24.902,-33.691,-29.297,0.000
1606132861.437,87.402,-8.789,-28.320,206.055,0.000
1606132861.441,51.758,-13.672,-33.691,125.488,0.000
1606132861.445,-71.289,-29.785,-37.109,-171.875,0.000
1606132861.449,-116.211,-33.691,-30.762,-283.203,0.000
1606132861.453,-23.926,-25.879,-28.320,-72.266,0.000
1606132861.457,76.172,-16.602,-25.879,182.129,0.000
1606132861.460,53.223,-17.578,-27.344,158.203,0.000
1606132861.464,-58.105,-31.250,-27.344,-118.652,0.000
1606132861.468,-131.348,-28.320,-28.809,-265.137,0.000
1606132861.472,-55.176,-21.973,-35.156,-100.098,0.000
1606132861.476,67.871,-16.113,-33.691,162.109,0.000
1606132861.480,61.523,-8.789,-25.391,179.199,0.000
1606132861.484,-62.988,-19.043,-31.250,-87.402,0.000
1606132861.488,-144.531,-33.691,-44.922,-265.625,0.000
1606132861.492,-80.078,-42.480,-41.504,-129.395,0.000
1606132861.496,41.992,-31.250,-34.668,151.855,0.000
1606132861.500,53.711,15.625,-30.762,205.566,0.000
1606132861.503,-61.523,-1.465,-34.180,-57.129,0.000
1606132861.507,-143.555,-46.387,-42.969,-269.531,0.000
1606132861.511,-89.844,-45.898,-45.410,-175.781,0.000
1606132861.515,36.133,-28.320,-39.062,108.887,0.000
1606132861.519,81.543,-16.602,-32.227,205.566,0.000
1606132861.523,-14.648,-29.785,-36.621,-20.996,0.000
1606132861.527,-122.559,-33.203,-40.527,-246.094,0.000
1606132861.531,-83.496,-27.832,-29.785,-178.223,0.000
1606132861.535,44.922,-21.484,-27.832,99.121,0.000
1606132861.539,94.727,0.977,-21.973,216.797,0.000
1606132861.542,-4.883,-13.184,-19.531,15.137,0.000
1606132861.546,-108.887,-39.062,-29.297,-228.516,0.000
1606132861.550,-83.984,-38.574,-28.809,-195.312,0.000
1606132861.554,31.738,-30.762,-26.855,82.031,0.000
1606132861.558,88.867,-19.043,-20.508,229.980,0.000
1606132861.562,4.883,-25.391,-25.391,50.293,0.000
1606132861.566,-112.305,-34.180,-32.227,-218.750,0.000
1606132861.570,-110.840,-35.645,-27.344,-233.398,0.000
1606132861.574,0.488,-40.527,-24.414,40.527,0.000
1606132861.578,78.125,-7.324,-22.461,233.887,0.000
1606132861.582,27.344,12.207,-27.832,91.309,0.000
1606132861.585,-107.910,-31.738,-34.180,-195.801,0.000
1606132861.589,-129.395,-43.945,-32.227,-243.652,0.000
1606132861.593,-0.488,-30.762,-21.484,15.625,0.000
1606132861.597,87.891,-25.391,-17.090,216.309,0.000
1606132861.601,25.879,-33.691,-24.902,107.422,0.000
1606132861.605,-100.586,-44.434,-32.227,-173.828,0.000
1606132861.609,-120.117,-42.969,-33.203,-251.465,0.000
1606132861.613,-7.324,-26.855,-23.438,-16.113,0.000
1606132861.617,86.914,-18.066,-19.043,209.473,0.000
1606132861.621,42.969,-28.320,-28.320,147.461,0.000
1606132861.625,-83.496,-36.133,-36.621,-133.301,0.000
1606132861.628,-126.465,-40.039,-30.273,-265.137,0.000
1606132861.632,-33.203,-40.039,-20.020,-68.359,0.000
1606132861.636,83.496,0.488,-17.578,191.895,0.000
1606132861.640,68.848,14.160,-19.531,167.969,0.000
1606132861.644,-62.988,-35.156,-29.785,-119.141,0.000
1606132861.648,-124.023,-44.922,-37.598,-275.391,0.000
1606132861.652,-48.340,-28.320,-35.156,-109.863,0.000
1606132861.656,60.059,-17.578,-25.391,154.297,0.000
1606132861.660,66.895,-27.832,-25.879,163.086,0.000
1606132861.664,-58.105,-42.480,-33.691,-106.445,0.000
1606132861.667,-145.020,-41.016,-34.180,-274.414,0.000
1606132861.671,-63.965,-32.227,-27.832,-125.977,0.000
1606132861.675,49.316,-28.320,-33.203,148.926,0.000
1606132861.679,63.477,4.395,-37.598,193.848,0.000
1606132861.683,-41.992,0.977,-30.762,-64.453,0.000
1606132861.687,-128.906,-39.551,-29.785,-270.508,0.000
1606132861.691,-82.520,-40.527,-31.250,-166.504,0.000
1606132861.695,42.480,-17.090,-21.973,129.395,0.000
1606132861.699,80.078,-8.301,-18.066,217.773,0.000
1606132861.703,-28.809,-23.438,-26.855,-19.531,0.000
1606132861.707,-114.258,-33.203,-33.203,-237.793,0.000
1606132861.710,-78.613,-38.574,-28.320,-185.547,0.000
1606132861.714,4.883,-31.250,-17.578,84.961,0.000
1606132861.718,52.246,5.371,-15.137,215.332,0.000
1606132861.722,-31.250,-12.207,-22.461,12.695,0.000
1606132861.726,-145.996,-52.246,-24.902,-244.141,0.000
1606132861.730,-123.535,-47.852,-24.902,-223.145,0.000
1606132861.734,5.371,-34.668,-17.090,59.082,0.000
1606132861.738,72.754,-28.320,-13.184,216.309,0.000
1606132861.742,-8.301,-38.086,-20.996,49.316,0.000
1606132861.746,-121.582,-43.945,-23.438,-217.773,0.000
1606132861.750,-113.770,-37.109,-23.926,-231.445,0.000
1606132861.753,2.930,-29.785,-19.043,45.898,0.000
1606132861.757,70.801,-26.367,-13.184,229.980,0.000
1606132861.761,20.508,-29.785,-20.020,88.867,0.000
1606132861.765,-111.816,-39.062,-33.691,-193.848,0.000
1606132861.769,-144.531,-42.969,-39.062,-253.418,0.000
1606132861.773,-23.926,-43.945,-34.668,-11.719,0.000
1606132861.777,65.918,-15.625,-30.762,204.590,0.000
1606132861.781,31.250,7.812,-29.297,110.840,0.000
1606132861.785,-93.750,-27.344,-31.738,-184.082,0.000
1606132861.789,-133.789,-41.016,-36.133,-272.461,0.000
1606132861.792,-28.320,-30.762,-32.715,-46.387,0.000
1606132861.796,73.730,-25.391,-20.996,184.570,0.000
1606132861.800,41.992,-33.691,-16.113,127.930,0.000
1606132861.804,-89.355,-46.387,-32.227,-162.598,0.000
1606132861.808,-132.812,-41.504,-37.598,-279.297,0.000
1606132861.812,-29.785,-29.297,-20.996,-65.430,0.000
1606132861.816,70.801,-24.902,-18.066,180.176,0.000
1606132861.820,46.387,-25.391,-22.949,151.855,0.000
1606132861.824,-74.707,-37.109,-29.785,-126.953,0.000
1606132861.828,-131.348,-42.969,-34.180,-273.926,0.000
1606132861.832,-50.781,-39.062,-28.320,-104.492,0.000
1606132861.835,58.594,-30.273,-24.902,154.785,0.000
1606132861.839,75.684,-27.832,-22.461,170.410,0.000
1606132861.843,-52.246,-38.574,-21.484,-94.238,0.000
1606132861.847,-141.113,-45.410,-27.832,-271.973,0.000
1606132861.851,-69.336,-39.551,-30.273,-135.742,0.000
1606132861.855,51.758,-22.461,-25.391,147.949,0.000
1606132861.859,70.801,-19.043,-10.254,215.332,0.000
1606132861.863,-48.828,-32.227,-15.137,-38.574,0.000
1606132861.867,-135.254,-49.316,-34.668,-257.324,0.000
1606132861.871,-81.055,-46.875,-38.086,-161.621,0.000
1606132861.875,48.340,-24.902,-28.809,130.859,0.000
1606132861.878,80.566,-15.137,-19.531,223.145,0.000
1606132861.882,-26.367,-27.344,-25.879,-13.672,0.000
1606132861.886,-123.535,-40.039,-29.297,-249.512,0.000
1606132861.890,-86.914,-37.598,-29.785,-189.453,0.000
1606132861.894,44.922,-22.949,-30.273,100.098,0.000
1606132861.898,85.449,-14.648,-29.297,215.332,0.000
1606132861.902,0.000,-23.438,-31.250,7.324,0.000
1606132861.906,-114.258,-28.809,-31.250,-237.305,0.000
1606132861.910,-117.188,-30.762,-29.297,-221.191,0.000
1606132861.914,11.230,-28.320,-23.438,53.711,0.000
1606132861.917,62.988,-23.926,-27.832,201.660,0.000
1606132861.921,-18.555,-29.297,-32.227,39.062,0.000
1606132861.925,-125.977,-32.715,-30.762,-214.355,0.000
1606132861.929,-121.582,-26.367,-31.738,-234.863,0.000
1606132861.933,1.953,-19.531,-26.855,23.926,0.000
1606132861.937,75.684,-17.090,-20.508,204.590,0.000
1606132861.941,13.184,-21.973,-23.438,73.242,0.000
1606132861.945,-107.910,-30.273,-32.227,-206.543,0.000
1606132861.949,-132.812,-31.738,-40.039,-266.602,0.000
1606132861.953,-20.020,-28.809,-30.762,-11.719,0.000
1606132861.957,67.383,-11.230,-24.414,197.266,0.000
1606132861.960,26.855,-8.301,-35.156,95.215,0.000
1606132861.964,-100.098,-37.598,-39.062,-183.105,0.000
1606132861.968,-147.461,-41.504,-35.156,-270.020,0.000
1606132861.972,-31.250,-30.762,-32.227,-46.387,0.000
1606132861.976,76.660,-24.902,-24.902,193.848,0.000
1606132861.980,48.340,-24.414,-21.973,141.113,0.000
1606132861.984,-81.543,-35.645,-29.297,-138.184,0.000
1606132861.988,-132.812,-32.227,-35.645,-256.836,0.000
1606132861.992,-44.922,-26.367,-32.227,-70.801,0.000
1606132861.996,58.105,-20.020,-19.531,177.734,0.000
1606132862.000,38.086,-12.207,-8.301,163.574,0.000
1606132862.003,-87.891,-28.320,-8.789,-126.465,0.000
1606132862.007,-144.531,-35.645,-17.090,-287.109,0.000
1606132862.011,-63.477,-34.180,-25.879,-122.559,0.000
1606132862.015,60.059,-27.344,-25.391,148.438,0.000
1606132862.019,62.500,-27.832,-27.832,165.039,0.000
1606132862.023,-64.453,-36.621,-33.203,-102.051,0.000
1606132862.027,-133.301,-41.504,-30.273,-271.973,0.000
1606132862.031,-62.500,-42.480,-27.344,-140.625,0.000
1606132862.035,37.598,-33.691,-20.508,137.207,0.000
1606132862.039,48.340,-30.762,-16.602,198.730,0.000
1606132862.042,-65.430,-32.715,-23.926,-49.805,0.000
1606132862.046,-150.391,-35.645,-26.367,-252.441,0.000
1606132862.050,-95.215,-35.156,-20.020,-151.367,0.000
1606132862.054,20.508,-38.574,-20.508,120.605,0.000
1606132862.058,51.758,-21.973,-25.879,196.289,0.000
1606132862.062,-46.875,-9.766,-32.227,-25.391,0.000
1606132862.066,-141.113,-38.574,-33.691,-249.023,0.000
1606132862.070,-106.934,-39.551,-24.902,-193.848,0.000
1606132862.074,13.672,-24.414,-21.484,84.473,0.000
1606132862.078,60.547,-29.785,-17.578,213.379,0.000
1606132862.082,-27.832,-37.598,-17.578,24.902,0.000
1606132862.085,-136.719,-41.992,-25.879,-229.980,0.000
1606132862.089,-128.906,-39.062,-30.762,-219.727,0.000
1606132862.093,4.395,-32.227,-29.785,63.477,0.000
1606132862.097,82.520,-10.742,-21.973,217.285,0.000
1606132862.101,-12.695,-10.254,-27.344,43.457,0.000
1606132862.105,-135.254,-36.621,-42.480,-227.051,0.000
1606132862.109,-127.930,-39.551,-39.062,-250.977,0.000
1606132862.113,-6.348,-37.598,-31.250,15.137,0.000
1606132862.117,69.336,-30.762,-26.855,208.008,0.000
1606132862.121,5.371,-27.832,-30.273,73.242,0.000
1606132862.125,-109.375,-34.180,-39.551,-218.750,0.000
1606132862.128,-123.047,-36.621,-34.180,-276.367,0.000
1606132862.132,-13.184,-33.203,-24.902,-34.180,0.000
1606132862.136,69.824,-18.066,-27.832,172.363,0.000
1606132862.140,30.273,-10.254,-34.180,95.703,0.000
1606132862.144,-83.008,-30.762,-36.621,-183.594,0.000
1606132862.148,-119.629,-41.016,-35.645,-284.180,0.000
1606132862.152,-12.695,-38.574,-34.180,-58.105,0.000
1606132862.156,93.750,-23.926,-28.809,189.941,0.000
1606132862.160,41.504,-19.531,-24.902,140.137,0.000
1606132862.164,-89.355,-31.250,-35.156,-147.949,0.000
1606132862.167,-129.883,-34.180,-40.039,-267.578,0.000
1606132862.171,-39.551,-33.691,-34.180,-73.730,0.000
1606132862.175,68.359,-24.414,-23.926,188.965,0.000
1606132862.179,46.875,-20.508,-17.578,163.574,0.000
1606132862.183,-76.172,-35.156,-23.438,-120.117,0.000
1606132862.187,-127.930,-37.109,-29.297,-259.766,0.000
1606132862.191,-54.688,-33.203,-22.461,-107.910,0.000
1606132862.195,60.059,-26.367,-16.113,155.273,0.000
1606132862.199,63.477,-23.926,-15.137,186.523,0.000
1606132862.203,-56.152,-35.156,-20.508,-77.637,0.000
1606132862.207,-130.371,-37.598,-28.320,-266.602,0.000
1606132862.210,-62.012,-33.691,-26.367,-146.484,0.000
1606132862.214,62.500,-29.297,-20.508,122.559,0.000
1606132862.218,62.988,-24.902,-22.949,173.828,0.000
1606132862.222,-62.988,-27.344,-28.320,-78.613,0.000
1606132862.226,-143.555,-30.762,-28.320,-281.250,0.000
1606132862.230,-93.750,-25.391,-22.949,-183.594,0.000
1606132862.234,36.133,-23.438,-17.090,110.840,0.000
1606132862.238,73.730,-7.812,-12.695,207.031,0.000
1606132862.242,-35.156,-14.160,-17.578,-30.762,0.000
1606132862.246,-130.859,-45.410,-31.250,-262.207,0.000
1606132862.250,-85.449,-38.086,-34.668,-199.707,0.000
1606132862.253,38.086,-21.484,-25.391,73.242,0.000
1606132862.257,79.590,-16.602,-29.785,191.895,0.000
1606132862.261,-10.742,-27.344,-38.086,0.977,0.000
1606132862.265,-102.539,-38.086,-35.156,-246.582,0.000
1606132862.269,-94.238,-34.180,-35.156,-232.422,0.000
1606132862.273,0.000,-28.809,-35.156,45.410,0.000
1606132862.277,71.289,-22.461,-28.320,213.379,0.000
1606132862.281,-3.418,-24.902,-29.785,53.223,0.000
1606132862.285,-124.512,-34.668,-36.621,-218.262,0.000
1606132862.289,-117.676,-34.668,-40.039,-247.559,0.000
1606132862.292,7.812,-28.320,-29.785,21.973,0.000
1606132862.296,74.707,-16.113,-13.184,220.703,0.000
1606132862.300,7.324,-15.625,-22.461,89.355,0.000
1606132862.304,-109.863,-33.691,-34.668,-193.359,0.000
1606132862.308,-123.047,-38.574,-29.297,-250.488,0.000
1606132862.312,-9.277,-30.273,-19.531,-1.465,0.000
1606132862.316,71.289,-24.414,-23.438,209.473,0.000
1606132862.320,34.180,-28.320,-30.762,118.164,0.000
1606132862.324,-87.891,-36.133,-38.574,-161.133,0.000
1606132862.328,-142.578,-34.180,-43.945,-249.512,0.000
1606132862.332,-41.504,-30.273,-34.668,-31.738,0.000
1606132862.335,62.988,-29.297,-31.738,194.336,0.000
1606132862.339,47.363,-20.996,-30.273,150.879,0.000
1606132862.343,-68.848,-26.855,-29.297,-124.023,0.000
1606132862.347,-128.906,-40.039,-32.715,-259.277,0.000
1606132862.351,-44.434,-33.691,-31.250,-71.289,0.000
1606132862.355,60.059,-24.414,-28.809,173.828,0.000
1606132862.359,47.363,-25.879,-22.949,156.738,0.000
1606132862.363,-66.895,-36.133,-20.508,-116.211,0.000
1606132862.367,-117.676,-30.273,-22.461,-271.484,0.000
1606132862.371,-45.410,-21.484,-25.879,-114.746,0.000
1606132862.375,63.965,-23.926,-28.809,150.879,0.000
1606132862.378,80.566,-20.508,-29.785,178.711,0.000
1606132862.382,-61.035,-27.832,-35.645,-83.984,0.000
1606132862.386,-146.484,-38.086,-39.062,-270.020,0.000
1606132862.390,-72.266,-27.344,-30.273,-136.719,0.000
1606132862.394,41.504,-18.555,-21.973,146.484,0.000
1606132862.398,56.641,-20.020,-22.949,210.938,0.000
1606132862.402,-49.805,-26.367,-28.809,-27.832,0.000
1606132862.406,-138.184,-33.691,-28.809,-240.234,0.000
1606132862.410,-98.633,-39.062,-25.391,-161.621,0.000
1606132862.414,20.508,-31.250,-21.484,114.746,0.000
1606132862.417,63.477,-20.020,-16.113,211.426,0.000
1606132862.421,-30.273,-26.367,-20.020,-2.930,0.000
1606132862.425,-147.949,-37.109,-32.227,-249.512,0.000
1606132862.429,-104.004,-33.691,-34.180,-211.426,0.000
1606132862.433,24.902,-23.438,-25.879,74.219,0.000
1606132862.437,57.617,-14.648,-21.484,205.566,0.000
1606132862.441,-33.203,-18.555,-25.391,16.113,0.000
1606132862.445,-143.555,-29.785,-33.691,-242.676,0.000
1606132862.449,-130.859,-29.785,-33.691,-235.352,0.000
1606132862.453,-10.254,-23.438,-32.227,43.945,0.000
1606132862.457,56.641,-19.531,-29.297,202.148,0.000
1606132862.460,-6.836,-26.855,-29.297,42.480,0.000
1606132862.464,-119.629,-30.273,-35.645,-223.633,0.000
1606132862.468,-125.000,-32.227,-34.180,-245.117,0.000
1606132862.472,-20.020,-29.297,-31.738,14.160,0.000
1606132862.476,59.570,-14.648,-23.438,194.336,0.000
1606132862.480,14.648,-17.090,-30.762,77.637,0.000
1606132862.484,-106.934,-35.645,-45.410,-199.707,0.000
1606132862.488,-134.277,-29.297,-44.434,-274.902,0.000
1606132862.492,-20.020,-20.508,-34.180,-36.621,0.000
1606132862.496,76.660,-18.555,-21.484,191.406,0.000
1606132862.500,30.273,-22.949,-27.344,115.723,0.000
1606132862.503,-102.051,-31.250,-35.645,-171.387,0.000
1606132862.507,-125.000,-30.273,-34.180,-275.879,0.000
1606132862.511,-31.250,-28.809,-31.250,-61.035,0.000
1606132862.515,52.734,-24.902,-30.273,188.477,0.000
1606132862.519,35.645,-19.531,-27.832,156.738,0.000
1606132862.523,-90.332,-33.203,-25.391,-132.324,0.000
1606132862.527,-144.043,-40.527,-24.902,-269.531,0.000
1606132862.531,-49.316,-28.809,-19.043,-73.730,0.000
1606132862.535,62.012,-25.879,-12.207,182.617,0.000
1606132862.539,52.734,-29.297,-20.020,172.852,0.000
1606132862.542,-73.242,-35.645,-28.809,-100.586,0.000
1606132862.546,-144.043,-41.016,-32.715,-265.625,0.000
1606132862.550,-67.383,-36.133,-35.156,-115.723,0.000
1606132862.554,54.688,-18.066,-23.438,162.598,0.000
1606132862.558,62.500,-23.438,-19.531,203.125,0.000
1606132862.562,-54.688,-36.133,-29.297,-63.965,0.000
1606132862.566,-124.023,-34.668,-33.203,-262.695,0.000
1606132862.570,-67.383,-27.832,-28.809,-137.695,0.000
1606132862.574,40.039,-17.090,-26.855,143.555,0.000
1606132862.578,77.148,-8.301,-22.461,218.262,0.000
1606132862.582,-28.809,-17.578,-20.020,-21.484,0.000
1606132862.585,-125.977,-31.738,-30.762,-247.070,0.000
1606132862.589,-74.219,-27.832,-30.273,-173.340,0.000
1606132862.593,36.621,-18.066,-21.973,110.352,0.000
1606132862.597,67.871,-14.160,-19.531,218.262,0.000
1606132862.601,-22.949,-17.090,-24.902,4.883,0.000
1606132862.605,-117.188,-24.414,-30.762,-230.469,0.000
1606132862.609,-87.402,-22.461,-33.691,-187.500,0.000
1606132862.613,34.180,-14.648,-33.203,79.590,0.000
1606132862.617,85.938,-5.371,-31.738,204.102,0.000
1606132862.621,0.000,5.859,-27.832,22.949,0.000
1606132862.625,-109.863,-16.602,-37.598,-232.422,0.000
1606132862.628,-109.863,-30.273,-41.504,-232.422,0.000
1606132862.632,1.465,-26.855,-26.855,41.016,0.000
1606132862.636,69.336,-30.273,-19.043,205.566,0.000
1606132862.640,1.465,-32.227,-29.297,53.711,0.000
1606132862.644,-115.234,-28.809,-40.527,-217.773,0.000
1606132862.648,-123.047,-33.203,-38.574,-251.953,0.000
1606132862.652,12.207,-29.785,-38.574,19.043,0.000
1606132862.656,96.680,-14.648,-29.297,217.773,0.000
1606132862.660,8.301,-17.090,-31.738,95.703,0.000
1606132862.664,-110.352,-34.668,-45.410,-189.941,0.000
1606132862.667,-123.047,-30.762,-34.668,-259.277,0.000
1606132862.671,-18.555,-27.832,-19.531,-12.207,0.000
1606132862.675,66.406,-25.879,-26.855,197.266,0.000
1606132862.679,20.020,-27.344,-29.785,107.422,0.000
1606132862.683,-100.586,-39.062,-28.320,-171.875,0.000
1606132862.687,-137.695,-38.086,-31.250,-273.438,0.000
1606132862.691,-39.062,-32.715,-25.391,-58.105,0.000
1606132862.695,63.965,-20.508,-20.508,188.965,0.000
1606132862.699,43.457,-20.508,-29.785,144.531,0.000
1606132862.703,-95.215,-35.645,-35.645,-139.160,0.000
1606132862.707,-153.809,-40.039,-29.785,-273.926,0.000
1606132862.710,-54.199,-30.273,-17.090,-89.355,0.000
1606132862.714,53.223,-21.484,-16.602,164.062,0.000
1606132862.718,41.016,-21.484,-25.391,154.297,0.000
1606132862.722,-68.848,-22.461,-34.668,-118.164,0.000
1606132862.726,-122.070,-27.344,-36.621,-272.949,0.000
1606132862.730,-56.152,-30.762,-18.066,-112.793,0.000
1606132862.734,41.016,-32.227,-0.977,145.996,0.000
1606132862.738,34.668,-29.297,-12.207,173.828,0.000
1606132862.742,-69.336,-34.668,-22.461,-80.078,0.000
1606132862.746,-151.855,-44.922,-19.043,-274.414,0.000
1606132862.750,-115.234,-40.039,-12.695,-154.785,0.000
1606132862.753,13.672,-32.227,-1.953,138.184,0.000
1606132862.757,36.621,-37.598,-1.953,209.961,0.000
1606132862.761,-77.637,-43.945,-14.160,-40.039,0.000
1606132862.765,-166.504,-46.387,-19.043,-260.254,0.000
1606132862.769,-117.676,-46.387,-12.207,-178.223,0.000
1606132862.773,3.906,-37.598,-5.859,100.098,0.000
1606132862.777,40.527,-34.180,-3.906,207.031,0.000
1606132862.781,-51.758,-39.062,-9.766,2.441,0.000
1606132862.785,-153.809,-50.781,-22.949,-239.746,0.000
1606132862.789,-118.652,-52.734,-25.879,-207.520,0.000
1606132862.792,4.883,-34.668,-20.508,73.730,0.000
1606132862.796,62.012,-23.438,-19.043,222.656,0.000
1606132862.800,-6.836,-32.715,-21.484,39.062,0.000
1606132862.804,-135.742,-40.527,-23.438,-232.422,0.000
1606132862.808,-123.047,-36.621,-17.090,-235.840,0.000
1606132862.812,9.277,-22.949,-8.301,41.504,0.000
1606132862.816,79.102,-14.160,-7.812,216.309,0.000
1606132862.820,11.230,-21.973,-16.602,54.688,0.000
1606132862.824,-104.980,-38.574,-25.879,-224.121,0.000
1606132862.828,-111.328,-38.086,-26.855,-254.883,0.000
1606132862.832,9.277,-18.066,-19.531,5.859,0.000
1606132862.835,91.309,-11.230,-8.301,207.031,0.000
1606132862.839,22.461,-16.113,-18.066,96.680,0.000
1606132862.843,-99.121,-26.367,-36.133,-187.012,0.000
1606132862.847,-114.746,-35.156,-38.086,-265.625,0.000
1606132862.851,-18.066,-28.320,-28.320,-24.414,0.000
1606132862.855,70.312,-22.949,-19.531,204.590,0.000
1606132862.859,30.273,-33.691,-19.043,129.883,0.000
1606132862.863,-87.891,-41.016,-26.367,-154.297,0.000
1606132862.867,-128.906,-44.434,-27.832,-262.207,0.000
1606132862.871,-41.016,-41.992,-20.996,-54.688,0.000
1606132862.875,54.199,-30.273,-14.648,189.941,0.000
1606132862.878,31.250,-27.832,-12.207,152.344,0.000
1606132862.882,-95.703,-33.691,-20.996,-134.277,0.000
1606132862.886,-150.879,-28.809,-20.508,-270.508,0.000
1606132862.890,-67.383,-29.297,-22.949,-88.379,0.000
1606132862.894,36.133,-29.785,-27.832,159.180,0.000
1606132862.898,22.461,-31.250,-25.391,149.414,0.000
1606132862.902,-81.055,-38.086,-29.297,-123.535,0.000
1606132862.906,-134.766,-31.738,-28.320,-288.574,0.000
1606132862.910,-81.055,-23.926,-20.020,-133.789,0.000
1606132862.914,39.062,-22.461,-11.719,145.508,0.000
1606132862.917,51.758,-22.461,-16.113,180.176,0.000
1606132862.921,-62.988,-23.438,-20.508,-75.684,0.000
1606132862.925,-140.137,-31.250,-25.879,-276.367,0.000
1606132862.929,-81.543,-25.879,-28.809,-169.922,0.000
1606132862.933,45.410,-14.648,-22.949,121.094,0.000
1606132862.937,71.289,-20.020,-23.438,194.336,0.000
1606132862.941,-44.434,-27.832,-29.297,-47.363,0.000
1606132862.945,-136.230,-29.785,-36.133,-261.719,0.000
1606132862.949,-87.402,-35.156,-32.715,-186.035,0.000
1606132862.953,28.809,-35.156,-22.461,90.332,0.000
1606132862.957,83.984,-16.602,-23.926,200.195,0.000
1606132862.960,-6.836,-17.578,-21.484,7.324,0.000
1606132862.964,-132.324,-37.598,-24.902,-225.098,0.000
1606132862.968,-106.445,-37.598,-36.133,-201.660,0.000
1606132862.972,22.949,-31.738,-25.879,77.637,0.000
1606132862.976,71.777,-27.344,-21.484,215.820,0.000
1606132862.980,-18.555,-33.691,-31.250,33.203,0.000
1606132862.984,-125.000,-39.062,-37.109,-217.285,0.000
1606132862.988,-119.629,-39.062,-35.645,-217.285,0.000
1606132862.992,-4.883,-35.645,-31.738,48.828,0.000
1606132862.996,59.570,-20.508,-32.227,207.031,0.000
1606132863.000,-5.859,-7.324,-29.297,68.359,0.000
1606132863.003,-117.676,-19.043,-29.297,-194.824,0.000
1606132863.007,-130.371,-28.320,-37.109,-249.023,0.000
1606132863.011,6.348,-19.531,-32.715,5.371,0.000
1606132863.015,84.473,-18.066,-22.949,199.219,0.000
1606132863.019,11.719,-21.484,-29.297,83.496,0.000
1606132863.023,-97.168,-27.344,-24.902,-189.453,0.000
1606132863.027,-117.676,-27.832,-20.508,-257.324,0.000
1606132863.031,-1.953,-22.461,-29.785,-14.160,0.000
1606132863.035,90.820,-12.695,-32.227,200.684,0.000
1606132863.039,41.504,-7.324,-34.180,114.746,0.000
1606132863.042,-83.496,-18.555,-31.738,-176.270,0.000
1606132863.046,-114.258,-18.555,-35.645,-280.273,0.000
1606132863.050,-28.809,-11.230,-46.387,-66.406,0.000
1606132863.054,71.777,-11.230,-44.922,164.551,0.000
1606132863.058,45.410,-16.113,-40.527,124.512,0.000
1606132863.062,-99.121,-22.949,-37.109,-149.414,0.000
1606132863.066,-145.508,-29.785,-40.527,-286.621,0.000
1606132863.070,-61.523,-32.227,-39.551,-101.074,0.000
1606132863.074,44.434,-30.273,-31.738,154.785,0.000
1606132863.078,50.293,-14.160,-29.785,168.945,0.000
1606132863.082,-73.730,-14.648,-29.785,-98.145,0.000
1606132863.085,-147.461,-35.156,-25.391,-281.250,0.000
1606132863.089,-76.660,-35.645,-28.320,-131.348,0.000
1606132863.093,30.273,-32.715,-30.762,132.324,0.000
1606132863.097,34.668,-33.691,-23.438,161.621,0.000
1606132863.101,-77.637,-39.062,-25.879,-86.914,0.000
1606132863.105,-139.160,-47.363,-34.180,-279.297,0.000
1606132863.109,-92.285,-42.969,-35.156,-171.875,0.000
1606132863.113,9.766,-38.574,-27.832,109.863,0.000
1606132863.117,41.992,-42.969,-22.461,187.988,0.000
1606132863.121,-64.453,-41.992,-28.320,-49.805,0.000
1606132863.125,-147.949,-41.016,-29.297,-267.090,0.000
1606132863.128,-105.469,-41.992,-24.902,-194.336,0.000
1606132863.132,17.090,-37.109,-27.832,83.984,0.000
1606132863.136,60.059,-23.438,-27.832,198.730,0.000
1606132863.140,-31.738,-22.461,-21.973,-6.836,0.000
1606132863.144,-128.418,-35.645,-26.367,-245.605,0.000
1606132863.148,-102.539,-37.598,-31.250,-209.473,0.000
1606132863.152,35.156,-35.156,-24.414,72.266,0.000
1606132863.156,80.566,-28.809,-21.973,216.309,0.000
1606132863.160,-12.207,-33.691,-32.227,41.504,0.000
1606132863.164,-115.723,-39.551,-43.945,-216.797,0.000
1606132863.167,-105.469,-35.156,-39.551,-218.262,0.000
1606132863.171,23.438,-24.902,-29.297,60.547,0.000
1606132863.175,88.867,-18.066,-28.809,224.121,0.000
1606132863.179,12.207,-17.578,-27.344,67.871,0.000
1606132863.183,-109.375,-25.879,-21.973,-197.266,0.000
1606132863.187,-108.887,-30.273,-27.344,-235.352,0.000
1606132863.191,5.859,-24.902,-26.855,18.066,0.000
1606132863.195,76.660,-24.902,-18.066,218.750,0.000
1606132863.199,22.461,-31.250,-24.902,111.328,0.000
1606132863.203,-81.543,-35.156,-34.180,-167.969,0.000
1606132863.207,-116.211,-34.180,-32.715,-250.000,0.000
1606132863.210,-29.297,-31.738,-25.391,-17.090,0.000
1606132863.214,74.219,-17.578,-17.090,217.773,0.000
1606132863.218,38.574,-7.812,-9.766,157.715,0.000
1606132863.222,-90.332,-18.066,-15.137,-133.301,0.000
1606132863.226,-134.766,-31.738,-22.461,-252.930,0.000
1606132863.230,-44.922,-30.762,-22.461,-49.805,0.000
1606132863.234,51.758,-24.414,-20.020,191.406,0.000
1606132863.238,31.250,-23.438,-19.531,156.738,0.000
1606132863.242,-93.262,-36.621,-26.855,-130.859,0.000
1606132863.246,-157.715,-47.852,-32.715,-279.297,0.000
1606132863.250,-52.246,-35.645,-27.344,-95.703,0.000
1606132863.253,65.430,-26.367,-19.531,172.363,0.000
1606132863.257,37.598,-26.855,-20.996,175.781,0.000
1606132863.261,-80.566,-33.691,-30.762,-96.680,0.000
1606132863.265,-149.902,-35.645,-36.133,-265.137,0.000
1606132863.269,-78.125,-26.855,-36.133,-125.488,0.000
1606132863.273,46.875,-19.531,-26.367,145.508,0.000
1606132863.277,52.734,-20.508,-25.879,185.059,0.000
1606132863.281,-55.664,-23.926,-35.645,-70.312,0.000
1606132863.285,-131.836,-28.809,-41.504,-270.996,0.000
1606132863.289,-84.473,-33.203,-34.668,-172.852,0.000
1606132863.292,37.598,-24.902,-22.949,109.863,0.000
1606132863.296,67.383,-16.113,-28.320,192.871,0.000
1606132863.300,-29.785,-24.902,-35.645,-38.574,0.000
1606132863.304,-132.812,-37.598,-35.156,-252.930,0.000
1606132863.308,-97.168,-27.832,-32.715,-184.570,0.000
1606132863.312,30.762,-14.160,-37.598,88.867,0.000
1606132863.316,71.289,-7.812,-41.992,197.266,0.000
1606132863.320,-13.672,-17.090,-46.875,0.488,0.000
1606132863.324,-103.516,-32.227,-53.711,-242.188,0.000
1606132863.328,-102.051,-26.855,-50.781,-218.750,0.000
1606132863.332,6.836,-26.367,-36.133,74.219,0.000
1606132863.335,75.195,-26.367,-34.668,227.051,0.000
1606132863.339,-8.301,-20.996,-45.410,40.527,0.000
1606132863.343,-114.746,-26.367,-48.340,-218.750,0.000
1606132863.347,-104.004,-31.250,-49.316,-234.375,0.000
1606132863.351,11.719,-31.738,-41.992,27.832,0.000
1606132863.355,87.402,-23.926,-31.738,215.820,0.000
1606132863.359,26.367,-2.930,-27.832,88.867,0.000
1606132863.363,-92.773,-12.695,-32.715,-185.547,0.000
1606132863.367,-104.004,-30.762,-41.504,-238.770,0.000
1606132863.371,14.160,-27.344,-39.062,11.230,0.000
1606132863.375,79.102,-20.996,-30.762,218.262,0.000
1606132863.378,17.090,-22.461,-29.785,118.652,0.000
1606132863.382,-95.703,-39.551,-32.227,-165.039,0.000
1606132863.386,-120.117,-40.527,-33.691,-249.023,0.000
1606132863.390,-11.230,-23.926,-22.461,-11.719,0.000
1606132863.394,80.078,-20.996,-18.066,216.797,0.000
1606132863.398,45.898,-26.367,-25.391,149.414,0.000
1606132863.402,-78.613,-31.738,-29.785,-137.207,0.000
1606132863.406,-130.371,-33.691,-26.367,-255.371,0.000
1606132863.410,-33.691,-30.762,-28.809,-58.594,0.000
1606132863.414,78.125,-26.855,-29.785,181.641,0.000
1606132863.417,40.039,-26.855,-27.832,157.715,0.000
1606132863.421,-84.961,-37.109,-35.156,-122.559,0.000
1606132863.425,-130.859,-46.875,-36.621,-266.113,0.000
1606132863.429,-54.199,-41.504,-30.273,-90.820,0.000
1606132863.433,65.918,-28.320,-25.879,163.086,0.000
1606132863.437,71.777,-20.020,-23.438,170.410,0.000
1606132863.441,-48.828,-28.809,-27.832,-101.074,0.000
1606132863.445,-130.371,-35.645,-28.320,-271.973,0.000
1606132863.449,-57.617,-31.250,-18.555,-125.977,0.000
1606132863.453,65.918,-24.414,-18.555,148.926,0.000
1606132863.457,58.105,-16.602,-28.809,188.477,0.000
1606132863.460,-59.570,-17.090,-38.574,-69.336,0.000
1606132863.464,-148.438,-39.551,-43.945,-276.367,0.000
1606132863.468,-96.680,-41.992,-39.062,-172.363,0.000
1606132863.472,25.879,-35.156,-30.762,107.910,0.000
1606132863.476,53.711,-38.086,-32.227,186.035,0.000
1606132863.480,-48.340,-35.156,-32.227,-37.109,0.000
1606132863.484,-136.719,-35.645,-29.297,-256.348,0.000
1606132863.488,-99.121,-33.691,-36.133,-188.965,0.000
1606132863.492,22.949,-25.879,-32.227,97.656,0.000
1606132863.496,87.891,-19.043,-22.949,228.516,0.000
1606132863.500,-6.348,-21.973,-27.344,26.855,0.000
1606132863.503,-135.254,-35.645,-31.250,-231.934,0.000
1606132863.507,-112.793,-41.992,-31.250,-215.332,0.000
1606132863.511,22.949,-35.156,-31.738,65.918,0.000
1606132863.515,77.148,-25.879,-22.461,223.145,0.000
1606132863.519,-11.719,-26.855,-19.531,48.828,0.000
1606132863.523,-118.164,-36.621,-30.273,-219.727,0.000
1606132863.527,-120.117,-40.039,-36.621,-236.816,0.000
1606132863.531,-1.953,-24.414,-28.809,35.645,0.000
1606132863.535,74.219,-20.508,-32.227,218.750,0.000
1606132863.539,11.719,-29.785,-37.109,90.332,0.000
1606132863.542,-109.863,-36.133,-30.762,-187.012,0.000
1606132863.546,-128.906,-33.691,-28.809,-245.117,0.000
1606132863.550,0.000,-25.879,-21.973,5.859,0.000
1606132863.554,69.824,-32.227,-16.602,198.242,0.000
1606132863.558,-5.371,-24.414,-22.949,86.426,0.000
1606132863.562,-122.070,-20.996,-35.156,-193.848,0.000
1606132863.566,-149.902,-44.922,-41.504,-271.484,0.000
1606132863.570,-39.062,-41.016,-34.668,-37.109,0.000
1606132863.574,56.641,-30.762,-27.344,192.871,0.000
1606132863.578,24.414,-28.809,-24.902,137.695,0.000
1606132863.582,-90.820,-31.250,-32.227,-144.043,0.000
1606132863.585,-131.348,-33.203,-39.551,-265.625,0.000
1606132863.589,-44.434,-30.273,-25.391,-63.477,0.000
1606132863.593,82.031,-31.250,-18.555,186.523,0.000
1606132863.597,52.246,-16.113,-26.367,162.598,0.000
1606132863.601,-107.910,-20.996,-36.133,-127.930,0.000
1606132863.605,-151.855,-38.574,-39.551,-279.785,0.000
1606132863.609,-65.918,-31.250,-33.691,-103.027,0.000
1606132863.613,42.969,-24.414,-31.250,156.250,0.000
1606132863.617,42.480,-23.438,-28.320,167.480,0.000
1606132863.621,-75.195,-31.250,-31.250,-98.633,0.000
1606132863.625,-148.438,-40.039,-37.598,-276.855,0.000
1606132863.628,-86.426,-39.551,-32.227,-140.625,0.000
1606132863.632,33.203,-36.621,-29.297,133.789,0.000
1606132863.636,55.664,-19.043,-21.973,191.406,0.000
1606132863.640,-51.270,-14.160,-24.414,-50.781,0.000
1606132863.644,-145.020,-40.527,-41.504,-262.695,0.000
1606132863.648,-84.473,-39.062,-42.969,-176.270,0.000
1606132863.652,34.668,-34.668,-38.086,94.727,0.000
1606132863.656,44.434,-23.926,-31.738,189.453,0.000
1606132863.660,-45.410,-9.277,-29.785,-30.762,0.000
1606132863.664,-136.719,-28.809,-30.762,-256.836,0.000
1606132863.667,-104.004,-36.133,-36.133,-188.965,0.000
1606132863.671,24.902,-27.344,-28.809,95.215,0.000
1606132863.675,72.266,-35.156,-11.719,212.402,0.000
1606132863.679,-25.391,-39.551,-21.484,9.277,0.000
1606132863.683,-135.254,-35.645,-32.227,-234.863,0.000
1606132863.687,-114.258,-31.738,-26.855,-212.891,0.000
1606132863.691,6.836,-27.832,-26.367,56.641,0.000
1606132863.695,63.965,-27.344,-26.855,208.496,0.000
1606132863.699,-7.812,-26.855,-29.785,42.480,0.000
1606132863.703,-123.535,-34.180,-32.715,-227.051,0.000
1606132863.707,-107.910,-34.180,-23.926,-244.141,0.000
1606132863.710,9.766,-25.879,-24.902,19.043,0.000
1606132863.714,58.105,-29.785,-26.367,197.754,0.000
1606132863.718,-4.883,-34.180,-24.414,75.195,0.000
1606132863.722,-119.629,-36.133,-28.809,-197.266,0.000
1606132863.726,-126.465,-37.598,-38.574,-259.766,0.000
1606132863.730,-15.625,-23.926,-33.203,-2.441,0.000
1606132863.734,62.012,-23.438,-22.949,216.797,0.000
1606132863.738,27.832,-2.930,-26.855,111.816,0.000
1606132863.742,-106.445,5.371,-39.062,-181.152,0.000
1606132863.746,-152.344,-36.133,-37.109,-273.438,0.000
1606132863.750,-34.668,-34.180,-22.949,-39.062,0.000
1606132863.753,65.918,-25.879,-19.043,193.848,0.000
1606132863.757,27.344,-34.668,-26.367,123.047,0.000
1606132863.761,-97.656,-41.016,-38.574,-162.598,0.000
1606132863.765,-141.602,-39.551,-35.645,-282.227,0.000
1606132863.769,-43.945,-32.227,-30.762,-83.496,0.000
1606132863.773,68.359,-30.273,-27.344,170.898,0.000
1606132863.777,43.457,-22.461,-14.160,155.762,0.000
1606132863.781,-94.238,-26.855,-13.672,-125.488,0.000
1606132863.785,-165.039,-41.992,-20.996,-290.039,0.000
1606132863.789,-68.359,-37.598,-22.461,-131.836,0.000
1606132863.792,46.387,-33.691,-27.344,134.766,0.000
1606132863.796,29.785,-8.301,-28.809,161.133,0.000
1606132863.800,-74.707,-3.418,-29.785,-97.168,0.000
1606132863.804,-141.113,-36.621,-34.180,-272.461,0.000
1606132863.808,-79.102,-39.551,-27.832,-144.043,0.000
1606132863.812,48.340,-26.367,-13.184,137.695,0.000
1606132863.816,68.848,-23.438,-14.160,187.500,0.000
1606132863.820,-54.199,-32.227,-20.996,-69.336,0.000
1606132863.824,-140.137,-35.645,-19.043,-269.531,0.000
1606132863.828,-93.750,-32.715,-20.508,-171.875,0.000
1606132863.832,45.410,-27.832,-11.719,111.328,0.000
1606132863.835,72.266,-18.066,-12.695,197.266,0.000
1606132863.839,-46.875,0.488,-20.020,-24.414,0.000
1606132863.843,-131.836,-22.461,-23.438,-250.977,0.000
1606132863.847,-95.703,-38.574,-21.973,-199.219,0.000
1606132863.851,32.227,-28.809,-19.531,83.496,0.000
1606132863.855,76.172,-25.879,-21.973,206.543,0.000
1606132863.859,-16.113,-25.879,-22.461,13.184,0.000
1606132863.863,-124.512,-40.527,-28.809,-240.723,0.000
1606132863.867,-112.793,-35.645,-28.320,-228.027,0.000
1606132863.871,21.484,-20.508,-14.648,57.129,0.000
1606132863.875,94.727,-19.043,-14.648,221.680,0.000
1606132863.878,6.348,0.488,-22.949,61.035,0.000
1606132863.882,-108.887,-11.719,-24.902,-206.055,0.000
1606132863.886,-104.980,-38.574,-24.414,-227.051,0.000
1606132863.890,10.742,-33.203,-25.391,36.133,0.000
1606132863.894,80.566,-30.762,-21.973,218.750,0.000
1606132863.898,18.555,-31.250,-22.949,94.238,0.000
1606132863.902,-103.027,-41.992,-31.250,-188.477,0.000
1606132863.906,-125.977,-41.992,-30.273,-248.535,0.000
1606132863.910,-23.926,-28.809,-27.832,0.488,0.000
1606132863.914,67.383,-24.902,-24.902,203.613,0.000
1606132863.917,30.273,-31.738,-24.414,105.957,0.000
1606132863.921,-108.887,-39.551,-26.855,-173.828,0.000
1606132863.925,-144.043,-40.527,-28.320,-266.113,0.000
1606132863.929,-41.504,-35.156,-29.785,-45.898,0.000
1606132863.933,56.641,-31.250,-23.926,188.477,0.000
1606132863.937,33.691,-14.648,-20.020,136.230,0.000
1606132863.941,-95.703,-16.602,-36.133,-154.785,0.000
1606132863.945,-146.484,-38.086,-43.945,-289.551,0.000
1606132863.949,-53.711,-37.109,-36.621,-98.145,0.000
1606132863.953,50.781,-32.715,-30.273,158.691,0.000
1606132863.957,35.156,-33.203,-25.391,149.902,0.000
1606132863.960,-83.496,-45.898,-32.227,-128.906,0.000
1606132863.964,-143.066,-44.434,-43.457,-279.785,0.000
1606132863.968,-66.406,-30.762,-40.039,-110.352,0.000
1606132863.972,62.988,-33.691,-34.180,156.250,0.000
1606132863.976,56.152,-25.879,-30.762,183.594,0.000
1606132863.980,-64.941,-18.066,-26.367,-76.660,0.000
1606132863.984,-128.418,-33.691,-29.785,-263.672,0.000
1606132863.988,-67.871,-32.715,-30.762,-129.883,0.000
1606132863.992,52.734,-24.902,-25.391,147.949,0.000
1606132863.996,69.824,-27.344,-24.414,194.824,0.000
1606132864.000,-32.715,-27.832,-28.809,-47.852,0.000
1606132864.003,-117.676,-30.273,-37.598,-254.395,0.000
1606132864.007,-68.359,-29.785,-31.250,-158.691,0.000
1606132864.011,50.293,-23.438,-13.184,134.277,0.000
1606132864.015,80.078,-20.508,-11.719,234.863,0.000
1606132864.019,-9.277,-17.578,-20.996,6.836,0.000
1606132864.023,-129.883,-29.785,-25.391,-236.816,0.000
1606132864.027,-111.328,-42.969,-25.391,-196.777,0.000
1606132864.031,21.973,-32.227,-19.043,83.008,0.000
1606132864.035,71.289,-25.879,-23.438,212.402,0.000
1606132864.039,-18.555,-30.273,-29.297,16.602,0.000
1606132864.042,-125.488,-34.180,-23.926,-233.887,0.000
1606132864.046,-108.398,-31.250,-20.996,-213.379,0.000
1606132864.050,14.160,-27.832,-18.066,68.359,0.000
1606132864.054,77.637,-27.344,-15.137,215.820,0.000
1606132864.058,-0.488,-22.461,-21.973,55.176,0.000
1606132864.062,-94.727,-27.344,-29.785,-206.543,0.000
1606132864.066,-99.609,-30.762,-27.832,-236.816,0.000
1606132864.070,-2.441,-25.879,-23.926,27.344,0.000
1606132864.074,77.148,-25.391,-23.926,213.379,0.000
1606132864.078,17.090,-17.578,-20.020,84.961,0.000
1606132864.082,-104.492,-26.367,-25.391,-196.777,0.000
1606132864.085,-130.371,-41.504,-38.574,-261.719,0.000
1606132864.089,-13.184,-31.250,-29.297,-11.230,0.000
1606132864.093,76.660,-23.926,-24.902,205.078,0.000
1606132864.097,30.762,-24.902,-33.691,112.305,0.000
1606132864.101,-89.844,-29.297,-33.203,-167.480,0.000
1606132864.105,-112.305,-29.785,-30.273,-257.324,0.000
1606132864.109,-16.113,-23.438,-31.250,-44.434,0.000
1606132864.113,55.176,-30.273,-26.855,185.059,0.000
1606132864.117,29.297,-6.348,-21.484,136.230,0.000
1606132864.121,-94.727,28.320,-30.273,-149.414,0.000
1606132864.125,-143.066,-15.625,-39.551,-278.809,0.000
1606132864.128,-53.711,-43.457,-34.668,-85.449,0.000
1606132864.132,46.387,-38.086,-28.809,160.645,0.000
1606132864.136,32.715,-38.086,-32.227,144.531,0.000
1606132864.140,-82.031,-40.527,-37.598,-121.582,0.000
1606132864.144,-139.160,-42.480,-33.203,-271.484,0.000
1606132864.148,-62.988,-33.203,-24.414,-109.375,0.000
1606132864.152,48.340,-24.414,-22.949,157.227,0.000
1606132864.156,53.223,-20.020,-20.996,187.500,0.000
1606132864.160,-54.688,-28.809,-26.367,-82.031,0.000
1606132864.164,-138.672,-38.574,-31.250,-273.926,0.000
1606132864.167,-87.402,-32.227,-25.391,-144.531,0.000
1606132864.171,40.527,-32.227,-17.090,127.930,0.000
1606132864.175,61.523,-28.320,-15.137,189.941,0.000
1606132864.179,-53.711,-23.438,-21.973,-46.875,0.000
1606132864.183,-139.648,-38.574,-31.250,-255.371,0.000
1606132864.187,-87.402,-39.551,-29.785,-166.504,0.000
1606132864.191,35.156,-28.809,-20.508,115.234,0.000
1606132864.195,66.406,-27.832,-22.949,210.449,0.000
1606132864.199,-28.809,-27.832,-25.391,-9.766,0.000
1606132864.203,-125.488,-37.109,-26.855,-244.629,0.000
1606132864.207,-100.586,-40.039,-27.344,-199.707,0.000
1606132864.210,24.902,-34.180,-22.461,76.660,0.000
1606132864.214,78.125,-31.738,-26.367,208.496,0.000
1606132864.218,-8.789,-9.766,-28.320,27.344,0.000
1606132864.222,-120.605,-14.648,-30.273,-223.145,0.000
1606132864.226,-108.398,-39.062,-35.156,-212.891,0.000
1606132864.230,8.301,-33.691,-29.785,70.801,0.000
1606132864.234,66.895,-32.227,-21.973,235.352,0.000
1606132864.238,14.160,-35.156,-23.926,77.637,0.000
1606132864.242,-113.770,-48.340,-36.621,-205.078,0.000
1606132864.246,-137.695,-46.875,-34.668,-237.793,0.000
1606132864.250,-3.418,-36.133,-21.484,35.156,0.000
1606132864.253,72.754,-38.086,-20.020,214.844,0.000
1606132864.257,11.719,-20.020,-24.414,86.914,0.000
1606132864.261,-110.840,-20.996,-31.250,-199.707,0.000
1606132864.265,-136.230,-45.410,-35.645,-263.672,0.000
1606132864.269,-26.367,-39.062,-32.227,-11.230,0.000
1606132864.273,60.547,-28.320,-27.344,200.195,0.000
1606132864.277,14.160,-28.320,-28.320,113.770,0.000
1606132864.281,-111.328,-37.109,-32.227,-172.852,0.000
1606132864.285,-145.020,-38.574,-35.156,-276.855,0.000
1606132864.289,-37.598,-32.227,-34.668,-58.105,0.000
1606132864.292,63.965,-33.691,-27.344,188.477,0.000
1606132864.296,31.250,-12.207,-28.320,149.414,0.000
1606132864.300,-99.609,24.414,-33.691,-145.020,0.000
1606132864.304,-150.879,-12.207,-31.738,-288.574,0.000
1606132864.308,-56.152,-35.156,-25.879,-91.797,0.000
1606132864.312,52.734,-26.855,-22.461,169.922,0.000
1606132864.316,40.527,-30.273,-20.996,155.273,0.000
1606132864.320,-82.031,-31.738,-19.531,-124.512,0.000
1606132864.324,-151.367,-38.086,-25.879,-286.621,0.000
1606132864.328,-67.383,-36.621,-34.668,-125.488,0.000
1606132864.332,57.617,-31.738,-31.738,151.367,0.000
1606132864.335,41.992,-29.297,-22.461,181.152,0.000
1606132864.339,-74.707,-34.668,-27.832,-85.938,0.000
1606132864.343,-140.137,-40.039,-30.762,-275.391,0.000
1606132864.347,-89.355,-34.180,-28.809,-146.973,0.000
1606132864.351,20.020,-30.762,-26.367,129.395,0.000
1606132864.355,45.410,-21.973,-25.879,186.035,0.000
1606132864.359,-58.594,-9.277,-40.039,-59.082,0.000
1606132864.363,-159.180,-32.227,-41.016,-285.156,0.000
1606132864.367,-125.488,-45.898,-26.367,-204.590,0.000
1606132864.371,4.395,-32.227,-24.414,80.566,0.000
1606132864.375,43.945,-36.621,-27.344,180.176,0.000
1606132864.378,-56.641,-42.480,-35.645,-43.945,0.000
1606132864.382,-161.133,-40.527,-42.969,-282.227,0.000
1606132864.386,-126.953,-34.180,-36.621,-225.586,0.000
1606132864.390,9.277,-22.949,-23.926,73.730,0.000
1606132864.394,59.082,-28.809,-28.320,203.125,0.000
1606132864.398,-23.926,-29.297,-31.250,5.859,0.000
1606132864.402,-128.418,-34.668,-27.832,-242.676,0.000
1606132864.406,-118.164,-54.199,-32.227,-235.352,0.000
1606132864.410,9.277,-36.133,-30.273,45.898,0.000
1606132864.414,82.031,-23.438,-26.855,208.496,0.000
1606132864.417,-16.602,-33.203,-28.809,35.156,0.000
1606132864.421,-144.531,-35.156,-30.762,-232.422,0.000
1606132864.425,-131.348,-30.762,-31.738,-255.371,0.000
1606132864.429,-11.719,-25.879,-28.809,3.906,0.000
1606132864.433,70.801,-23.438,-21.973,205.078,0.000
1606132864.437,6.836,-15.625,-21.484,89.844,0.000
1606132864.441,-125.000,-20.996,-29.297,-208.496,0.000
1606132864.445,-138.672,-36.621,-33.691,-277.344,0.000
1606132864.449,-35.645,-37.598,-21.484,-31.738,0.000
1606132864.453,37.598,-30.762,-15.625,174.316,0.000
1606132864.457,3.418,-24.902,-16.602,94.238,0.000
1606132864.460,-106.934,-30.273,-26.367,-182.617,0.000
1606132864.464,-144.531,-28.809,-30.762,-279.785,0.000
1606132864.468,-58.594,-22.949,-25.879,-87.402,0.000
1606132864.472,38.574,-16.602,-21.973,151.367,0.000
1606132864.476,7.324,-19.043,-19.043,105.957,0.000
1606132864.480,-134.277,-31.250,-21.484,-192.871,0.000
1606132864.484,-186.523,-33.203,-23.438,-323.730,0.000
1606132864.488,-108.887,-32.227,-22.949,-152.344,0.000
1606132864.492,-8.789,-24.902,-18.066,110.352,0.000
1606132864.496,-21.973,-18.555,-19.531,101.562,0.000
1606132864.500,-158.691,-21.973,-23.926,-215.332,0.000
1606132864.503,-221.191,-25.391,-24.902,-374.512,0.000
1606132864.507,-141.113,-22.949,-24.902,-202.637,0.000
1606132864.511,-12.695,-15.625,-20.508,60.547,0.000
1606132864.515,-13.184,-11.230,-19.043,96.191,0.000
1606132864.519,-158.203,-15.137,-23.926,-152.832,0.000
1606132864.523,-246.582,-28.809,-23.438,-354.492,0.000
1606132864.527,-188.965,-24.902,-20.020,-241.699,0.000
1606132864.531,-70.801,-10.742,-17.090,42.969,0.000
1606132864.535,-49.316,-11.719,-20.020,92.285,0.000
1606132864.539,-153.809,-13.672,-21.484,-143.066,0.000
1606132864.542,-242.188,-22.949,-24.414,-349.121,0.000
1606132864.546,-192.871,-31.738,-26.367,-275.391,0.000
1606132864.550,-77.148,-30.273,-32.227,-4.395,0.000
1606132864.554,-32.715,-34.668,-49.316,87.891,0.000
1606132864.558,-104.004,-53.711,-32.227,-110.840,0.000
1606132864.562,-201.172,-53.223,-30.762,-298.340,0.000
1606132864.566,-170.898,-21.484,-72.266,-255.859,0.000
1606132864.570,-50.781,-10.254,-52.246,22.461,0.000
1606132864.574,12.207,-19.043,-19.531,195.312,0.000
1606132864.578,-56.152,-35.645,-27.344,32.227,0.000
1606132864.582,-176.270,-32.715,-46.387,-243.164,0.000
1606132864.585,-148.438,-7.812,-57.129,-238.770,0.000
1606132864.589,-14.648,-24.414,-44.922,25.391,0.000
1606132864.593,59.570,-17.090,-28.809,209.473,0.000
1606132864.597,21.484,-8.301,-29.785,106.934,0.000
1606132864.601,-107.910,-41.504,-42.969,-154.785,0.000
1606132864.605,-142.090,-35.156,-45.410,-194.336,0.000
1606132864.609,6.836,-5.859,-29.297,107.910,0.000
1606132864.613,94.238,-20.020,-40.527,283.691,0.000
1606132864.617,28.809,-41.992,-56.641,170.410,0.000
1606132864.621,-54.688,-22.461,-41.016,-44.434,0.000
1606132864.625,-81.543,-20.996,-41.016,-130.371,0.000
1606132864.628,8.789,-42.969,-33.203,86.914,0.000
1606132864.632,118.164,-40.039,-19.043,364.258,0.000
1606132864.636,86.914,-11.719,-22.949,310.547,0.000
1606132864.640,-63.477,-17.578,-55.664,-20.508,0.000
1606132864.644,-116.699,-45.410,-74.219,-140.137,0.000
1606132864.648,11.230,-38.574,-26.367,117.676,0.000
1606132864.652,144.531,-13.672,-10.254,352.539,0.000
1606132864.656,52.734,-37.109,-69.336,265.625,0.000
1606132864.660,-118.164,-92.773,-66.895,15.625,0.000
1606132864.664,-83.008,-74.707,-4.883,-62.500,0.000
1606132864.667,6.348,-3.906,-10.742,104.492,0.000
1606132864.671,76.172,3.906,-25.391,350.586,0.000
1606132864.675,64.941,-50.781,-24.902,353.516,0.000
1606132864.679,-46.875,-47.852,-45.410,74.707,0.000
1606132864.683,-123.535,-37.109,-70.312,-136.719,0.000
1606132864.687,-17.090,-36.621,-17.578,55.664,0.000
1606132864.691,117.188,-3.906,14.648,373.047,0.000
1606132864.695,87.402,-23.926,-20.020,370.117,0.000
1606132864.699,-62.500,-66.895,-68.359,59.570,0.000
1606132864.703,-139.160,-63.477,-77.637,-122.559,0.000
1606132864.707,-54.688,-39.062,-47.363,32.715,0.000
1606132864.710,67.871,-66.895,-25.879,318.848,0.000
1606132864.714,63.965,-80.078,-39.551,368.652,0.000
1606132864.718,-69.824,-35.645,-59.570,97.656,0.000
1606132864.722,-208.008,-59.082,-82.520,-170.898,0.000
1606132864.726,-238.770,-102.539,-119.141,-165.039,0.000
1606132864.730,-55.664,-73.730,-62.012,151.367,0.000
1606132864.734,30.762,-51.758,-11.230,310.059,0.000
1606132864.738,-118.164,-61.523,-28.809,51.270,0.000
1606132864.742,-292.480,-116.211,-93.750,-267.578,0.000
1606132864.746,-296.387,-141.602,-113.770,-270.020,0.000
1606132864.750,-115.234,-98.145,-73.730,39.551,0.000
1606132864.753,-85.449,-96.680,-82.031,157.715,0.000
1606132864.757,-204.590,-116.699,-85.449,-32.227,0.000
1606132864.761,-332.520,-128.906,-101.562,-296.875,0.000
1606132864.765,-358.398,-135.254,-123.535,-305.176,0.000
1606132864.769,-231.445,-131.348,-122.070,-29.785,0.000
1606132864.773,-166.016,-129.883,-129.395,115.234,0.000
1606132864.777,-266.602,-143.555,-155.762,-51.758,0.000
1606132864.781,-417.480,-179.688,-196.289,-347.168,0.000
1606132864.785,-394.531,-179.199,-179.199,-354.492,0.000
1606132864.789,-252.441,-167.480,-145.996,-64.941,0.000
1606132864.792,-175.293,-178.223,-169.434,100.098,0.000
1606132864.796,-223.633,-168.457,-189.941,-6.836,0.000
1606132864.800,-360.840,-206.055,-194.824,-282.227,0.000
1606132864.804,-370.605,-224.609,-184.570,-343.262,0.000
1606132864.808,-240.723,-186.523,-174.805,-108.398,0.000
1606132864.812,-127.930,-170.410,-189.453,112.305,0.000
1606132864.816,-160.645,-179.688,-218.750,29.785,0.000
1606132864.820,-280.762,-208.984,-203.125,-252.930,0.000
1606132864.824,-286.621,-208.496,-162.109,-304.688,0.000
1606132864.828,-191.895,-206.543,-171.387,-95.703,0.000
1606132864.832,-82.031,-194.336,-173.340,156.738,0.000
1606132864.835,-118.164,-197.266,-186.035,116.211,0.000
1606132864.839,-240.234,-203.613,-175.781,-181.152,0.000
1606132864.843,-246.094,-192.383,-141.113,-275.391,0.000
1606132864.847,-140.137,-193.848,-151.367,-75.195,0.000
1606132864.851,-6.836,-181.641,-140.137,191.895,0.000
1606132864.855,-50.781,-204.590,-147.461,175.781,0.000
1606132864.859,-185.547,-239.258,-135.254,-90.332,0.000
1606132864.863,-246.582,-228.516,-114.746,-265.625,0.000
1606132864.867,-193.359,-221.680,-152.344,-170.410,0.000
1606132864.871,-18.066,-199.707,-141.602,150.391,0.000
1606132864.875,42.480,-157.227,-90.332,275.391,0.000
1606132864.878,-90.332,-158.203,-103.027,-11.230,0.000
1606132864.882,-206.055,-168.945,-125.977,-275.879,0.000
1606132864.886,-146.973,-167.480,-113.770,-181.152,0.000
1606132864.890,-5.371,-176.270,-104.492,131.348,0.000
1606132864.894,10.254,-197.266,-126.465,218.750,0.000
1606132864.898,-107.910,-181.152,-134.277,-25.879,0.000
1606132864.902,-180.176,-160.645,-80.078,-240.723,0.000
1606132864.906,-120.117,-145.996,-61.523,-166.016,0.000
1606132864.910,24.414,-112.305,-83.496,125.000,0.000
1606132864.914,66.895,-122.559,-86.914,241.211,0.000
1606132864.917,-31.250,-118.164,-55.664,45.410,0.000
1606132864.921,-172.852,-115.723,-58.594,-249.023,0.000
1606132864.925,-207.031,-160.156,-100.586,-298.828,0.000
1606132864.929,-53.223,-158.203,-98.633,20.020,0.000
1606132864.933,59.082,-132.812,-65.918,258.301,0.000
1606132864.937,-20.020,-115.723,-54.688,85.449,0.000
1606132864.941,-186.523,-149.414,-76.660,-257.812,0.000
1606132864.945,-183.594,-149.902,-67.871,-293.945,0.000
1606132864.949,-30.762,-111.328,-68.848,6.836,0.000
1606132864.953,57.129,-123.535,-91.309,219.727,0.000
1606132864.957,-0.977,-127.441,-60.059,112.305,0.000
1606132864.960,-171.387,-145.508,-87.402,-225.098,0.000
1606132864.964,-193.848,-190.918,-90.820,-317.383,0.000
1606132864.968,-22.461,-144.043,-21.973,-6.348,0.000
1606132864.972,70.801,-83.496,-64.453,196.777,0.000
1606132864.976,23.926,-94.238,-96.191,89.355,0.000
1606132864.980,-125.488,-116.211,-70.801,-204.590,0.000
1606132864.984,-202.637,-137.207,-75.195,-369.141,0.000
1606132864.988,-106.934,-145.508,-101.562,-164.062,0.000
1606132864.992,50.293,-136.719,-83.008,146.973,0.000
1606132864.996,27.832,-126.465,-68.359,115.234,0.000
1606132865.000,-164.062,-150.879,-98.145,-231.934,0.000
1606132865.003,-253.418,-170.898,-104.492,-398.438,0.000
1606132865.007,-207.520,-179.199,-130.859,-240.234,0.000
1606132865.011,-41.992,-158.203,-118.652,60.547,0.000
1606132865.015,4.395,-151.367,-79.590,113.770,0.000
1606132865.019,-189.941,-185.547,-91.309,-211.914,0.000
1606132865.023,-307.129,-198.730,-115.723,-439.453,0.000
1606132865.027,-279.785,-236.328,-165.039,-338.379,0.000
1606132865.031,-90.820,-207.520,-137.695,20.996,0.000
1606132865.035,-35.156,-166.016,-114.258,103.027,0.000
1606132865.039,-249.023,-202.148,-166.504,-271.973,0.000
1606132865.042,-335.449,-222.656,-161.621,-476.074,0.000
1606132865.046,-216.309,-197.754,-135.742,-307.129,0.000
1606132865.050,-87.402,-182.617,-145.996,-13.184,0.000
1606132865.054,-62.988,-187.988,-150.391,71.289,0.000
1606132865.058,-204.102,-218.750,-156.738,-213.379,0.000
1606132865.062,-328.125,-231.445,-156.250,-470.215,0.000
1606132865.066,-251.953,-199.219,-146.484,-364.746,0.000
1606132865.070,-68.359,-180.664,-137.695,-27.832,0.000
1606132865.074,-6.348,-170.410,-132.324,105.957,0.000
1606132865.078,-126.953,-168.945,-123.535,-130.371,0.000
1606132865.082,-245.117,-163.086,-110.352,-402.344,0.000
1606132865.085,-191.895,-142.090,-98.633,-354.980,0.000
1606132865.089,-0.977,-103.516,-77.148,12.695,0.000
1606132865.093,89.355,-80.566,-51.270,213.867,0.000
1606132865.097,-2.441,-69.336,-25.391,15.625,0.000
1606132865.101,-121.582,-50.293,-5.859,-272.461,0.000
1606132865.105,-92.773,-26.367,14.648,-256.836,0.000
1606132865.109,96.191,14.160,47.363,108.398,0.000
1606132865.113,209.473,38.574,70.801,335.938,0.000
1606132865.117,129.883,49.316,89.844,172.852,0.000
1606132865.121,-10.254,61.035,103.516,-127.441,0.000
1606132865.125,-8.301,82.520,113.281,-159.180,0.000
1606132865.128,176.270,112.305,130.859,166.504,0.000
1606132865.132,294.922,132.324,145.996,411.133,0.000
1606132865.136,199.219,125.977,153.809,273.926,0.000
1606132865.140,49.805,117.188,155.273,-49.316,0.000
1606132865.144,27.344,136.719,154.785,-141.602,0.000
1606132865.148,178.223,149.414,161.621,136.230,0.000
1606132865.152,310.059,165.039,165.527,403.809,0.000
1606132865.156,263.672,158.203,166.992,322.754,0.000
1606132865.160,95.703,129.883,159.180,-15.625,0.000
1606132865.164,39.062,145.020,153.320,-144.531,0.000
1606132865.167,169.434,166.504,160.156,111.816,0.000
1606132865.171,294.434,168.457,162.598,379.395,0.000
1606132865.175,257.324,165.039,160.645,326.660,0.000
1606132865.179,114.258,149.902,150.391,16.602,0.000
1606132865.183,62.012,144.043,144.043,-110.352,0.000
1606132865.187,162.598,151.855,146.973,90.332,0.000
1606132865.191,270.996,158.691,142.578,323.242,0.000
1606132865.195,250.977,160.156,143.555,312.012,0.000
1606132865.199,125.000,136.719,137.695,37.598,0.000
1606132865.203,54.688,132.812,128.906,-119.141,0.000
1606132865.207,126.953,144.531,130.859,47.852,0.000
1606132865.210,245.117,142.090,129.395,303.223,0.000
1606132865.214,237.305,131.348,119.141,306.152,0.000
1606132865.218,103.027,118.652,110.352,32.227,0.000
1606132865.222,28.809,121.094,109.375,-143.066,0.000
1606132865.226,94.727,123.047,108.887,-7.324,0.000
1606132865.230,213.379,120.605,111.816,262.207,0.000
1606132865.234,229.004,123.535,110.352,306.641,0.000
1606132865.238,102.539,77.148,98.145,49.316,0.000
1606132865.242,-0.488,47.363,85.938,-170.898,0.000
1606132865.246,50.781,90.820,84.473,-66.895,0.000
1606132865.250,180.664,111.816,85.938,225.098,0.000
1606132865.253,199.707,107.910,86.914,303.223,0.000
1606132865.257,81.543,93.262,81.543,66.895,0.000
1606132865.261,-16.113,84.473,72.754,-166.992,0.000
1606132865.265,14.160,85.449,78.613,-105.957,0.000
1606132865.269,143.555,89.844,86.914,196.289,0.000
1606132865.273,200.195,91.309,82.520,322.754,0.000
1606132865.277,105.957,76.660,79.102,105.469,0.000
1606132865.281,-24.902,70.801,71.777,-161.133,0.000
1606132865.285,-19.531,74.707,59.570,-148.438,0.000
1606132865.289,115.723,72.266,58.105,154.297,0.000
1606132865.292,184.082,70.801,60.547,328.125,0.000
1606132865.296,106.934,73.242,54.688,142.578,0.000
1606132865.300,-33.691,62.500,43.945,-157.715,0.000
1606132865.304,-56.152,51.270,34.180,-199.219,0.000
1606132865.308,78.125,63.477,37.109,84.961,0.000
1606132865.312,171.875,66.406,43.457,295.410,0.000
1606132865.316,99.609,58.594,32.227,145.020,0.000
1606132865.320,-34.180,53.223,21.973,-176.758,0.000
1606132865.324,-50.781,52.734,22.461,-234.375,0.000
1606132865.328,75.195,55.664,31.738,59.570,0.000
1606132865.332,173.340,58.594,40.039,296.875,0.000
1606132865.335,109.863,51.270,29.297,166.992,0.000
1606132865.339,-33.203,4.395,21.973,-162.109,0.000
1606132865.343,-65.918,0.488,20.508,-263.184,0.000
1606132865.347,45.410,41.992,24.414,-12.695,0.000
1606132865.351,150.879,48.340,30.762,245.605,0.000
1606132865.355,117.188,43.457,26.855,171.875,0.000
1606132865.359,-20.020,35.156,20.508,-143.555,0.000
1606132865.363,-74.219,31.250,16.113,-284.180,0.000
1606132865.367,26.367,37.598,15.625,-57.617,0.000
1606132865.371,144.531,46.387,20.996,237.793,0.000
1606132865.375,130.371,45.898,24.902,225.098,0.000
1606132865.378,-14.160,42.969,13.672,-94.727,0.000
1606132865.382,-91.797,26.855,3.418,-275.391,0.000
1606132865.386,-9.277,18.066,12.207,-81.543,0.000
1606132865.390,130.859,29.297,18.066,237.305,0.000
1606132865.394,127.930,25.879,14.648,250.000,0.000
1606132865.398,-22.461,11.230,18.555,-58.105,0.000
1606132865.402,-100.586,8.301,13.672,-258.301,0.000
1606132865.406,-25.391,17.578,9.766,-111.816,0.000
1606132865.410,116.699,24.902,19.043,209.961,0.000
1606132865.414,127.930,17.578,20.508,278.320,0.000
1606132865.417,-7.812,14.648,7.812,-7.812,0.000
1606132865.421,-103.516,11.230,0.000,-264.648,0.000
1606132865.425,-42.480,9.277,2.930,-156.250,0.000
1606132865.429,109.375,21.973,16.113,187.500,0.000
1606132865.433,152.832,18.555,18.555,291.504,0.000
1606132865.437,29.297,7.324,0.000,11.230,0.000
1606132865.441,-87.402,9.277,-7.812,-268.066,0.000
1606132865.445,-47.852,8.301,-11.230,-210.449,0.000
1606132865.449,97.168,14.648,-2.930,126.465,0.000
1606132865.453,150.391,20.508,9.277,283.691,0.000
1606132865.457,44.922,15.625,-0.488,36.133,0.000
1606132865.460,-83.984,3.906,-7.324,-274.414,0.000
1606132865.464,-77.148,1.953,-5.371,-258.301,0.000
1606132865.468,59.570,11.719,-7.324,72.754,0.000
1606132865.472,131.836,-1.953,0.000,272.461,0.000
1606132865.476,41.992,30.762,1.465,80.566,0.000
1606132865.480,-93.262,74.219,-14.160,-249.512,0.000
1606132865.484,-98.145,12.207,-20.508,-277.344,0.000
1606132865.488,38.086,-4.395,-9.766,45.410,0.000
1606132865.492,119.629,2.441,-0.488,268.066,0.000
1606132865.496,43.457,-5.859,-8.789,114.258,0.000
1606132865.500,-91.797,-11.230,-20.996,-228.516,0.000
1606132865.503,-110.840,-18.555,-21.484,-308.105,0.000
1606132865.507,12.695,-6.348,-11.719,-4.883,0.000
1606132865.511,113.770,8.789,-7.324,258.789,0.000
1606132865.515,68.359,4.883,-12.207,160.156,0.000
1606132865.519,-81.543,8.789,-17.090,-187.012,0.000
1606132865.523,-127.930,6.836,-24.902,-324.707,0.000
1606132865.527,2.930,-9.766,-22.949,-42.480,0.000
1606132865.531,124.512,-5.859,-7.812,270.020,0.000
1606132865.535,60.547,-7.324,-7.324,176.270,0.000
1606132865.539,-106.934,-20.508,-13.184,-199.219,0.000
1606132865.542,-146.973,-20.996,-14.648,-337.402,0.000
1606132865.546,-36.133,-7.812,-11.230,-90.820,0.000
1606132865.550,59.570,-7.812,-6.836,198.730,0.000
1606132865.554,40.527,-14.160,-4.395,174.316,0.000
1606132865.558,-69.824,-20.508,-7.812,-139.160,0.000
1606132865.562,-142.090,-29.297,-7.812,-301.758,0.000
1606132865.566,-62.012,-27.832,-3.906,-113.281,0.000
1606132865.570,66.895,-17.090,-2.930,177.246,0.000
1606132865.574,72.754,-15.137,-5.859,196.289,0.000
1606132865.578,-48.828,-13.672,-8.789,-112.793,0.000
1606132865.582,-125.488,-18.066,-11.230,-329.590,0.000
1606132865.585,-48.828,-23.438,-9.766,-170.410,0.000
1606132865.589,99.609,-15.137,-1.953,202.148,0.000
1606132865.593,133.789,-13.672,-1.953,324.707,0.000
1606132865.597,-5.371,-23.926,-6.836,4.883,0.000
1606132865.601,-135.742,-39.062,-16.602,-329.590,0.000
1606132865.605,-90.332,-35.645,-20.996,-245.117,0.000
1606132865.609,70.801,-19.043,-6.836,173.340,0.000
1606132865.613,138.672,-21.973,-9.766,349.121,0.000
1606132865.617,1.953,-29.297,-18.066,50.781,0.000
1606132865.621,-152.344,-35.156,-18.066,-314.453,0.000
1606132865.625,-125.488,-36.133,-16.602,-291.016,0.000
1606132865.628,37.598,-18.555,-9.766,116.699,0.000
1606132865.632,121.094,-13.672,-7.324,337.891,0.000
1606132865.636,9.766,-26.855,-11.230,83.984,0.000
1606132865.640,-145.508,-40.039,-22.461,-300.293,0.000
1606132865.644,-134.766,-36.621,-23.926,-327.637,0.000
1606132865.648,42.480,-23.438,-12.207,59.082,0.000
1606132865.652,127.441,-14.160,-8.301,328.125,0.000
1606132865.656,30.273,-13.672,-13.672,142.090,0.000
1606132865.660,-113.281,-27.344,-24.902,-251.953,0.000
1606132865.664,-137.207,-34.668,-32.227,-345.215,0.000
1606132865.667,10.254,-26.855,-25.391,8.301,0.000
1606132865.671,134.277,-19.043,-17.090,320.312,0.000
1606132865.675,64.453,-17.090,-13.672,179.199,0.000
1606132865.679,-95.703,-27.832,-21.973,-230.957,0.000
1606132865.683,-140.625,-32.715,-36.133,-370.605,0.000
1606132865.687,-11.230,-16.602,-33.203,-44.922,0.000
1606132865.691,116.211,-11.230,-26.855,286.621,0.000
1606132865.695,69.824,-17.578,-29.785,188.965,0.000
1606132865.699,-83.984,-20.996,-33.203,-207.031,0.000
1606132865.703,-137.695,-17.578,-37.598,-346.191,0.000
1606132865.707,-12.207,-11.230,-26.367,-59.082,0.000
1606132865.710,90.332,-15.137,-19.043,229.980,0.000
1606132865.714,21.973,-27.344,-36.621,146.973,0.000
1606132865.718,-104.004,-33.691,-45.410,-185.059,0.000
1606132865.722,-152.344,-34.668,-36.133,-311.523,0.000
1606132865.726,-62.988,-37.109,-36.133,-89.355,0.000
1606132865.730,52.734,-29.297,-34.180,199.707,0.000
1606132865.734,43.457,-20.996,-26.855,190.430,0.000
1606132865.738,-82.031,-29.297,-27.344,-133.301,0.000
1606132865.742,-157.715,-39.551,-32.227,-326.660,0.000
1606132865.746,-82.520,-33.691,-28.809,-143.066,0.000
1606132865.750,36.133,-22.949,-18.555,168.945,0.000
1606132865.753,34.180,-31.738,-16.602,208.496,0.000
1606132865.757,-77.148,-19.043,-18.066,-101.074,0.000
1606132865.761,-149.902,-11.230,-19.531,-336.426,0.000
1606132865.765,-111.328,-38.574,-22.949,-188.477,0.000
1606132865.769,33.203,-36.621,-22.461,153.320,0.000
1606132865.773,75.684,-33.691,-23.926,239.746,0.000
1606132865.777,-64.941,-38.574,-28.320,-54.199,0.000
1606132865.781,-158.691,-40.039,-37.109,-326.660,0.000
1606132865.785,-102.051,-41.992,-36.621,-220.215,0.000
1606132865.789,37.109,-32.715,-20.508,140.137,0.000
1606132865.792,73.730,-26.855,-14.648,259.277,0.000
1606132865.796,-30.762,-20.508,-21.484,-12.207,0.000
1606132865.800,-138.672,-6.348,-30.273,-317.383,0.000
1606132865.804,-123.535,-23.926,-29.297,-284.668,0.000
1606132865.808,8.301,-33.691,-22.461,62.988,0.000
1606132865.812,70.312,-32.715,-22.461,244.141,0.000
1606132865.816,-25.391,-42.480,-33.691,8.301,0.000
1606132865.820,-149.414,-48.828,-41.992,-325.195,0.000
1606132865.824,-145.996,-44.434,-35.156,-318.848,0.000
1606132865.828,-1.953,-31.738,-18.555,54.688,0.000
1606132865.832,85.449,-29.297,-18.555,282.715,0.000
1606132865.835,-7.812,-36.133,-31.250,63.477,0.000
1606132865.839,-143.066,-42.969,-41.504,-304.688,0.000
1606132865.843,-158.691,-43.945,-41.992,-346.191,0.000
1606132865.847,-34.668,-34.180,-32.227,6.348,0.000
1606132865.851,75.195,-25.879,-28.809,281.738,0.000
1606132865.855,12.207,-22.949,-30.273,133.789,0.000
1606132865.859,-125.977,-22.461,-28.320,-250.000,0.000
1606132865.863,-149.902,-33.691,-26.855,-361.328,0.000
1606132865.867,-20.508,-36.133,-22.949,-26.367,0.000
1606132865.871,105.469,-23.438,-19.531,316.895,0.000
1606132865.875,57.617,-27.832,-22.461,224.609,0.000
1606132865.878,-115.723,-37.598,-34.180,-209.473,0.000
1606132865.882,-189.453,-36.133,-41.504,-416.992,0.000
1606132865.886,-68.359,-30.762,-40.527,-127.441,0.000
1606132865.890,79.590,-25.879,-34.668,265.625,0.000
1606132865.894,59.082,-23.926,-36.133,234.863,0.000
1606132865.898,-98.633,-58.594,-45.898,-182.129,0.000
1606132865.902,-178.223,-82.031,-43.945,-404.785,0.000
1606132865.906,-59.082,-44.922,-36.621,-149.902,0.000
1606132865.910,82.520,-24.414,-26.367,223.145,0.000
1606132865.914,46.387,-28.809,-27.344,225.098,0.000
1606132865.917,-85.449,-36.621,-36.133,-131.348,0.000
1606132865.921,-160.156,-41.504,-37.109,-352.539,0.000
1606132865.925,-83.496,-34.180,-30.273,-171.875,0.000
1606132865.929,59.570,-20.996,-20.020,210.938,0.000
1606132865.933,83.984,-17.090,-22.949,305.664,0.000
1606132865.937,-49.805,-32.227,-32.715,-59.570,0.000
1606132865.941,-171.387,-42.480,-34.180,-403.320,0.000
1606132865.945,-115.234,-26.367,-26.367,-286.621,0.000
1606132865.949,57.129,-10.254,-11.230,164.062,0.000
1606132865.953,97.656,-12.695,-11.230,322.754,0.000
1606132865.957,-53.223,-28.809,-29.297,-31.738,0.000
1606132865.960,-170.410,-33.203,-44.922,-412.109,0.000
1606132865.964,-131.836,-29.297,-38.574,-341.797,0.000
1606132865.968,8.789,-27.832,-23.438,103.516,0.000
1606132865.972,84.961,-21.484,-15.625,316.895,0.000
1606132865.976,-36.133,-25.391,-21.973,10.742,0.000
1606132865.980,-183.594,-35.645,-34.180,-384.766,0.000
1606132865.984,-159.668,-25.391,-32.715,-357.910,0.000
1606132865.988,1.465,-12.207,-21.484,67.383,0.000
1606132865.992,85.449,-16.602,-18.555,307.129,0.000
1606132865.996,-10.742,-30.273,-30.762,44.434,0.000
1606132866.000,-157.715,-36.133,-34.668,-366.211,0.000
1606132866.003,-156.738,-33.203,-33.203,-392.578,0.000
1606132866.007,1.465,-20.020,-20.508,12.695,0.000
1606132866.011,103.516,-10.254,-14.648,311.035,0.000
1606132866.015,32.715,-15.625,-28.320,129.395,0.000
1606132866.019,-125.488,-40.039,-38.574,-304.688,0.000
1606132866.023,-152.344,-44.922,-41.016,-409.180,0.000
1606132866.027,8.789,-20.996,-33.691,-24.902,0.000
1606132866.031,114.746,-10.742,-23.438,318.848,0.000
1606132866.035,43.945,-19.043,-21.973,188.965,0.000
1606132866.039,-111.816,-70.312,-31.738,-251.953,0.000
1606132866.042,-159.180,-71.289,-39.062,-427.734,0.000
1606132866.046,-17.578,-23.926,-30.273,-87.891,0.000
1606132866.050,123.047,-17.578,-22.949,290.527,0.000
1606132866.054,73.730,-25.879,-25.391,200.684,0.000
1606132866.058,-90.332,-34.668,-35.156,-231.934,0.000
1606132866.062,-149.414,-34.180,-43.457,-424.805,0.000
1606132866.066,-26.855,-19.043,-31.250,-125.000,0.000
1606132866.070,116.699,-7.324,-20.020,276.367,0.000
1606132866.074,97.656,-5.859,-17.578,252.441,0.000
1606132866.078,-66.895,-29.785,-17.578,-161.621,0.000
1606132866.082,-159.668,-51.270,-27.832,-410.156,0.000
1606132866.085,-53.223,-30.273,-25.391,-183.105,0.000
1606132866.089,103.027,-16.113,-21.484,233.398,0.000
1606132866.093,103.027,-13.184,-24.414,282.227,0.000
1606132866.097,-58.594,-28.809,-29.297,-119.629,0.000
1606132866.101,-149.414,-38.574,-36.621,-404.297,0.000
1606132866.105,-78.125,-26.855,-29.297,-208.008,0.000
1606132866.109,72.266,-17.090,-20.996,221.680,0.000
1606132866.113,110.840,-19.531,-23.438,315.918,0.000
1606132866.117,-38.574,-38.574,-34.180,-71.777,0.000
1606132866.121,-163.086,-43.945,-40.039,-403.320,0.000
1606132866.125,-100.586,-33.203,-32.715,-264.648,0.000
1606132866.128,75.195,-31.738,-22.949,180.176,0.000
1606132866.132,132.812,-23.926,-17.090,348.145,0.000
1606132866.136,-5.859,-38.086,-22.461,2.930,0.000
1606132866.140,-150.391,-59.570,-28.320,-375.000,0.000
1606132866.144,-112.793,-41.504,-27.344,-305.176,0.000
1606132866.148,63.965,-22.461,-21.484,135.742,0.000
1606132866.152,129.395,-18.555,-16.602,343.750,0.000
1606132866.156,8.789,-25.879,-25.391,51.270,0.000
1606132866.160,-137.695,-35.156,-36.133,-342.773,0.000
1606132866.164,-128.906,-31.738,-33.203,-343.262,0.000
1606132866.167,30.762,-19.043,-20.996,80.078,0.000
1606132866.171,120.605,-12.695,-14.160,350.098,0.000
1606132866.175,31.250,-19.043,-22.461,97.656,0.000
1606132866.179,-143.555,-34.668,-29.785,-342.773,0.000
1606132866.183,-169.434,-40.527,-22.461,-390.137,0.000
1606132866.187,-3.906,-21.484,-14.648,16.602,0.000
1606132866.191,103.516,-11.230,-13.184,315.430,0.000
1606132866.195,21.484,-23.438,-14.160,123.047,0.000
1606132866.199,-161.133,-39.551,-27.344,-324.707,0.000
1606132866.203,-171.875,-34.668,-27.344,-448.730,0.000
1606132866.207,-39.551,-24.414,-9.277,-92.285,0.000
1606132866.210,46.387,-19.531,-1.953,235.840,0.000
1606132866.214,-17.090,-19.531,-2.930,106.934,0.000
1606132866.218,-224.121,-35.156,-4.883,-328.125,0.000
1606132866.222,-286.621,-31.250,0.000,-498.047,0.000
1606132866.226,-188.477,-18.555,2.441,-210.938,0.000
1606132866.230,-69.336,-16.113,17.090,110.352,0.000
1606132866.234,-102.539,-9.766,21.484,35.156,0.000
1606132866.238,-245.605,-7.812,6.836,-339.844,0.000
1606132866.242,-324.219,-11.230,1.465,-494.141,0.000
1606132866.246,-229.980,-7.812,7.324,-238.281,0.000
1606132866.250,-76.660,1.465,9.277,50.781,0.000
1606132866.253,-121.094,5.371,11.719,21.973,0.000
1606132866.257,-288.086,-4.883,3.418,-313.477,0.000
1606132866.261,-331.055,-9.277,-14.160,-504.395,0.000
1606132866.265,-227.539,3.418,-12.207,-292.969,0.000
1606132866.269,-91.309,10.742,-9.766,14.160,0.000
1606132866.273,-117.188,5.859,-21.973,30.273,0.000
1606132866.277,-198.242,2.441,-33.203,-273.926,0.000
1606132866.281,-246.094,9.277,-37.109,-450.195,0.000
1606132866.285,-215.820,5.371,-37.598,-276.367,0.000
1606132866.289,-51.758,0.977,-35.156,54.199,0.000
1606132866.292,-20.020,-0.977,-40.527,135.254,0.000
1606132866.296,-145.508,-8.789,-50.293,-165.527,0.000
1606132866.300,-211.426,-18.555,-56.641,-389.648,0.000
1606132866.304,-143.066,-17.090,-59.570,-244.629,0.000
1606132866.308,-0.977,-8.301,-47.363,108.887,0.000
1606132866.312,43.945,-9.766,-47.852,229.492,0.000
1606132866.316,-31.738,-24.414,-64.453,-42.969,0.000
1606132866.320,-133.301,-37.109,-67.871,-305.176,0.000
1606132866.324,-112.793,-31.250,-59.570,-223.633,0.000
1606132866.328,49.805,-23.438,-48.828,133.301,0.000
1606132866.332,135.254,-29.297,-48.340,295.898,0.000
1606132866.335,32.227,-41.016,-55.176,41.016,0.000
1606132866.339,-98.633,-45.410,-61.523,-255.371,0.000
1606132866.343,-49.316,-44.922,-59.082,-231.445,0.000
1606132866.347,83.984,-39.551,-54.688,120.605,0.000
1606132866.351,121.582,-40.527,-51.758,328.125,0.000
1606132866.355,29.297,-43.457,-47.852,122.559,0.000
1606132866.359,-57.617,-28.320,-53.223,-185.547,0.000
1606132866.363,-40.039,-29.785,-55.176,-204.590,0.000
1606132866.367,63.477,-32.715,-49.316,115.234,0.000
1606132866.371,142.578,-25.879,-46.387,325.195,0.000
1606132866.375,84.473,-25.879,-54.688,170.410,0.000
1606132866.378,-25.879,-34.668,-53.223,-143.555,0.000
1606132866.382,-51.758,-46.387,-48.828,-203.125,0.000
1606132866.386,66.895,-44.434,-51.758,90.820,0.000
1606132866.390,155.273,-32.227,-47.852,326.172,0.000
1606132866.394,120.605,-35.645,-44.434,194.824,0.000
1606132866.398,-13.184,-51.758,-53.711,-131.836,0.000
1606132866.402,-56.152,-50.781,-56.152,-225.098,0.000
1606132866.406,78.125,-37.598,-42.969,48.828,0.000
1606132866.410,164.551,-27.832,-38.574,323.730,0.000
1606132866.414,110.352,-31.738,-35.645,228.516,0.000
1606132866.417,-5.859,-37.109,-40.527,-108.887,0.000
1606132866.421,-58.105,-41.016,-50.781,-224.609,0.000
1606132866.425,26.855,-47.363,-44.922,20.508,0.000
1606132866.429,140.137,-41.016,-38.086,287.598,0.000
1606132866.433,118.164,-35.156,-40.039,251.465,0.000
1606132866.437,-9.766,-39.062,-38.574,-73.730,0.000
1606132866.441,-49.316,-50.293,-39.551,-260.742,0.000
1606132866.445,4.395,-46.387,-41.504,-64.941,0.000
1606132866.449,96.191,-34.668,-35.645,251.953,0.000
1606132866.453,138.184,-31.250,-31.738,280.273,0.000
1606132866.457,-0.977,-36.621,-41.992,-24.902,0.000
1606132866.460,-102.539,-38.574,-42.969,-250.977,0.000
1606132866.464,-23.926,-35.645,-39.551,-110.840,0.000
1606132866.468,95.215,-30.273,-37.598,229.004,0.000
1606132866.472,111.816,-34.668,-26.855,289.062,0.000
1606132866.476,-21.973,-40.039,-30.762,-18.555,0.000
1606132866.480,-83.984,-39.062,-37.109,-251.953,0.000
1606132866.484,-37.598,-44.434,-33.203,-126.465,0.000
1606132866.488,77.637,-34.668,-26.855,195.312,0.000
1606132866.492,125.977,-33.691,-27.832,294.434,0.000
1606132866.496,5.371,-36.621,-27.832,37.109,0.000
1606132866.500,-94.238,-22.461,-33.691,-228.027,0.000
1606132866.503,-42.969,-29.785,-34.668,-165.527,0.000
1606132866.507,86.426,-35.156,-21.973,158.203,0.000
1606132866.511,100.586,-33.691,-26.367,302.246,0.000
1606132866.515,-0.977,-45.410,-29.297,66.406,0.000
1606132866.519,-93.750,-44.922,-29.297,-217.285,0.000
1606132866.523,-83.008,-37.109,-34.180,-220.215,0.000
1606132866.527,31.738,-30.273,-33.691,76.660,0.000
1606132866.531,114.258,-22.461,-35.645,275.391,0.000
1606132866.535,18.066,-30.762,-38.574,66.895,0.000
1606132866.539,-116.699,-38.086,-41.016,-268.066,0.000
1606132866.542,-99.121,-35.156,-45.898,-291.016,0.000
1606132866.546,36.621,-27.344,-39.551,47.363,0.000
1606132866.550,120.117,-19.531,-31.738,293.457,0.000
1606132866.554,30.762,-23.926,-36.621,122.070,0.000
1606132866.558,-100.098,-24.902,-39.062,-232.422,0.000
1606132866.562,-123.535,-22.949,-40.527,-305.176,0.000
1606132866.566,-17.578,-32.227,-38.574,0.000,0.000
1606132866.570,87.891,-30.273,-32.715,260.742,0.000
1606132866.574,35.156,-36.133,-31.250,135.254,0.000
1606132866.578,-111.328,-43.457,-40.527,-226.562,0.000
1606132866.582,-120.117,-43.457,-48.340,-355.957,0.000
1606132866.585,7.324,-35.156,-47.363,-70.312,0.000
1606132866.589,51.270,-24.414,-33.203,266.602,0.000
1606132866.593,53.223,-23.926,-31.250,211.426,0.000
1606132866.597,-96.680,-35.645,-47.363,-197.754,0.000
1606132866.601,-196.289,-44.922,-53.711,-422.363,0.000
1606132866.605,-76.172,-41.504,-45.410,-168.457,0.000
1606132866.609,70.312,-24.902,-35.645,225.098,0.000
1606132866.613,115.723,-19.043,-29.785,229.004,0.000
1606132866.617,-83.984,-35.156,-32.227,-164.551,0.000
1606132866.621,-156.738,-41.016,-41.992,-388.184,0.000
1606132866.625,-60.059,-39.062,-33.691,-174.316,0.000
1606132866.628,63.477,-27.344,-31.250,200.195,0.000
1606132866.632,122.070,-20.508,-40.039,270.508,0.000
1606132866.636,-55.176,-29.785,-35.156,-80.078,0.000
1606132866.640,-134.766,-30.273,-33.691,-328.125,0.000
1606132866.644,-55.176,-33.203,-34.180,-174.805,0.000
1606132866.648,92.285,-21.973,-31.250,191.406,0.000
1606132866.652,115.723,-19.043,-27.832,281.738,0.000
1606132866.656,-25.391,-22.949,-34.180,-30.273,0.000
1606132866.660,-95.703,13.672,-49.805,-292.969,0.000
1606132866.664,-59.082,4.883,-45.410,-200.684,0.000
1606132866.667,85.449,-25.391,-33.691,172.852,0.000
1606132866.671,135.254,-21.973,-34.180,334.473,0.000
1606132866.675,-11.719,-25.391,-38.086,42.480,0.000
1606132866.679,-143.066,-34.180,-38.086,-323.242,0.000
1606132866.683,-114.746,-36.133,-33.691,-290.527,0.000
1606132866.687,43.945,-27.344,-25.879,128.906,0.000
1606132866.691,114.746,-26.855,-19.531,334.961,0.000
1606132866.695,9.277,-31.250,-18.555,84.473,0.000
1606132866.699,-135.742,-30.273,-23.926,-306.641,0.000
1606132866.703,-134.277,-30.762,-27.832,-341.797,0.000
1606132866.707,28.809,-27.344,-22.461,58.594,0.000
1606132866.710,127.930,-20.996,-20.020,318.359,0.000
1606132866.714,38.574,-25.391,-31.250,114.746,0.000
1606132866.718,-115.234,-35.645,-37.109,-266.602,0.000
1606132866.722,-144.043,-35.645,-33.203,-345.215,0.000
1606132866.726,2.441,-25.879,-29.785,7.324,0.000
1606132866.730,120.605,-19.531,-25.879,313.477,0.000
1606132866.734,63.477,-21.484,-29.297,174.805,0.000
1606132866.738,-83.496,-29.297,-42.969,-243.652,0.000
1606132866.742,-130.859,-39.062,-41.016,-365.723,0.000
1606132866.746,-6.836,-27.832,-28.320,-29.297,0.000
1606132866.750,124.023,-10.742,-25.391,292.969,0.000
1606132866.753,70.801,-17.578,-23.926,198.242,0.000
1606132866.757,-84.961,-31.250,-29.297,-207.520,0.000
1606132866.761,-120.605,-30.273,-34.668,-374.023,0.000
1606132866.765,4.395,-19.531,-29.297,-83.496,0.000
1606132866.769,117.188,-17.578,-17.090,246.094,0.000
1606132866.773,68.848,-26.367,-17.090,189.941,0.000
1606132866.777,-66.895,-38.574,-28.320,-164.062,0.000
1606132866.781,-108.398,-41.504,-31.250,-299.316,0.000
1606132866.785,-22.461,-31.738,-24.902,-73.242,0.000
1606132866.789,85.449,-29.297,-20.508,217.773,0.000
1606132866.792,75.195,-28.809,-23.926,203.125,0.000
1606132866.796,-51.758,-33.203,-28.809,-124.023,0.000
1606132866.800,-114.746,-37.109,-34.668,-306.641,0.000
1606132866.804,-44.922,-33.203,-31.738,-113.281,0.000
1606132866.808,82.520,-24.414,-26.367,204.102,0.000
1606132866.812,102.539,-19.043,-25.391,231.445,0.000
1606132866.816,-23.926,-28.320,-29.297,-73.242,0.000
1606132866.820,-114.746,-43.457,-34.180,-291.016,0.000
1606132866.824,-54.688,-38.574,-32.715,-147.949,0.000
1606132866.828,75.195,-20.996,-24.414,181.641,0.000
1606132866.832,93.750,-20.996,-19.531,250.977,0.000
1606132866.835,-36.133,-32.715,-31.250,-55.664,0.000
1606132866.839,-144.043,-33.203,-37.598,-327.637,0.000
1606132866.843,-96.680,-31.738,-32.227,-224.121,0.000
1606132866.847,33.691,-30.762,-28.809,129.395,0.000
1606132866.851,71.289,-25.879,-23.438,259.277,0.000
1606132866.855,-21.973,-28.320,-29.297,-9.277,0.000
1606132866.859,-136.719,-35.645,-36.621,-313.965,0.000
1606132866.863,-118.652,-39.062,-29.785,-253.418,0.000
1606132866.867,38.574,-31.250,-19.531,118.164,0.000
1606132866.871,92.773,-18.555,-25.879,270.020,0.000
1606132866.875,-24.902,-18.555,-33.691,-1.465,0.000
1606132866.878,-147.949,-29.297,-41.992,-322.754,0.000
1606132866.882,-123.047,-30.762,-49.805,-303.711,0.000
1606132866.886,-1.953,-27.832,-31.738,32.715,0.000
1606132866.890,56.152,-20.996,-22.949,241.699,0.000
1606132866.894,-2.441,-20.996,-40.039,36.133,0.000
1606132866.898,-119.141,-28.320,-47.852,-320.312,0.000
1606132866.902,-128.418,-30.273,-49.316,-346.191,0.000
1606132866.906,-4.395,-22.949,-39.551,8.789,0.000
1606132866.910,74.707,-18.066,-33.691,249.512,0.000
1606132866.914,16.113,-22.461,-46.875,66.895,0.000
1606132866.917,-105.957,-27.832,-50.781,-274.902,0.000
1606132866.921,-130.859,-31.250,-46.387,-341.309,0.000
1606132866.925,-20.020,-30.762,-40.039,-42.480,0.000
1606132866.929,86.426,-24.414,-33.203,264.648,0.000
1606132866.933,46.387,-29.785,-36.621,166.504,0.000
1606132866.937,-104.492,-47.363,-46.387,-232.910,0.000
1606132866.941,-164.551,-46.875,-38.574,-390.625,0.000
1606132866.945,-44.434,-33.691,-30.762,-110.840,0.000
1606132866.949,91.309,-23.438,-28.320,260.742,0.000
1606132866.953,53.711,-27.832,-26.855,246.582,0.000
1606132866.957,-106.934,-41.504,-33.203,-154.785,0.000
1606132866.960,-171.387,-44.922,-40.039,-392.090,0.000
1606132866.964,-62.500,-36.133,-32.227,-160.645,0.000
1606132866.968,75.195,-25.391,-23.926,231.934,0.000
1606132866.972,78.125,-29.785,-25.879,256.348,0.000
1606132866.976,-64.453,-33.203,-32.715,-114.258,0.000
1606132866.980,-146.484,-26.367,-36.133,-343.262,0.000
1606132866.984,-66.406,-26.367,-30.762,-143.555,0.000
1606132866.988,69.336,-21.484,-23.438,200.684,0.000
1606132866.992,83.008,-16.602,-25.391,231.445,0.000
1606132866.996,-47.852,-29.785,-31.250,-83.496,0.000
1606132867.000,-146.973,-42.480,-35.645,-345.215,0.000
1606132867.003,-85.449,-38.086,-36.621,-224.121,0.000
1606132867.007,57.617,-25.391,-28.809,142.578,0.000
1606132867.011,111.328,-17.578,-23.438,270.996,0.000
1606132867.015,-1.953,-25.879,-32.715,-25.879,0.000
1606132867.019,-147.949,-26.855,-38.086,-354.004,0.000
1606132867.023,-119.629,-27.344,-36.133,-277.832,0.000
1606132867.027,49.316,-24.902,-28.320,125.488,0.000
1606132867.031,116.699,-18.555,-23.438,316.895,0.000
1606132867.035,1.465,-32.227,-27.832,25.879,0.000
1606132867.039,-137.207,-42.969,-38.086,-348.145,0.000
1606132867.042,-141.602,-43.945,-38.086,-319.824,0.000
1606132867.046,10.742,-32.227,-26.855,94.727,0.000
1606132867.050,89.355,-27.832,-21.484,324.707,0.000
1606132867.054,-7.324,-38.086,-24.902,75.684,0.000
1606132867.058,-146.484,-42.480,-31.738,-315.430,0.000
1606132867.062,-152.344,-40.039,-30.762,-345.215,0.000
1606132867.066,-9.766,-35.156,-25.391,45.410,0.000
1606132867.070,86.426,-25.391,-28.320,316.406,0.000
1606132867.074,5.371,-25.879,-28.320,134.277,0.000
1606132867.078,-154.297,-32.227,-32.715,-253.418,0.000
1606132867.082,-173.828,-33.691,-35.156,-344.727,0.000
1606132867.085,-10.742,-26.367,-28.320,0.000,0.000
1606132867.089,101.562,-17.578,-20.508,301.758,0.000
1606132867.093,38.086,-18.066,-22.461,157.715,0.000
1606132867.097,-125.488,-34.180,-34.180,-249.023,0.000
1606132867.101,-166.016,-38.086,-34.180,-387.695,0.000
1606132867.105,-38.086,-27.832,-22.949,-68.848,0.000
1606132867.109,68.848,-18.555,-13.184,283.203,0.000
1606132867.113,25.391,-24.902,-20.508,199.707,0.000
1606132867.117,-120.117,-28.809,-31.250,-226.074,0.000
1606132867.121,-190.430,-7.812,-32.715,-420.898,0.000
1606132867.125,-84.473,-18.555,-29.785,-141.602,0.000
1606132867.128,61.523,-33.203,-20.996,241.211,0.000
1606132867.132,30.762,-27.832,-23.926,229.004,0.000
1606132867.136,-145.996,-27.344,-39.062,-190.430,0.000
1606132867.140,-218.750,-23.926,-46.387,-433.594,0.000
1606132867.144,-104.492,-19.043,-42.480,-189.453,0.000
1606132867.148,44.434,-13.672,-40.039,197.266,0.000
1606132867.152,55.176,-7.812,-43.945,244.141,0.000
1606132867.156,-88.379,-16.602,-55.664,-127.930,0.000
1606132867.160,-187.012,-24.902,-59.570,-417.480,0.000
1606132867.164,-91.309,-16.602,-56.641,-224.121,0.000
1606132867.167,80.566,-8.789,-53.711,199.219,0.000
1606132867.171,108.398,-4.883,-50.293,303.223,0.000
1606132867.175,-23.438,-11.230,-58.594,-41.016,0.000
1606132867.179,-122.559,-18.555,-74.707,-351.074,0.000
1606132867.183,-48.828,-11.719,-77.148,-217.285,0.000
1606132867.187,129.395,4.395,-63.965,211.914,0.000
1606132867.191,187.012,4.883,-63.477,363.281,0.000
1606132867.195,75.195,-3.418,-72.754,60.059,0.000
1606132867.199,-30.273,-4.883,-78.125,-259.766,0.000
1606132867.203,20.020,-4.883,-75.684,-177.734,0.000
1606132867.207,194.824,2.441,-60.059,248.047,0.000
1606132867.210,264.160,7.812,-53.223,448.730,0.000
1606132867.214,152.344,-1.465,-61.523,176.758,0.000
1606132867.218,22.461,0.000,-76.660,-201.172,0.000
1606132867.222,47.363,11.230,-73.730,-184.570,0.000
1606132867.226,202.148,0.488,-57.617,231.934,0.000
1606132867.230,288.086,1.953,-54.199,463.379,0.000
1606132867.234,194.336,-3.906,-54.688,237.793,0.000
1606132867.238,40.527,-21.484,-54.688,-141.602,0.000
1606132867.242,26.855,-25.391,-52.734,-184.570,0.000
1606132867.246,174.316,-14.648,-41.504,187.500,0.000
1606132867.250,272.461,-10.254,-33.691,460.449,0.000
1606132867.253,181.641,-22.949,-33.691,278.809,0.000
1606132867.257,9.277,-30.762,-41.016,-132.812,0.000
1606132867.261,-27.832,-29.297,-43.457,-241.699,0.000
1606132867.265,109.375,-24.414,-31.250,103.027,0.000
1606132867.269,212.402,-19.043,-24.902,414.551,0.000
1606132867.273,139.160,-25.879,-29.785,289.062,0.000
1606132867.277,-28.809,-38.086,-35.156,-120.605,0.000
1606132867.281,-87.402,-39.062,-36.133,-271.973,0.000
1606132867.285,33.691,-24.902,-31.738,41.016,0.000
1606132867.289,160.156,-19.531,-24.902,377.930,0.000
1606132867.292,122.559,-34.180,-23.438,317.383,0.000
1606132867.296,-34.180,-27.344,-30.762,-79.102,0.000
1606132867.300,-104.980,12.695,-38.086,-282.227,0.000
1606132867.304,-1.953,-4.395,-34.180,-24.902,0.000
1606132867.308,127.930,-30.273,-23.926,323.242,0.000
1606132867.312,109.375,-30.762,-25.879,297.852,0.000
1606132867.316,-50.293,-43.457,-35.645,-88.379,0.000
1606132867.320,-134.766,-51.270,-40.039,-312.012,0.000
1606132867.324,-38.574,-44.922,-31.738,-101.562,0.000
1606132867.328,97.656,-36.133,-21.484,255.371,0.000
1606132867.332,99.121,-35.645,-23.438,291.504,0.000
1606132867.335,-29.785,-35.645,-26.367,-47.363,0.000
1606132867.339,-101.562,-41.016,-29.785,-262.695,0.000
1606132867.343,-21.484,-43.457,-25.391,-86.426,0.000
1606132867.347,88.379,-32.715,-14.160,216.797,0.000
1606132867.351,86.426,-29.297,-13.184,251.953,0.000
1606132867.355,-18.066,-41.016,-21.973,-30.762,0.000
1606132867.359,-98.145,-38.574,-27.344,-243.164,0.000
1606132867.363,-37.109,-31.250,-21.973,-119.629,0.000
1606132867.367,87.891,-28.320,-15.137,181.641,0.000
1606132867.371,89.355,-25.391,-13.672,262.207,0.000
1606132867.375,-11.230,-29.785,-18.066,16.113,0.000
1606132867.378,-104.492,-36.621,-25.391,-225.098,0.000
1606132867.382,-60.059,-37.109,-24.414,-154.785,0.000
1606132867.386,69.336,-32.227,-16.113,151.367,0.000
1606132867.390,91.797,-29.297,-17.578,277.832,0.000
1606132867.394,-0.488,-31.738,-22.461,53.711,0.000
1606132867.398,-99.121,-49.316,-27.832,-223.633,0.000
1606132867.402,-82.031,-50.293,-26.367,-202.637,0.000
1606132867.406,41.504,-28.809,-16.602,102.051,0.000
1606132867.410,100.586,-20.508,-19.043,250.488,0.000
1606132867.414,15.625,-25.879,-26.855,58.105,0.000
1606132867.417,-96.191,-41.992,-22.949,-209.961,0.000
1606132867.421,-104.004,-42.480,-16.602,-230.469,0.000
1606132867.425,-22.949,-30.762,-13.184,28.809,0.000
1606132867.429,3.906,-37.109,-9.277,185.059,0.000
1606132867.433,-77.148,-41.992,-9.277,14.648,0.000
1606132867.437,-199.219,-56.152,-6.836,-298.828,0.000
1606132867.441,-230.957,-58.594,-4.395,-386.230,0.000
1606132867.445,-146.484,-40.527,-3.906,-121.094,0.000
1606132867.449,-89.844,-39.062,1.465,86.914,0.000
1606132867.453,-152.344,-49.805,9.766,-47.363,0.000
1606132867.457,-273.926,-69.824,3.418,-350.586,0.000
1606132867.460,-313.965,-69.824,-10.254,-449.219,0.000
1606132867.464,-222.168,-61.523,-7.812,-210.938,0.000
1606132867.468,-132.324,-47.363,2.441,33.203,0.000
1606132867.472,-182.617,-53.223,3.906,-45.898,0.000
1606132867.476,-309.082,-63.477,-2.930,-352.051,0.000
1606132867.480,-351.074,-61.035,-6.836,-469.238,0.000
1606132867.484,-250.488,-59.570,-2.930,-241.699,0.000
1606132867.488,-145.508,-53.711,13.184,14.648,0.000
1606132867.492,-170.410,-67.383,22.461,-25.879,0.000
1606132867.496,-276.855,-78.613,15.137,-308.105,0.000
1606132867.500,-311.035,-22.461,12.207,-435.547,0.000
1606132867.503,-211.914,-18.066,17.090,-232.910,0.000
1606132867.507,-95.703,-69.824,21.973,55.176,0.000
1606132867.511,-87.891,-60.547,15.625,76.660,0.000
1606132867.515,-164.551,-55.664,0.000,-191.895,0.000
1606132867.519,-219.238,-62.500,-9.766,-359.863,0.000
1606132867.523,-158.691,-58.105,-8.301,-202.148,0.000
1606132867.527,-19.043,-43.457,0.000,107.910,0.000
1606132867.531,2.930,-43.457,-2.441,171.875,0.000
1606132867.535,-106.445,-54.199,-12.695,-103.027,0.000
1606132867.539,-159.668,-50.781,-17.578,-312.500,0.000
1606132867.542,-96.680,-42.969,-18.066,-196.289,0.000
1606132867.546,6.348,-35.645,-13.672,107.910,0.000
1606132867.550,36.133,-40.527,-16.113,201.172,0.000
1606132867.554,-68.848,-54.199,-19.531,-48.828,0.000
1606132867.558,-166.016,-58.105,-17.090,-295.410,0.000
1606132867.562,-130.371,-52.734,-17.578,-226.074,0.000
1606132867.566,-1.465,-43.457,-18.066,87.891,0.000
1606132867.570,44.434,-40.527,-14.160,221.191,0.000
1606132867.574,-41.016,-41.504,-21.484,0.977,0.000
1606132867.578,-131.348,-52.734,-31.250,-252.441,0.000
