timestamps,TP9,AF7,AF8,TP10,Right AUX
1606144045.958,0.000,0.000,0.000,0.000,0.000
1606144045.962,-2.441,-0.488,-0.488,-6.348,0.000
1606144045.966,10.254,-0.977,-0.488,30.762,0.000
1606144045.970,-10.254,1.465,1.465,-40.039,0.000
1606144045.974,27.344,-10.742,-10.254,132.324,0.000
1606144045.978,334.473,-23.438,-12.207,863.770,0.000
1606144045.982,325.195,-20.996,-11.719,869.141,0.000
1606144045.986,-215.332,-36.621,-32.715,-291.016,0.000
1606144045.990,-509.277,-52.246,-47.363,-1000.000,0.000
1606144045.994,-188.477,-40.527,-34.668,-469.727,0.000
1606144045.997,318.359,-19.531,-7.812,778.809,0.000
1606144046.001,361.816,-17.578,-13.672,933.594,0.000
1606144046.005,-144.043,-34.668,-42.480,-187.500,0.000
1606144046.009,-497.070,-58.105,-55.176,-1000.000,0.000
1606144046.013,-259.277,-50.293,-44.922,-618.164,0.000
1606144046.017,251.465,-22.461,-21.484,609.375,0.000
1606144046.021,379.395,-18.555,-12.695,-984.375,0.000
1606144046.025,-77.148,-33.203,-33.203,-47.852,0.000
1606144046.029,-489.746,-46.875,-53.223,-1000.000,0.000
1606144046.033,-314.453,-43.457,-48.340,-727.539,0.000
1606144046.036,224.121,-21.484,-13.672,452.637,0.000
1606144046.040,412.598,-6.348,1.465,-928.223,0.000
1606144046.044,-6.348,-30.273,-28.320,128.906,0.000
1606144046.048,-445.801,-59.570,-55.664,-1000.000,0.000
1606144046.052,-349.121,-55.176,-44.434,-825.195,0.000
1606144046.056,178.711,-19.043,-7.324,325.195,0.000
1606144046.060,429.199,-1.953,5.371,-903.320,0.000
1606144046.064,69.336,-19.531,-20.020,307.617,0.000
1606144046.068,-404.297,-45.410,-47.363,-910.156,0.000
1606144046.072,-407.227,-43.945,-47.852,-918.945,0.000
1606144046.076,107.910,8.789,-19.531,209.961,0.000
1606144046.079,428.711,38.574,-3.418,-899.414,0.000
1606144046.083,136.719,-8.301,-21.484,468.262,0.000
1606144046.087,-379.395,-50.781,-45.898,-765.137,0.000
1606144046.091,-452.148,-51.270,-55.664,-1000.000,0.000
1606144046.095,47.852,-33.203,-28.809,62.988,0.000
1606144046.099,425.293,-16.602,-8.789,-922.363,0.000
1606144046.103,212.891,-17.578,-20.020,613.770,0.000
1606144046.107,-314.941,-36.133,-41.504,-592.285,0.000
1606144046.111,-457.520,-49.316,-54.199,-1000.000,0.000
1606144046.115,-11.719,-30.762,-33.691,-94.238,0.000
1606144046.119,397.949,-6.836,-9.277,-968.750,0.000
1606144046.122,261.719,-8.789,-19.043,723.633,0.000
1606144046.126,-271.973,-26.855,-42.969,-447.266,0.000
1606144046.130,-486.328,-47.852,-44.434,-1000.000,0.000
1606144046.134,-83.984,-44.434,-34.668,-269.043,0.000
1606144046.138,365.234,-13.672,-20.508,940.918,0.000
1606144046.142,310.547,-6.836,-21.484,819.824,0.000
1606144046.146,-201.660,-25.391,-46.387,-331.543,0.000
1606144046.150,-479.492,-36.621,-64.453,-1000.000,0.000
1606144046.154,-138.184,-13.672,-56.152,-430.176,0.000
1606144046.158,382.324,15.625,-31.250,811.035,0.000
1606144046.161,412.109,6.836,-29.297,926.758,0.000
1606144046.165,-120.117,-24.902,-52.246,-189.941,0.000
1606144046.169,-459.473,-41.992,-61.035,-1000.000,0.000
1606144046.173,-184.082,-16.113,-46.387,-567.871,0.000
1606144046.177,327.637,18.555,-21.484,662.598,0.000
1606144046.181,424.316,16.113,-14.648,-990.723,0.000
1606144046.185,-55.176,-16.113,-35.645,-49.316,0.000
1606144046.189,-457.031,-46.875,-56.641,-1000.000,0.000
1606144046.193,-257.324,-43.945,-40.527,-686.035,0.000
1606144046.197,285.156,-20.508,-13.184,506.348,0.000
1606144046.201,467.285,-9.277,-11.230,-929.199,0.000
1606144046.204,43.457,-26.367,-21.484,136.719,0.000
1606144046.208,-390.625,-51.270,-45.898,-1000.000,0.000
1606144046.212,-283.691,-51.270,-48.340,-794.434,0.000
1606144046.216,232.422,-26.367,-21.973,370.117,0.000
1606144046.220,472.168,-14.648,-9.766,-902.832,0.000
1606144046.224,104.980,-24.414,-27.832,312.500,0.000
1606144046.228,-381.836,-44.434,-48.340,-917.969,0.000
1606144046.232,-355.469,-43.945,-41.016,-893.066,0.000
1606144046.236,168.457,-23.926,-17.578,251.465,0.000
1606144046.240,459.473,-15.625,-6.348,-900.391,0.000
1606144046.244,158.203,-31.738,-29.785,471.680,0.000
1606144046.247,-352.051,-61.523,-54.199,-770.508,0.000
1606144046.251,-417.969,-71.289,-50.293,-994.141,0.000
1606144046.255,90.332,-41.992,-24.902,125.488,0.000
1606144046.259,447.266,-10.742,-2.441,-944.824,0.000
1606144046.263,224.609,-17.090,-15.625,562.988,0.000
1606144046.267,-283.691,-47.363,-40.039,-603.027,0.000
1606144046.271,-443.848,-58.594,-37.109,-1000.000,0.000
1606144046.275,9.766,-27.832,-17.578,-51.758,0.000
1606144046.279,426.270,-9.277,-6.836,-957.031,0.000
1606144046.283,268.555,-17.578,-19.043,713.379,0.000
1606144046.286,-269.043,-41.504,-45.410,-461.426,0.000
1606144046.290,-475.586,-58.594,-52.246,-1000.000,0.000
1606144046.294,-62.500,-38.574,-31.250,-224.121,0.000
1606144046.298,404.297,-12.695,-10.254,965.332,0.000
1606144046.302,329.102,-18.066,-12.695,809.570,0.000
1606144046.306,-204.102,-44.922,-31.738,-339.844,0.000
1606144046.310,-477.051,-58.594,-47.363,-1000.000,0.000
1606144046.314,-151.855,-40.039,-32.715,-406.738,0.000
1606144046.318,343.750,-23.438,-2.930,829.590,0.000
1606144046.322,367.676,-17.090,-0.977,914.062,0.000
1606144046.326,-150.879,-23.438,-29.785,-208.984,0.000
1606144046.329,-488.281,-45.410,-52.246,-1000.000,0.000
1606144046.333,-211.914,-30.762,-39.062,-550.293,0.000
1606144046.337,307.617,-11.719,-12.695,683.105,0.000
1606144046.341,405.273,-16.113,-9.766,996.094,0.000
1606144046.345,-82.031,-35.156,-28.320,-70.312,0.000
1606144046.349,-458.984,-46.875,-45.410,-1000.000,0.000
1606144046.353,-249.023,-39.551,-40.527,-674.316,0.000
1606144046.357,267.090,-20.508,-11.230,530.273,0.000
1606144046.361,410.156,-13.672,-2.930,-948.242,0.000
1606144046.365,-29.297,-30.762,-22.949,62.988,0.000
1606144046.369,-459.961,-53.711,-46.387,-1000.000,0.000
1606144046.372,-344.238,-55.664,-47.852,-791.504,0.000
1606144046.376,177.246,-30.273,-14.160,367.188,0.000
1606144046.380,420.898,-19.531,3.418,-906.738,0.000
1606144046.384,48.340,-16.113,-23.438,253.906,0.000
1606144046.388,-434.082,-26.367,-51.270,-951.660,0.000
1606144046.392,-384.277,-53.223,-43.945,-890.137,0.000
1606144046.396,147.461,-36.621,-14.160,246.094,0.000
1606144046.400,437.500,-10.254,0.977,-896.973,0.000
1606144046.404,117.676,-11.230,-13.672,429.199,0.000
1606144046.408,-390.625,-41.016,-41.016,-810.547,0.000
1606144046.411,-435.059,-56.641,-41.992,-985.352,0.000
1606144046.415,70.801,-31.738,-20.020,117.188,0.000
1606144046.419,423.828,-13.672,-6.348,-912.598,0.000
1606144046.423,172.852,-19.531,-16.602,565.430,0.000
1606144046.427,-346.680,-44.434,-44.434,-656.250,0.000
1606144046.431,-468.262,-54.688,-46.387,-1000.000,0.000
1606144046.435,-3.906,-36.133,-19.531,-24.414,0.000
1606144046.439,399.902,-12.207,-7.812,-945.801,0.000
1606144046.443,231.445,-12.695,-13.672,685.547,0.000
1606144046.447,-281.738,-41.016,-36.621,-498.535,0.000
1606144046.451,-479.492,-50.293,-51.758,-1000.000,0.000
1606144046.454,-84.473,-31.738,-36.133,-202.148,0.000
1606144046.458,367.188,-15.137,-13.184,976.074,0.000
1606144046.462,283.203,-11.230,-17.090,784.180,0.000
1606144046.466,-235.352,-18.066,-46.387,-371.094,0.000
1606144046.470,-488.281,-39.551,-60.059,-1000.000,0.000
1606144046.474,-155.273,-32.227,-34.668,-396.484,0.000
1606144046.478,331.055,-1.953,-8.301,848.633,0.000
1606144046.482,336.426,2.930,-11.719,882.812,0.000
1606144046.486,-189.941,-14.160,-33.691,-257.812,0.000
1606144046.490,-516.602,-37.109,-48.340,-1000.000,0.000
1606144046.494,-227.539,-33.203,-40.039,-547.363,0.000
1606144046.497,285.645,-15.625,-16.113,699.219,0.000
1606144046.501,354.004,-16.602,-17.090,973.633,0.000
1606144046.505,-123.047,-29.785,-50.293,-128.418,0.000
1606144046.509,-486.328,-48.828,-64.453,-1000.000,0.000
1606144046.513,-283.691,-41.992,-47.852,-667.480,0.000
1606144046.517,240.234,-12.207,-11.719,538.086,0.000
1606144046.521,405.273,-13.184,0.488,-951.660,0.000
1606144046.525,-41.504,-33.691,-23.438,38.086,0.000
1606144046.529,-475.098,-42.480,-45.898,-1000.000,0.000
1606144046.533,-336.914,-41.016,-41.504,-776.855,0.000
1606144046.536,192.383,-22.949,-17.090,387.207,0.000
1606144046.540,415.527,-17.090,-7.324,-912.109,0.000
1606144046.544,35.156,0.977,-22.949,220.215,0.000
1606144046.548,-437.012,-6.836,-43.945,-969.238,0.000
1606144046.552,-390.625,-43.945,-37.598,-879.883,0.000
1606144046.556,139.648,-27.344,-7.324,258.789,0.000
1606144046.560,431.641,-8.789,2.930,-896.973,0.000
1606144046.564,104.492,-20.020,-18.066,387.695,0.000
1606144046.568,-392.578,-49.805,-39.062,-843.262,0.000
1606144046.572,-418.457,-57.129,-41.016,-971.191,0.000
1606144046.576,77.148,-31.738,-21.484,132.812,0.000
1606144046.579,418.457,-5.859,-7.324,-906.738,0.000
1606144046.583,171.387,-17.090,-15.137,538.086,0.000
1606144046.587,-338.867,-42.480,-38.574,-690.918,0.000
1606144046.591,-463.379,-43.945,-47.363,-1000.000,0.000
1606144046.595,-1.465,-27.832,-19.531,-8.789,0.000
1606144046.599,408.691,-14.160,2.441,-940.430,0.000
1606144046.603,234.863,19.531,-12.207,667.969,0.000
1606144046.607,-298.340,11.719,-43.945,-519.043,0.000
1606144046.611,-495.117,-50.293,-63.965,-1000.000,0.000
1606144046.615,-70.801,-43.457,-46.875,-176.758,0.000
1606144046.619,379.395,-19.043,-14.160,993.652,0.000
1606144046.622,285.156,-12.207,-14.160,770.996,0.000
1606144046.626,-245.117,-37.109,-47.852,-389.648,0.000
1606144046.630,-504.883,-60.059,-59.570,-1000.000,0.000
1606144046.634,-138.672,-42.969,-34.668,-350.586,0.000
1606144046.638,354.004,-14.648,-8.301,887.207,0.000
1606144046.642,331.543,-13.184,-10.742,868.652,0.000
1606144046.646,-187.012,-5.371,-37.598,-271.973,0.000
1606144046.650,-496.582,-27.832,-50.293,-1000.000,0.000
1606144046.654,-204.102,-43.945,-32.715,-509.766,0.000
1606144046.658,312.988,-20.508,-3.418,735.840,0.000
1606144046.661,371.582,-19.531,-4.395,958.008,0.000
1606144046.665,-134.277,-44.922,-40.039,-150.879,0.000
1606144046.669,-493.164,-63.965,-63.477,-1000.000,0.000
1606144046.673,-269.531,-51.270,-44.434,-648.926,0.000
1606144046.677,249.023,-26.855,-11.719,564.453,0.000
1606144046.681,391.113,-21.484,-3.418,-960.938,0.000
1606144046.685,-41.016,-19.531,-31.250,8.789,0.000
1606144046.689,-458.008,-44.922,-52.246,-1000.000,0.000
1606144046.693,-323.730,-53.223,-43.945,-761.230,0.000
1606144046.697,200.684,-24.414,-18.066,407.227,0.000
1606144046.701,397.949,-8.789,-10.254,-922.852,0.000
1606144046.704,-7.324,-26.367,-36.133,166.992,0.000
1606144046.708,-468.750,-62.012,-56.641,-996.094,0.000
1606144046.712,-399.414,-57.129,-43.457,-862.793,0.000
1606144046.716,127.441,-22.949,-11.230,276.855,0.000
1606144046.720,391.113,-9.766,2.930,-899.414,0.000
1606144046.724,58.105,-19.531,-16.113,344.727,0.000
1606144046.728,-422.852,-38.574,-36.133,-876.465,0.000
1606144046.732,-446.777,-43.457,-37.598,-952.148,0.000
1606144046.736,62.500,-19.043,-14.648,158.691,0.000
1606144046.740,409.668,-9.277,3.906,-903.320,0.000
1606144046.744,145.020,0.977,-7.812,498.047,0.000
1606144046.747,-384.277,-1.465,-35.645,-728.027,0.000
1606144046.751,-499.023,-34.180,-36.621,-1000.000,0.000
1606144046.755,-10.254,-21.484,-0.977,-7.324,0.000
1606144046.759,375.977,-3.418,16.113,-932.129,0.000
1606144046.763,173.828,-19.043,-10.254,624.023,0.000
1606144046.767,-347.168,-41.504,-38.086,-575.684,0.000
1606144046.771,-519.043,-46.875,-44.922,-1000.000,0.000
1606144046.775,-74.219,-29.297,-27.344,-162.598,0.000
1606144046.779,373.047,-13.672,-8.301,-994.629,0.000
1606144046.783,250.977,-7.324,-19.043,741.699,0.000
1606144046.786,-274.414,-16.113,-42.969,-427.734,0.000
1606144046.790,-492.676,-41.992,-48.828,-1000.000,0.000
1606144046.794,-114.258,-29.785,-33.691,-325.195,0.000
1606144046.798,355.469,-12.695,-12.207,901.855,0.000
1606144046.802,326.172,-21.973,-14.648,849.609,0.000
1606144046.806,-202.148,-44.434,-38.086,-300.293,0.000
1606144046.810,-493.164,-56.152,-48.828,-1000.000,0.000
1606144046.814,-162.109,-41.016,-39.062,-472.656,0.000
1606144046.818,326.660,-28.809,-22.461,765.625,0.000
1606144046.822,390.137,-15.137,-20.020,949.707,0.000
1606144046.826,-103.516,-6.836,-44.434,-154.297,0.000
1606144046.829,-492.676,-46.387,-64.941,-1000.000,0.000
1606144046.833,-252.930,-55.664,-50.293,-620.117,0.000
1606144046.837,276.367,-26.367,-14.160,602.539,0.000
1606144046.841,415.527,-18.555,-2.930,-970.215,0.000
1606144046.845,-52.246,-29.297,-30.762,-14.160,0.000
1606144046.849,-468.262,-60.547,-51.270,-1000.000,0.000
1606144046.853,-295.410,-60.059,-42.480,-728.027,0.000
1606144046.857,250.000,-23.926,-6.836,452.637,0.000
1606144046.861,448.242,-11.719,5.859,-923.828,0.000
1606144046.865,22.949,-29.785,-27.344,157.715,0.000
1606144046.869,-425.293,-53.711,-51.270,-1000.000,0.000
1606144046.872,-344.727,-54.688,-39.062,-829.102,0.000
1606144046.876,194.336,-36.621,-13.184,322.754,0.000
1606144046.880,461.426,-25.391,-4.395,-901.855,0.000
1606144046.884,90.332,-19.043,-21.973,343.262,0.000
1606144046.888,-397.949,-40.527,-46.875,-885.742,0.000
1606144046.892,-391.602,-57.617,-45.410,-926.758,0.000
1606144046.896,128.418,-27.344,-16.602,205.078,0.000
1606144046.900,454.590,-10.742,0.977,-901.367,0.000
1606144046.904,170.898,-20.996,-17.578,502.930,0.000
1606144046.908,-354.492,-45.410,-44.922,-735.352,0.000
1606144046.911,-440.430,-55.664,-49.316,-1000.000,0.000
1606144046.915,53.223,-37.109,-24.414,67.871,0.000
1606144046.919,444.824,-21.484,-2.930,-924.316,0.000
1606144046.923,229.004,0.000,-16.602,625.488,0.000
1606144046.927,-317.383,-4.883,-51.270,-578.613,0.000
1606144046.931,-465.332,-52.734,-61.035,-1000.000,0.000
1606144046.935,-14.648,-46.875,-35.156,-90.820,0.000
1606144046.939,405.273,-12.695,-10.742,-971.680,0.000
1606144046.943,280.273,-10.742,-19.043,730.957,0.000
1606144046.947,-246.582,-42.480,-50.293,-437.012,0.000
1606144046.951,-484.375,-56.152,-55.176,-1000.000,0.000
1606144046.954,-99.609,-34.180,-28.320,-273.438,0.000
1606144046.958,377.441,-15.625,-5.371,933.105,0.000
1606144046.962,327.637,-6.348,-15.137,836.914,0.000
1606144046.966,-209.473,-20.020,-43.457,-308.594,0.000
1606144046.970,-496.094,-44.922,-53.711,-1000.000,0.000
1606144046.974,-153.320,-35.156,-32.227,-446.777,0.000
1606144046.978,349.121,-18.555,-5.859,794.922,0.000
1606144046.982,367.188,-10.742,-6.348,930.664,0.000
1606144046.986,-141.602,-31.250,-36.621,-187.500,0.000
1606144046.990,-484.863,-58.594,-63.965,-1000.000,0.000
1606144046.994,-228.516,-43.945,-48.828,-601.562,0.000
1606144046.997,299.805,-11.230,-11.230,632.324,0.000
1606144047.001,407.715,-6.348,-5.859,-987.305,0.000
1606144047.005,-76.172,-34.668,-39.062,-54.199,0.000
1606144047.009,-474.609,-51.270,-52.734,-1000.000,0.000
1606144047.013,-279.297,-35.156,-40.039,-709.961,0.000
1606144047.017,253.906,-7.324,-19.531,478.516,0.000
1606144047.021,428.711,-6.348,-9.766,-935.059,0.000
1606144047.025,-5.371,-17.578,-27.832,115.723,0.000
1606144047.029,-448.730,-33.203,-46.875,-1000.000,0.000
1606144047.033,-337.891,-41.016,-42.480,-811.523,0.000
1606144047.036,191.895,-20.996,-17.578,344.238,0.000
1606144047.040,439.453,-11.230,-3.906,-902.832,0.000
1606144047.044,71.289,-27.344,-21.973,302.246,0.000
1606144047.048,-416.504,-50.293,-47.363,-915.527,0.000
1606144047.052,-406.738,-47.852,-49.316,-916.504,0.000
1606144047.056,123.535,-24.902,-22.461,213.867,0.000
1606144047.060,439.941,-14.160,-12.695,-898.926,0.000
1606144047.064,126.465,-33.691,-37.109,462.891,0.000
1606144047.068,-378.418,-61.035,-52.734,-774.902,0.000
1606144047.072,-435.547,-54.688,-48.828,-1000.000,0.000
1606144047.076,64.941,-23.926,-25.879,92.773,0.000
1606144047.079,432.129,-4.395,-10.742,-918.457,0.000
1606144047.083,203.613,-15.137,-25.391,600.586,0.000
1606144047.087,-327.637,-41.504,-52.246,-611.328,0.000
1606144047.091,-471.191,-47.363,-51.758,-1000.000,0.000
1606144047.095,-18.066,-31.738,-30.273,-68.848,0.000
1606144047.099,406.738,-15.137,-12.695,-962.891,0.000
1606144047.103,268.066,-11.230,-22.461,715.332,0.000
1606144047.107,-271.484,-26.367,-46.875,-457.031,0.000
1606144047.111,-488.770,-47.363,-48.340,-1000.000,0.000
1606144047.115,-90.820,-35.645,-28.809,-250.000,0.000
1606144047.119,355.957,-18.066,-16.602,947.754,0.000
1606144047.122,294.434,-10.254,-21.973,812.988,0.000
1606144047.126,-223.145,-29.785,-41.504,-339.844,0.000
1606144047.130,-500.488,-56.641,-54.199,-1000.000,0.000
1606144047.134,-167.480,-40.527,-42.969,-427.734,0.000
1606144047.138,325.684,-10.254,-15.625,817.871,0.000
1606144047.142,347.656,-1.465,-9.766,910.156,0.000
1606144047.146,-157.227,-26.855,-37.598,-219.727,0.000
1606144047.150,-489.746,-45.898,-53.223,-1000.000,0.000
1606144047.154,-223.145,-39.062,-37.598,-571.289,0.000
1606144047.158,290.039,-20.020,-20.996,665.527,0.000
1606144047.161,395.020,-6.836,-14.648,993.164,0.000
1606144047.165,-76.660,-25.391,-28.809,-88.379,0.000
1606144047.169,-484.863,-49.805,-57.129,-1000.000,0.000
1606144047.173,-299.805,-43.457,-55.176,-698.730,0.000
1606144047.177,240.234,-13.184,-24.902,496.094,0.000
1606144047.181,411.133,-1.953,-11.230,-940.918,0.000
1606144047.185,-17.090,-24.902,-28.809,78.613,0.000
1606144047.189,-458.496,-41.504,-53.223,-1000.000,0.000
1606144047.193,-359.863,-41.016,-49.316,-802.246,0.000
1606144047.197,176.758,-21.484,-19.043,356.445,0.000
1606144047.201,429.688,-9.766,-3.418,-909.180,0.000
1606144047.204,49.805,-25.391,-23.438,258.301,0.000
1606144047.208,-432.129,-49.805,-52.734,-939.941,0.000
1606144047.212,-404.785,-57.129,-46.387,-901.855,0.000
1606144047.216,125.000,-28.809,-13.184,229.492,0.000
1606144047.220,428.223,-10.254,-1.953,-898.438,0.000
1606144047.224,109.863,-21.973,-17.578,425.781,0.000
1606144047.228,-377.930,-37.598,-39.062,-810.059,0.000
1606144047.232,-428.711,-41.992,-46.875,-986.328,0.000
1606144047.236,72.754,-28.809,-22.461,114.746,0.000
1606144047.240,435.059,-9.766,-3.906,-913.086,0.000
1606144047.244,185.547,-4.395,-27.344,570.312,0.000
1606144047.247,-331.055,-26.855,-52.246,-648.926,0.000
1606144047.251,-448.242,-38.574,-43.945,-1000.000,0.000
1606144047.255,0.488,-19.043,-18.066,-36.133,0.000
1606144047.259,413.086,-8.789,-4.883,-951.660,0.000
1606144047.263,258.789,-6.348,-21.973,688.965,0.000
1606144047.267,-280.273,-27.832,-44.434,-488.770,0.000
1606144047.271,-490.723,-55.664,-42.480,-1000.000,0.000
1606144047.275,-79.590,-40.039,-26.367,-212.402,0.000
1606144047.279,374.023,-19.043,-4.395,974.121,0.000
1606144047.283,288.086,-24.902,-7.324,791.992,0.000
1606144047.286,-236.816,-45.898,-38.574,-362.793,0.000
1606144047.290,-516.602,-58.594,-52.734,-1000.000,0.000
1606144047.294,-162.598,-43.457,-35.156,-384.277,0.000
1606144047.298,337.402,-25.879,-9.277,853.027,0.000
1606144047.302,343.262,-9.766,-13.184,890.137,0.000
1606144047.306,-170.410,-5.859,-36.621,-246.094,0.000
1606144047.310,-482.422,-34.180,-52.246,-1000.000,0.000
1606144047.314,-193.848,-36.133,-39.062,-541.992,0.000
1606144047.318,304.199,-14.160,-12.695,699.219,0.000
1606144047.322,382.812,-13.184,-10.254,981.934,0.000
1606144047.326,-99.609,-36.621,-33.691,-108.398,0.000
1606144047.329,-484.863,-55.176,-53.223,-1000.000,0.000
1606144047.333,-277.832,-47.852,-38.574,-666.992,0.000
1606144047.337,256.836,-21.973,-9.766,538.086,0.000
1606144047.341,405.762,-12.207,-1.953,-948.242,0.000
1606144047.345,-47.852,-26.367,-29.785,52.246,0.000
1606144047.349,-473.633,-50.293,-53.711,-1000.000,0.000
1606144047.353,-335.938,-52.734,-44.434,-774.902,0.000
1606144047.357,198.242,-25.879,-18.555,390.137,0.000
1606144047.361,424.316,-15.625,-7.324,-911.133,0.000
1606144047.365,39.551,-38.574,-30.273,223.633,0.000
1606144047.369,-435.547,-56.641,-58.594,-972.168,0.000
1606144047.372,-388.184,-48.340,-47.363,-869.629,0.000
1606144047.376,159.668,-25.879,-17.578,271.484,0.000
1606144047.380,438.965,-11.230,-9.277,-898.926,0.000
1606144047.384,104.004,-20.020,-19.043,406.738,0.000
1606144047.388,-379.883,-34.668,-43.945,-828.125,0.000
1606144047.392,-420.410,-49.316,-58.594,-973.145,0.000
1606144047.396,77.148,-33.203,-29.785,137.695,0.000
1606144047.400,423.340,-15.625,-12.695,-907.715,0.000
1606144047.404,169.434,-8.789,-31.250,543.457,0.000
1606144047.408,-349.609,-20.996,-46.875,-682.129,0.000
1606144047.411,-445.801,-51.270,-46.875,-1000.000,0.000
1606144047.415,37.109,-35.156,-25.391,0.488,0.000
1606144047.419,409.668,-17.090,-9.766,-939.453,0.000
1606144047.423,226.562,-20.996,-11.719,669.922,0.000
1606144047.427,-296.875,-44.434,-36.133,-519.043,0.000
1606144047.431,-476.562,-52.246,-54.688,-1000.000,0.000
1606144047.435,-49.316,-28.320,-32.227,-161.133,0.000
1606144047.439,393.555,-12.207,-2.930,999.512,0.000
1606144047.443,290.039,-1.953,-8.789,766.113,0.000
1606144047.447,-244.629,-20.996,-41.504,-395.020,0.000
1606144047.451,-502.930,-54.199,-55.664,-1000.000,0.000
1606144047.454,-145.020,-34.180,-33.203,-351.074,0.000
1606144047.458,348.633,-12.695,-2.441,880.859,0.000
1606144047.462,342.285,-21.484,-5.859,870.117,0.000
1606144047.466,-180.664,-37.109,-32.227,-271.484,0.000
1606144047.470,-501.953,-51.270,-44.922,-1000.000,0.000
1606144047.474,-208.496,-44.922,-27.832,-511.719,0.000
1606144047.478,304.688,-28.320,-5.371,730.957,0.000
1606144047.482,386.230,-8.789,-5.859,965.332,0.000
1606144047.486,-106.934,8.301,-33.691,-137.695,0.000
1606144047.490,-478.516,-19.043,-45.410,-1000.000,0.000
1606144047.494,-254.395,-44.434,-26.367,-643.066,0.000
1606144047.497,263.184,-25.391,-3.906,571.777,0.000
1606144047.501,414.062,-5.859,9.766,-960.938,0.000
1606144047.505,-40.039,-23.926,-11.719,11.719,0.000
1606144047.509,-469.238,-51.758,-41.016,-1000.000,0.000
1606144047.513,-307.617,-46.875,-39.551,-753.418,0.000
1606144047.517,223.633,-23.438,-11.230,420.410,0.000
1606144047.521,423.340,-16.113,0.000,-921.387,0.000
1606144047.525,30.273,-27.344,-18.066,186.523,0.000
1606144047.529,-422.363,-43.945,-38.086,-987.305,0.000
1606144047.533,-348.145,-42.969,-38.086,-856.445,0.000
1606144047.536,175.781,-17.578,-15.625,288.086,0.000
1606144047.540,441.406,-8.301,0.000,-897.461,0.000
1606144047.544,102.051,-6.348,-13.672,370.605,0.000
1606144047.548,-390.625,-28.320,-48.828,-862.793,0.000
1606144047.552,-406.738,-52.734,-56.641,-951.660,0.000
1606144047.556,103.516,-22.461,-23.438,167.480,0.000
1606144047.560,424.316,0.000,-2.441,-906.738,0.000
1606144047.564,155.762,-17.578,-15.137,538.574,0.000
1606144047.568,-366.699,-44.922,-39.551,-741.699,0.000
1606144047.572,-408.691,-50.293,-34.180,-939.941,0.000
1606144047.576,92.285,-23.438,-11.230,199.219,0.000
1606144047.579,432.617,-7.324,3.906,-946.289,0.000
1606144047.583,242.188,1.465,-4.883,645.508,0.000
1606144047.587,-300.293,-3.418,-43.945,-542.969,0.000
1606144047.591,-476.562,-46.387,-53.711,-1000.000,0.000
1606144047.595,-41.504,-49.316,-26.855,-132.812,0.000
1606144047.599,407.227,-21.484,1.953,-988.281,0.000
1606144047.603,290.039,-23.926,-7.812,749.023,0.000
1606144047.607,-261.719,-53.711,-38.086,-416.016,0.000
1606144047.611,-498.047,-64.453,-43.945,-1000.000,0.000
1606144047.615,-105.957,-41.504,-32.227,-308.105,0.000
1606144047.619,361.328,-18.555,-11.230,908.691,0.000
1606144047.622,321.777,-1.465,-9.277,854.004,0.000
1606144047.626,-187.988,-15.137,-40.527,-287.598,0.000
1606144047.630,-505.859,-56.641,-58.105,-1000.000,0.000
1606144047.634,-208.984,-49.805,-40.527,-486.328,0.000
1606144047.638,312.012,-16.113,-7.812,764.648,0.000
1606144047.642,360.840,-15.137,-1.465,940.430,0.000
1606144047.646,-144.043,-43.457,-34.668,-178.711,0.000
1606144047.650,-490.723,-61.523,-56.152,-1000.000,0.000
1606144047.654,-253.906,-52.246,-41.016,-619.141,0.000
1606144047.658,272.949,-22.461,-11.230,601.562,0.000
1606144047.661,407.715,-6.836,-4.395,-969.727,0.000
1606144047.665,-67.383,-23.926,-30.273,-12.207,0.000
1606144047.669,-470.215,-46.387,-42.480,-1000.000,0.000
1606144047.673,-307.617,-45.410,-35.645,-732.910,0.000
1606144047.677,217.773,-23.926,-14.160,448.242,0.000
1606144047.681,422.363,-22.461,3.418,-924.805,0.000
1606144047.685,0.000,-8.301,-20.508,151.367,0.000
1606144047.689,-453.125,-19.043,-46.387,-1000.000,0.000
1606144047.693,-365.723,-59.570,-41.016,-831.543,0.000
1606144047.697,169.922,-39.551,-15.137,318.359,0.000
1606144047.701,439.453,-19.043,-0.488,-900.391,0.000
1606144047.704,78.125,-37.598,-16.602,340.332,0.000
1606144047.708,-411.621,-69.824,-40.039,-891.602,0.000
1606144047.712,-400.391,-64.453,-37.598,-918.457,0.000
1606144047.716,108.887,-29.297,-18.066,215.820,0.000
1606144047.720,432.129,-11.719,-19.043,-902.832,0.000
1606144047.724,160.156,-0.488,-27.344,493.164,0.000
1606144047.728,-367.188,-27.344,-40.527,-740.723,0.000
1606144047.732,-459.473,-58.594,-48.340,-1000.000,0.000
1606144047.736,35.156,-34.180,-26.855,62.012,0.000
1606144047.740,419.434,-13.184,-5.859,-922.852,0.000
1606144047.744,207.031,-19.531,-18.066,613.770,0.000
1606144047.747,-316.406,-44.922,-47.363,-589.844,0.000
1606144047.751,-476.562,-56.152,-51.758,-1000.000,0.000
1606144047.755,-14.648,-35.156,-29.785,-95.215,0.000
1606144047.759,425.781,-16.602,-10.742,-972.656,0.000
1606144047.763,268.555,-9.277,-18.555,736.816,0.000
1606144047.767,-280.273,-20.996,-54.199,-430.176,0.000
1606144047.771,-504.395,-47.852,-63.965,-1000.000,0.000
1606144047.775,-106.445,-39.062,-34.668,-269.043,0.000
1606144047.779,359.863,-20.996,-12.695,934.082,0.000
1606144047.783,312.012,-22.461,-17.090,833.984,0.000
1606144047.786,-209.473,-39.062,-45.898,-310.547,0.000
1606144047.790,-501.953,-49.316,-63.965,-1000.000,0.000
1606144047.794,-172.363,-29.297,-35.645,-444.336,0.000
1606144047.798,333.496,-4.395,-8.789,801.758,0.000
1606144047.802,349.121,-9.277,-9.766,922.852,0.000
1606144047.806,-148.438,-36.133,-39.551,-199.707,0.000
1606144047.810,-479.004,-47.852,-59.082,-1000.000,0.000
1606144047.814,-245.117,-39.551,-38.574,-598.633,0.000
1606144047.818,260.742,-28.809,-13.184,632.324,0.000
1606144047.822,376.465,-20.508,-12.695,-992.188,0.000
1606144047.826,-93.262,-13.184,-30.273,-61.035,0.000
1606144047.829,-490.234,-33.691,-37.109,-1000.000,0.000
1606144047.833,-312.988,-44.922,-33.691,-718.750,0.000
1606144047.837,211.426,-21.973,-14.160,467.285,0.000
1606144047.841,416.504,-10.742,-2.930,-933.594,0.000
1606144047.845,-3.418,-30.273,-31.738,105.957,0.000
1606144047.849,-467.773,-58.594,-56.152,-1000.000,0.000
1606144047.853,-367.188,-52.246,-42.969,-812.988,0.000
1606144047.857,173.828,-20.996,-8.301,343.262,0.000
1606144047.861,427.734,-18.066,4.883,-903.320,0.000
1606144047.865,53.223,-8.789,-22.461,292.969,0.000
1606144047.869,-426.758,-12.207,-44.434,-918.945,0.000
1606144047.872,-414.551,-46.875,-43.945,-916.992,0.000
1606144047.876,115.723,-33.203,-18.555,208.984,0.000
1606144047.880,436.523,-20.020,1.465,-898.926,0.000
1606144047.884,126.465,-36.133,-12.207,454.590,0.000
1606144047.888,-375.977,-50.781,-46.387,-783.691,0.000
1606144047.892,-440.430,-51.758,-46.387,-1000.000,0.000
1606144047.896,50.781,-36.133,-15.137,90.820,0.000
1606144047.900,426.758,-20.508,0.977,-917.969,0.000
1606144047.904,198.730,3.418,-16.602,598.633,0.000
1606144047.908,-323.242,-16.602,-48.828,-617.676,0.000
1606144047.911,-465.332,-54.199,-55.176,-1000.000,0.000
1606144047.915,-13.672,-30.762,-28.320,-55.176,0.000
1606144047.919,406.250,-9.277,-5.371,-958.008,0.000
1606144047.923,249.023,-18.066,-19.531,708.008,0.000
1606144047.927,-284.668,-47.852,-45.410,-466.797,0.000
1606144047.931,-490.723,-61.035,-52.734,-1000.000,0.000
1606144047.935,-85.449,-41.504,-34.180,-228.516,0.000
1606144047.939,400.879,-9.277,-6.348,961.914,0.000
1606144047.943,317.383,1.953,-7.324,803.711,0.000
1606144047.947,-239.258,-22.461,-44.922,-349.121,0.000
1606144047.951,-490.723,-44.434,-64.941,-1000.000,0.000
1606144047.954,-156.738,-33.691,-41.504,-408.691,0.000
1606144047.958,330.078,-19.043,-14.648,827.637,0.000
1606144047.962,347.656,-9.277,-16.113,905.762,0.000
1606144047.966,-162.598,16.113,-35.156,-219.727,0.000
1606144047.970,-493.652,-16.113,-56.641,-1000.000,0.000
1606144047.974,-228.516,-37.109,-53.711,-575.195,0.000
1606144047.978,282.715,-11.719,-19.531,662.598,0.000
1606144047.982,385.254,-7.324,-7.324,995.117,0.000
1606144047.986,-95.215,-33.691,-32.715,-85.449,0.000
1606144047.990,-479.004,-60.547,-50.293,-1000.000,0.000
1606144047.994,-266.602,-45.410,-31.250,-678.223,0.000
1606144047.997,269.531,-11.719,0.977,523.926,0.000
1606144048.001,414.062,-15.625,-0.977,-942.383,0.000
1606144048.005,-35.645,-24.902,-29.297,75.195,0.000
1606144048.009,-467.285,-43.945,-49.805,-1000.000,0.000
1606144048.013,-354.492,-53.711,-39.062,-796.875,0.000
1606144048.017,180.664,-30.273,-11.230,363.770,0.000
1606144048.021,418.457,-18.555,-1.953,-909.180,0.000
1606144048.025,41.992,-31.738,-21.484,251.953,0.000
1606144048.029,-419.922,-53.223,-45.898,-948.730,0.000
1606144048.033,-385.742,-55.176,-46.875,-891.602,0.000
1606144048.036,133.789,-32.715,-15.625,244.141,0.000
1606144048.040,442.871,-8.789,2.930,-898.926,0.000
1606144048.044,131.348,-18.555,-20.020,437.012,0.000
1606144048.048,-379.883,-49.316,-52.246,-801.270,0.000
1606144048.052,-447.754,-54.199,-48.828,-985.352,0.000
1606144048.056,62.988,-24.902,-15.137,120.117,0.000
1606144048.060,425.293,-1.465,-2.930,-911.621,0.000
1606144048.064,175.293,-10.742,-16.602,564.941,0.000
1606144048.068,-340.332,-37.598,-41.016,-656.738,0.000
1606144048.072,-469.238,-49.805,-55.176,-1000.000,0.000
1606144048.076,-4.883,-33.691,-23.926,-28.809,0.000
1606144048.079,408.203,-11.719,1.953,-948.242,0.000
1606144048.083,240.723,-9.277,-15.137,687.500,0.000
1606144048.087,-287.598,-32.227,-37.598,-493.164,0.000
1606144048.091,-479.004,-49.316,-50.293,-1000.000,0.000
1606144048.095,-64.941,-32.715,-36.133,-202.148,0.000
1606144048.099,378.906,-20.508,-9.766,975.098,0.000
1606144048.103,293.945,2.441,-9.766,791.992,0.000
1606144048.107,-235.840,0.977,-37.109,-364.258,0.000
1606144048.111,-489.258,-45.410,-49.316,-1000.000,0.000
1606144048.115,-135.254,-33.691,-33.203,-370.117,0.000
1606144048.119,344.727,-14.160,-7.812,862.305,0.000
1606144048.122,344.727,-19.043,-2.441,885.254,0.000
1606144048.126,-181.152,-37.109,-29.297,-249.512,0.000
1606144048.130,-491.699,-57.129,-55.664,-1000.000,0.000
1606144048.134,-209.961,-50.293,-41.992,-536.621,0.000
1606144048.138,281.250,-25.391,-7.324,708.984,0.000
1606144048.142,366.211,-9.277,-4.395,976.562,0.000
1606144048.146,-114.746,17.090,-32.715,-114.746,0.000
1606144048.150,-486.328,-20.020,-52.734,-1000.000,0.000
1606144048.154,-268.066,-48.828,-40.527,-663.086,0.000
1606144048.158,258.301,-22.949,-12.207,544.922,0.000
1606144048.161,410.156,-14.160,-2.441,-953.125,0.000
1606144048.165,-29.297,-25.879,-29.785,34.180,0.000
1606144048.169,-466.309,-56.152,-61.523,-1000.000,0.000
1606144048.173,-332.520,-52.734,-45.410,-770.020,0.000
1606144048.177,202.148,-26.855,-5.371,395.020,0.000
1606144048.181,422.363,-14.648,1.953,-910.156,0.000
1606144048.185,47.852,-2.930,-17.578,227.539,0.000
1606144048.189,-425.781,-33.691,-34.668,-970.215,0.000
1606144048.193,-389.648,-55.176,-36.621,-872.070,0.000
1606144048.197,148.926,-20.996,-15.625,270.996,0.000
1606144048.201,434.570,-12.207,0.000,-898.926,0.000
1606144048.204,100.586,-26.367,-16.602,396.484,0.000
1606144048.208,-390.137,-44.922,-35.645,-838.867,0.000
1606144048.212,-418.457,-52.246,-35.156,-960.938,0.000
1606144048.216,86.426,-28.320,-14.648,155.273,0.000
1606144048.220,433.594,-7.812,0.977,-907.715,0.000
1606144048.224,177.246,-12.695,-6.348,548.828,0.000
1606144048.228,-338.867,-27.344,-44.434,-681.641,0.000
1606144048.232,-440.430,-42.969,-59.082,-1000.000,0.000
1606144048.236,27.832,-28.809,-23.438,14.160,0.000
1606144048.240,402.832,-16.602,-1.953,-937.012,0.000
1606144048.244,219.238,1.465,-22.461,664.062,0.000
1606144048.247,-296.875,17.578,-48.340,-525.391,0.000
1606144048.251,-473.633,-34.668,-49.316,-1000.000,0.000
1606144048.255,-30.762,-42.480,-24.902,-150.879,0.000
1606144048.259,409.668,-14.160,-4.883,-998.535,0.000
1606144048.263,292.969,-17.090,-15.137,758.301,0.000
1606144048.267,-236.816,-39.062,-41.016,-399.902,0.000
1606144048.271,-479.492,-51.758,-50.781,-1000.000,0.000
1606144048.275,-122.070,-37.109,-32.715,-350.098,0.000
1606144048.279,345.215,-19.531,-9.766,882.324,0.000
1606144048.283,328.613,-1.465,-5.371,870.117,0.000
1606144048.286,-190.430,-11.230,-38.574,-270.996,0.000
1606144048.290,-508.789,-47.363,-53.223,-1000.000,0.000
1606144048.294,-212.891,-37.109,-28.809,-506.348,0.000
1606144048.298,294.434,-14.648,-8.301,739.746,0.000
1606144048.302,356.445,-11.719,-6.348,953.125,0.000
1606144048.306,-135.742,-41.016,-34.180,-159.668,0.000
1606144048.310,-494.141,-62.500,-48.340,-1000.000,0.000
1606144048.314,-253.418,-43.945,-27.344,-635.742,0.000
1606144048.318,269.531,-25.879,-7.324,576.660,0.000
1606144048.322,397.461,-14.160,-9.766,-960.938,0.000
1606144048.326,-48.828,-11.230,-24.902,16.113,0.000
1606144048.329,-455.078,-39.062,-42.969,-1000.000,0.000
1606144048.333,-323.730,-43.457,-41.016,-757.324,0.000
1606144048.337,199.219,-19.043,-17.090,418.457,0.000
1606144048.341,413.086,-5.859,-8.789,-921.387,0.000
1606144048.345,3.418,-14.648,-32.715,165.039,0.000
1606144048.349,-451.172,-43.457,-53.711,-1000.000,0.000
1606144048.353,-378.418,-56.641,-45.898,-850.098,0.000
1606144048.357,163.086,-31.250,-17.090,293.457,0.000
1606144048.361,434.570,-6.836,0.000,-900.391,0.000
1606144048.365,85.449,-19.531,-15.625,349.121,0.000
1606144048.369,-391.113,-41.016,-36.621,-876.465,0.000
1606144048.372,-406.250,-41.992,-41.016,-942.871,0.000
1606144048.376,96.191,-16.602,-20.020,177.246,0.000
1606144048.380,436.035,-7.324,-7.324,-904.297,0.000
1606144048.384,169.434,-8.301,-22.461,517.090,0.000
1606144048.388,-357.422,-30.762,-41.504,-717.285,0.000
1606144048.392,-453.613,-60.547,-48.340,-1000.000,0.000
1606144048.396,35.156,-36.621,-24.414,44.434,0.000
1606144048.400,428.223,-11.719,2.441,-928.223,0.000
1606144048.404,230.469,-19.043,-6.836,636.719,0.000
1606144048.408,-301.270,-41.016,-44.922,-561.523,0.000
1606144048.411,-467.773,-46.875,-61.523,-1000.000,0.000
1606144048.415,-30.273,-21.973,-36.133,-123.535,0.000
1606144048.419,406.738,-10.254,-4.883,-982.910,0.000
1606144048.423,291.016,10.254,-12.207,748.535,0.000
1606144048.427,-235.352,13.184,-45.898,-417.480,0.000
1606144048.431,-478.516,-41.504,-53.711,-1000.000,0.000
1606144048.435,-120.605,-41.992,-30.273,-302.734,0.000
1606144048.439,351.562,-20.508,-9.277,914.551,0.000
1606144048.443,331.543,-32.715,-18.066,846.191,0.000
1606144048.447,-188.965,-49.316,-36.133,-302.734,0.000
1606144048.451,-494.629,-54.688,-45.898,-1000.000,0.000
1606144048.454,-173.340,-40.039,-37.598,-466.309,0.000
1606144048.458,322.754,-30.273,-20.020,774.902,0.000
1606144048.462,368.164,-12.695,-13.672,945.312,0.000
1606144048.466,-125.488,-5.859,-34.180,-166.016,0.000
1606144048.470,-484.375,-46.387,-56.152,-1000.000,0.000
1606144048.474,-251.465,-52.734,-44.922,-616.211,0.000
1606144048.478,269.043,-28.320,-12.207,611.328,0.000
1606144048.482,391.602,-17.090,-5.371,-979.492,0.000
1606144048.486,-52.246,-34.180,-38.086,-27.344,0.000
1606144048.490,-451.660,-53.223,-59.082,-1000.000,0.000
1606144048.494,-303.711,-47.363,-47.363,-706.055,0.000
1606144048.497,210.449,-24.902,-16.113,496.094,0.000
1606144048.501,386.719,-8.789,-3.418,-940.430,0.000
1606144048.505,-29.785,-25.879,-26.367,97.168,0.000
1606144048.509,-484.863,-46.875,-45.898,-1000.000,0.000
1606144048.513,-396.484,-45.410,-40.039,-847.656,0.000
1606144048.517,122.559,-23.438,-18.555,293.457,0.000
1606144048.521,372.070,-13.672,-0.488,-909.668,0.000
1606144048.525,7.324,-3.418,-12.695,247.559,0.000
1606144048.529,-479.004,-5.371,-30.762,-929.688,0.000
1606144048.533,-481.445,-34.180,-25.879,-945.801,0.000
1606144048.536,24.414,-24.414,0.000,150.391,0.000
1606144048.540,340.820,-11.230,18.555,-900.879,0.000
1606144048.544,48.340,-25.391,0.977,416.016,0.000
1606144048.548,-460.449,-56.641,-30.273,-803.711,0.000
1606144048.552,-523.438,-61.523,-35.156,-1000.000,0.000
1606144048.556,-19.531,-34.180,-10.742,27.344,0.000
1606144048.560,367.188,-16.113,11.230,-922.363,0.000
1606144048.564,158.691,-2.441,-1.465,588.867,0.000
1606144048.568,-364.746,-23.926,-36.621,-625.977,0.000
1606144048.572,-510.742,-58.594,-46.387,-1000.000,0.000
1606144048.576,-58.105,-40.527,-24.414,-101.562,0.000
1606144048.579,380.371,-15.137,2.930,-970.703,0.000
1606144048.583,258.789,-25.391,-4.395,723.633,0.000
1606144048.587,-273.438,-54.199,-34.668,-453.125,0.000
1606144048.591,-500.000,-59.082,-47.363,-1000.000,0.000
1606144048.595,-106.934,-46.387,-27.832,-245.117,0.000
1606144048.599,374.512,-37.109,3.418,943.359,0.000
1606144048.603,334.473,-13.184,2.930,835.449,0.000
1606144048.607,-196.777,-17.090,-26.855,-304.688,0.000
1606144048.611,-485.840,-56.641,-46.875,-1000.000,0.000
1606144048.615,-136.230,-50.293,-33.691,-419.434,0.000
1606144048.619,363.770,-35.645,-6.836,817.871,0.000
1606144048.622,369.141,-11.719,1.465,927.246,0.000
1606144048.626,-139.160,-8.789,-22.949,-187.012,0.000
1606144048.630,-477.051,-52.734,-47.852,-1000.000,0.000
1606144048.634,-218.262,-55.176,-40.527,-566.406,0.000
1606144048.638,298.828,-34.180,-12.207,666.992,0.000
1606144048.642,399.414,-29.785,-6.836,-993.652,0.000
1606144048.646,-68.359,-49.805,-31.250,-57.617,0.000
1606144048.650,-454.102,-66.895,-47.363,-1000.000,0.000
1606144048.654,-277.344,-49.805,-43.457,-696.777,0.000
1606144048.658,252.930,-27.344,-18.066,493.652,0.000
1606144048.661,430.664,-20.020,-5.859,-935.059,0.000
1606144048.665,11.230,-5.859,-33.203,113.281,0.000
1606144048.669,-417.969,-36.133,-56.641,-1000.000,0.000
1606144048.673,-314.941,-58.105,-44.922,-793.457,0.000
1606144048.677,213.867,-28.320,-12.695,370.117,0.000
1606144048.681,445.312,-29.785,-0.977,-905.273,0.000
1606144048.685,74.707,-42.480,-14.648,296.387,0.000
1606144048.689,-396.973,-46.387,-47.852,-922.363,0.000
1606144048.693,-375.000,-48.828,-53.223,-899.414,0.000
1606144048.697,150.391,-23.438,-17.578,240.234,0.000
1606144048.701,451.660,-15.625,-7.812,-898.926,0.000
1606144048.704,140.137,-2.930,-33.691,452.148,0.000
1606144048.708,-371.094,-9.277,-52.734,-789.062,0.000
1606144048.712,-427.246,-52.734,-44.434,-989.746,0.000
1606144048.716,78.125,-37.598,-14.648,114.258,0.000
1606144048.720,442.871,-19.531,-1.953,-915.527,0.000
1606144048.724,200.684,-23.438,-15.137,585.938,0.000
1606144048.728,-330.078,-43.457,-44.922,-631.836,0.000
1606144048.732,-472.656,-58.105,-53.223,-1000.000,0.000
1606144048.736,-12.695,-39.551,-25.879,-35.156,0.000
1606144048.740,399.414,-22.949,-9.766,-952.148,0.000
1606144048.744,248.535,-22.461,-20.508,697.754,0.000
1606144048.747,-275.879,-44.434,-40.527,-477.539,0.000
1606144048.751,-488.770,-63.477,-46.875,-1000.000,0.000
1606144048.755,-73.730,-41.016,-28.320,-208.984,0.000
1606144048.759,381.348,-21.484,-6.836,971.191,0.000
1606144048.763,297.363,-9.277,-8.301,800.781,0.000
1606144048.767,-233.398,-26.855,-39.062,-350.098,0.000
1606144048.771,-497.070,-59.082,-57.617,-1000.000,0.000
1606144048.775,-149.414,-50.781,-34.668,-395.020,0.000
1606144048.779,341.797,-29.297,-3.418,844.238,0.000
1606144048.783,355.957,-23.926,-6.348,894.531,0.000
1606144048.786,-163.086,-45.898,-35.645,-239.746,0.000
1606144048.790,-498.047,-65.918,-52.734,-1000.000,0.000
1606144048.794,-206.543,-48.828,-39.551,-539.551,0.000
1606144048.798,301.758,-21.484,-11.230,700.684,0.000
1606144048.802,372.070,-9.766,-11.719,972.656,0.000
1606144048.806,-107.910,18.066,-46.875,-120.117,0.000
1606144048.810,-488.770,-14.648,-68.359,-1000.000,0.000
1606144048.814,-288.086,-45.410,-51.758,-677.734,0.000
1606144048.818,240.723,-14.648,-16.602,523.438,0.000
1606144048.822,403.320,-10.254,-2.441,-949.707,0.000
1606144048.826,-29.297,-24.414,-31.738,46.387,0.000
1606144048.829,-453.613,-41.504,-56.152,-1000.000,0.000
1606144048.833,-338.867,-47.363,-47.852,-789.551,0.000
1606144048.837,189.941,-28.320,-25.879,371.094,0.000
1606144048.841,424.316,-16.113,-5.859,-910.156,0.000
1606144048.845,39.551,-6.348,-21.484,226.562,0.000
1606144048.849,-432.129,-38.086,-57.617,-968.750,0.000
1606144048.853,-383.301,-57.617,-55.664,-872.070,0.000
1606144048.857,144.531,-28.809,-24.902,267.578,0.000
1606144048.861,430.664,-14.648,-4.883,-898.926,0.000
1606144048.865,109.863,-31.738,-17.090,404.785,0.000
1606144048.869,-380.371,-57.617,-43.945,-832.031,0.000
1606144048.872,-411.133,-52.246,-44.922,-969.727,0.000
1606144048.876,90.820,-33.691,-23.926,141.602,0.000
1606144048.880,428.223,-19.531,-4.395,-910.645,0.000
1606144048.884,173.828,-15.137,-5.371,557.617,0.000
1606144048.888,-330.078,-37.598,-33.203,-663.574,0.000
1606144048.892,-449.707,-61.035,-48.340,-1000.000,0.000
1606144048.896,13.672,-37.109,-23.438,-7.812,0.000
1606144048.900,416.016,-12.207,1.953,-941.406,0.000
1606144048.904,240.234,14.648,-1.465,679.688,0.000
1606144048.908,-299.805,-0.488,-36.133,-507.812,0.000
1606144048.911,-491.211,-49.805,-57.617,-1000.000,0.000
1606144048.915,-56.152,-36.133,-32.715,-170.410,0.000
1606144048.919,400.391,-19.531,-9.277,990.723,0.000
1606144048.923,297.363,-28.320,-14.160,778.320,0.000
1606144048.927,-259.766,-47.852,-32.227,-382.324,0.000
1606144048.931,-509.766,-51.270,-37.109,-1000.000,0.000
1606144048.935,-138.184,-33.691,-25.391,-346.191,0.000
1606144048.939,334.961,-27.832,-14.648,878.906,0.000
1606144048.943,326.172,-5.371,-13.184,874.023,0.000
1606144048.947,-187.500,-1.953,-35.645,-265.137,0.000
1606144048.951,-504.883,-47.363,-56.641,-1000.000,0.000
1606144048.954,-213.379,-41.992,-42.480,-525.879,0.000
1606144048.958,290.527,-16.602,-22.461,720.215,0.000
1606144048.962,372.559,-11.230,-19.531,964.355,0.000
1606144048.966,-114.258,-28.320,-38.574,-142.090,0.000
1606144048.970,-482.422,-43.945,-50.293,-1000.000,0.000
1606144048.974,-270.508,-39.551,-41.016,-648.926,0.000
1606144048.978,259.766,-22.461,-19.043,560.059,0.000
1606144048.982,418.945,-5.371,-10.254,-958.496,0.000
1606144048.986,-51.270,24.414,-32.715,17.578,0.000
1606144048.990,-472.656,-8.789,-59.082,-1000.000,0.000
1606144048.994,-319.336,-49.316,-51.270,-762.207,0.000
1606144048.997,213.379,-20.020,-19.531,410.156,0.000
1606144049.001,424.805,-15.137,-9.766,-916.504,0.000
1606144049.005,28.320,-31.738,-29.297,187.500,0.000
1606144049.009,-430.664,-46.875,-54.688,-989.258,0.000
1606144049.013,-364.258,-45.410,-51.758,-861.328,0.000
1606144049.017,160.645,-24.902,-25.391,281.250,0.000
1606144049.021,439.941,-15.625,-13.672,-901.855,0.000
1606144049.025,119.629,-12.695,-26.855,375.000,0.000
1606144049.029,-373.047,-26.855,-42.969,-854.004,0.000
1606144049.033,-403.809,-43.457,-37.598,-948.242,0.000
1606144049.036,119.629,-21.973,-13.672,174.316,0.000
1606144049.040,449.707,-7.812,-3.906,-905.762,0.000
1606144049.044,163.086,4.395,-16.602,518.555,0.000
1606144049.048,-343.262,-22.949,-41.504,-709.473,0.000
1606144049.052,-442.871,-57.129,-51.758,-1000.000,0.000
1606144049.056,30.273,-34.180,-20.508,23.438,0.000
1606144049.060,428.711,-16.602,6.836,-932.129,0.000
1606144049.064,227.539,-14.648,-10.254,645.996,0.000
1606144049.068,-308.105,-31.738,-38.086,-550.781,0.000
1606144049.072,-466.797,-45.410,-45.410,-1000.000,0.000
1606144049.076,-32.227,-25.879,-28.809,-121.582,0.000
1606144049.079,393.066,-21.484,-9.277,-985.840,0.000
1606144049.083,284.668,8.301,-12.695,751.465,0.000
1606144049.087,-234.863,28.320,-36.133,-407.715,0.000
1606144049.091,-484.375,-35.156,-53.711,-1000.000,0.000
1606144049.095,-118.652,-43.457,-41.504,-324.707,0.000
1606144049.099,353.027,-18.555,-5.859,901.855,0.000
1606144049.103,330.078,-14.648,0.977,847.656,0.000
1606144049.107,-196.777,-41.016,-32.227,-299.805,0.000
1606144049.111,-503.418,-58.594,-47.852,-1000.000,0.000
1606144049.115,-185.059,-39.062,-30.273,-485.352,0.000
1606144049.119,319.824,-32.715,-5.371,762.207,0.000
1606144049.122,360.352,-6.836,-4.395,937.012,0.000
1606144049.126,-142.578,4.395,-30.273,-181.152,0.000
1606144049.130,-503.906,-50.293,-45.410,-1000.000,0.000
1606144049.134,-266.602,-53.711,-34.668,-631.348,0.000
1606144049.138,255.859,-29.297,-12.207,590.820,0.000
1606144049.142,387.207,-24.902,-2.930,-977.539,0.000
1606144049.146,-67.383,-39.551,-18.066,-31.738,0.000
1606144049.150,-474.121,-59.570,-30.273,-1000.000,0.000
1606144049.154,-306.152,-56.641,-18.066,-726.562,0.000
1606144049.158,226.074,-28.320,5.371,454.590,0.000
1606144049.161,420.898,-18.066,6.348,-927.734,0.000
1606144049.165,5.371,-39.062,-18.555,148.438,0.000
1606144049.169,-453.613,-55.176,-40.527,-1000.000,0.000
1606144049.173,-370.117,-49.805,-40.527,-827.637,0.000
1606144049.177,165.039,-22.461,-10.254,324.707,0.000
1606144049.181,429.688,-22.461,5.371,-903.320,0.000
1606144049.185,70.312,9.277,-20.996,327.637,0.000
1606144049.189,-423.340,12.695,-51.270,-892.578,0.000
1606144049.193,-416.016,-42.969,-45.410,-934.082,0.000
1606144049.197,116.699,-32.227,-15.625,190.918,0.000
1606144049.201,436.035,-19.043,-3.906,-902.832,0.000
1606144049.204,144.531,-27.344,-19.531,489.746,0.000
1606144049.208,-340.332,-49.805,-39.062,-744.141,0.000
1606144049.212,-419.922,-57.129,-40.527,-1000.000,0.000
1606144049.216,34.668,-35.156,-20.020,72.754,0.000
1606144049.220,404.297,-28.320,-6.348,-923.828,0.000
1606144049.224,190.918,9.277,-16.113,618.652,0.000
1606144049.228,-334.961,8.301,-36.133,-587.402,0.000
1606144049.232,-484.863,-56.152,-46.875,-1000.000,0.000
1606144049.236,-33.203,-41.992,-28.809,-94.727,0.000
1606144049.240,390.137,-25.879,-7.812,-972.168,0.000
1606144049.244,249.023,-25.391,-9.277,723.145,0.000
1606144049.247,-278.320,-43.457,-32.227,-447.754,0.000
1606144049.251,-495.117,-59.570,-46.875,-1000.000,0.000
1606144049.255,-94.727,-28.809,-22.461,-274.414,0.000
1606144049.259,370.605,-17.090,-2.441,933.594,0.000
1606144049.263,312.012,5.371,-11.230,829.590,0.000
1606144049.267,-215.332,31.738,-40.527,-317.871,0.000
1606144049.271,-504.395,-31.250,-59.082,-1000.000,0.000
1606144049.275,-175.293,-51.758,-39.062,-457.031,0.000
1606144049.279,320.312,-20.020,-13.184,792.480,0.000
1606144049.283,349.121,-15.137,-3.906,919.434,0.000
1606144049.286,-157.715,-44.922,-25.879,-207.031,0.000
1606144049.290,-509.766,-74.219,-48.828,-1000.000,0.000
1606144049.294,-237.305,-48.828,-41.016,-595.215,0.000
1606144049.298,282.715,-9.766,-13.184,640.625,0.000
1606144049.302,366.211,-5.859,-12.695,-993.652,0.000
1606144049.306,-96.680,-31.738,-40.527,-63.965,0.000
1606144049.310,-478.027,-62.988,-54.199,-1000.000,0.000
1606144049.314,-301.270,-54.199,-37.109,-709.473,0.000
1606144049.318,230.957,-21.484,-2.930,480.469,0.000
1606144049.322,409.668,-12.207,2.441,-933.105,0.000
1606144049.326,-26.367,-26.855,-20.996,103.027,0.000
1606144049.329,-463.867,-59.082,-45.898,-1000.000,0.000
1606144049.333,-355.957,-59.570,-40.039,-810.059,0.000
1606144049.337,179.199,-38.574,-11.230,343.262,0.000
1606144049.341,422.852,-20.020,-3.906,-904.785,0.000
1606144049.345,65.918,-20.996,-22.949,286.133,0.000
1606144049.349,-420.410,-54.688,-48.828,-928.223,0.000
1606144049.353,-415.039,-60.059,-52.246,-902.832,0.000
1606144049.357,119.141,-29.785,-22.949,233.398,0.000
1606144049.361,424.805,-16.602,1.953,-899.414,0.000
1606144049.365,121.094,-7.324,-18.066,439.941,0.000
1606144049.369,-375.000,-20.996,-58.594,-794.434,0.000
1606144049.372,-423.828,-51.758,-60.059,-995.117,0.000
1606144049.376,66.895,-45.898,-28.320,101.074,0.000
1606144049.380,428.223,-20.508,-6.348,-915.527,0.000
1606144049.384,193.848,-19.043,-16.602,586.914,0.000
1606144049.388,-328.613,-47.363,-45.898,-629.395,0.000
1606144049.392,-468.750,-59.082,-52.734,-1000.000,0.000
1606144049.396,-13.672,-39.551,-28.320,-51.270,0.000
1606144049.400,409.668,-24.414,2.441,-956.543,0.000
1606144049.404,254.883,-2.441,-5.859,707.520,0.000
1606144049.408,-282.227,-17.090,-39.062,-468.750,0.000
1606144049.411,-485.840,-62.012,-51.758,-1000.000,0.000
1606144049.415,-74.219,-42.480,-28.320,-215.820,0.000
1606144049.419,389.160,-18.555,-1.953,966.797,0.000
1606144049.423,311.035,-22.949,-13.184,802.734,0.000
1606144049.427,-215.332,-42.969,-38.574,-340.820,0.000
1606144049.431,-490.723,-51.270,-55.664,-1000.000,0.000
1606144049.435,-124.023,-40.039,-38.086,-371.582,0.000
1606144049.439,386.719,-26.855,-7.324,889.160,0.000
1606144049.443,368.164,-20.020,5.371,895.996,0.000
1606144049.447,-162.109,-39.551,-29.785,-230.957,0.000
1606144049.451,-499.023,-62.012,-63.477,-1000.000,0.000
1606144049.454,-211.914,-42.969,-41.504,-553.711,0.000
1606144049.458,297.363,-20.508,-13.672,683.105,0.000
1606144049.462,366.699,-5.859,-8.301,985.352,0.000
1606144049.466,-112.305,30.273,-24.414,-101.074,0.000
1606144049.470,-495.605,-13.672,-48.828,-1000.000,0.000
1606144049.474,-292.480,-64.453,-37.598,-681.641,0.000
1606144049.478,243.164,-37.109,-8.301,517.578,0.000
1606144049.482,398.926,-23.438,-6.836,-947.754,0.000
1606144049.486,-46.387,-35.156,-26.855,55.664,0.000
1606144049.490,-477.539,-55.176,-44.922,-1000.000,0.000
1606144049.494,-341.309,-51.758,-33.203,-773.438,0.000
1606144049.497,204.590,-26.855,-2.441,392.090,0.000
1606144049.501,427.734,-11.719,4.883,-907.715,0.000
1606144049.505,35.645,1.465,-20.996,244.141,0.000
1606144049.509,-429.688,-37.598,-41.992,-960.449,0.000
1606144049.513,-387.207,-64.453,-41.504,-878.418,0.000
1606144049.517,134.766,-38.086,-15.137,263.184,0.000
1606144049.521,437.012,-20.020,4.395,-899.902,0.000
1606144049.525,105.957,-21.973,-19.531,409.668,0.000
1606144049.529,-399.414,-43.945,-41.504,-823.730,0.000
1606144049.533,-431.641,-50.293,-41.504,-972.656,0.000
1606144049.536,76.172,-32.715,-15.625,138.672,0.000
1606144049.540,436.523,-23.438,2.930,-912.109,0.000
1606144049.544,186.035,-5.371,-12.695,573.730,0.000
1606144049.548,-344.727,-21.973,-42.969,-671.387,0.000
1606144049.552,-440.918,-73.730,-45.898,-1000.000,0.000
1606144049.556,26.367,-45.410,-18.555,66.895,0.000
1606144049.560,408.203,-7.324,-0.488,-951.172,0.000
1606144049.564,239.258,-14.160,-3.906,677.246,0.000
1606144049.568,-303.711,-40.527,-23.438,-506.348,0.000
1606144049.572,-490.234,-52.734,-31.250,-1000.000,0.000
1606144049.576,-62.988,-37.109,-13.184,-169.922,0.000
1606144049.579,383.301,-20.020,-1.465,991.211,0.000
1606144049.583,298.340,-19.531,-4.395,780.273,0.000
1606144049.587,-231.445,-42.480,-36.133,-374.512,0.000
1606144049.591,-504.883,-56.152,-56.152,-1000.000,0.000
1606144049.595,-142.090,-39.551,-30.762,-360.352,0.000
1606144049.599,349.609,-26.855,2.441,873.047,0.000
1606144049.603,343.262,-12.207,-1.465,875.000,0.000
1606144049.607,-176.758,-16.602,-38.086,-262.207,0.000
1606144049.611,-501.465,-47.363,-53.711,-1000.000,0.000
1606144049.615,-199.707,-44.434,-36.621,-519.043,0.000
1606144049.619,317.871,-18.555,-18.555,729.004,0.000
1606144049.622,379.883,0.488,-17.578,956.055,0.000
1606144049.626,-128.906,-17.578,-38.574,-153.320,0.000
1606144049.630,-498.047,-49.316,-57.129,-1000.000,0.000
1606144049.634,-279.297,-50.293,-48.828,-665.039,0.000
1606144049.638,238.281,-27.344,-22.949,546.387,0.000
1606144049.642,379.395,-12.695,-9.766,-964.355,0.000
1606144049.646,-62.012,4.395,-29.297,0.000,0.000
1606144049.650,-466.309,-25.391,-57.617,-1000.000,0.000
1606144049.654,-335.938,-57.617,-52.246,-768.066,0.000
1606144049.658,195.312,-26.855,-11.719,400.391,0.000
1606144049.661,417.969,-13.672,-1.953,-920.410,0.000
1606144049.665,21.973,-32.227,-35.156,180.664,0.000
1606144049.669,-437.012,-44.434,-60.059,-990.723,0.000
1606144049.673,-367.676,-35.156,-54.199,-854.980,0.000
1606144049.677,173.828,-16.113,-22.461,288.574,0.000
1606144049.681,447.266,-13.672,-14.648,-896.973,0.000
1606144049.685,104.492,1.465,-32.227,373.535,0.000
1606144049.689,-383.789,-16.602,-54.199,-859.863,0.000
1606144049.693,-406.738,-39.551,-49.805,-952.148,0.000
1606144049.697,96.680,-27.344,-25.391,163.086,0.000
1606144049.701,439.941,-10.254,-11.719,-904.785,0.000
1606144049.704,166.504,-25.391,-18.555,527.344,0.000
1606144049.708,-367.188,-61.035,-40.039,-707.520,0.000
1606144049.712,-453.125,-60.547,-45.410,-1000.000,0.000
1606144049.716,30.762,-31.738,-27.344,35.645,0.000
1606144049.720,415.527,-12.695,-2.930,-931.641,0.000
1606144049.724,217.773,-20.508,-14.648,638.672,0.000
1606144049.728,-312.988,-46.387,-51.270,-556.641,0.000
1606144049.732,-482.910,-52.734,-51.270,-1000.000,0.000
1606144049.736,-41.992,-28.320,-22.461,-130.371,0.000
1606144049.740,409.668,-29.297,-4.883,-989.258,0.000
1606144049.744,292.969,-2.441,-14.160,756.348,0.000
1606144049.747,-238.281,20.020,-41.504,-405.762,0.000
1606144049.751,-482.910,-39.062,-52.734,-1000.000,0.000
1606144049.755,-121.094,-56.152,-29.785,-315.918,0.000
1606144049.759,352.051,-37.109,-3.906,900.391,0.000
1606144049.763,325.684,-31.738,-4.395,852.539,0.000
1606144049.767,-194.336,-46.875,-33.691,-292.969,0.000
1606144049.771,-489.746,-59.082,-57.129,-1000.000,0.000
1606144049.775,-176.270,-39.062,-34.180,-484.375,0.000
1606144049.779,320.312,-13.672,0.977,762.207,0.000
1606144049.783,380.371,-2.930,-8.789,941.406,0.000
1606144049.786,-125.977,-17.578,-38.086,-174.805,0.000
1606144049.790,-494.629,-49.805,-44.434,-1000.000,0.000
1606144049.794,-235.352,-38.574,-26.367,-618.652,0.000
1606144049.798,284.668,-13.672,-8.789,604.492,0.000
1606144049.802,387.695,-11.719,-5.859,-977.539,0.000
1606144049.806,-74.219,-39.551,-28.809,-29.785,0.000
1606144049.810,-476.074,-62.988,-60.059,-1000.000,0.000
1606144049.814,-320.312,-58.594,-49.805,-736.816,0.000
1606144049.818,205.078,-34.668,-12.207,437.988,0.000
1606144049.822,413.574,-14.160,-0.977,-924.316,0.000
1606144049.826,2.441,-21.973,-19.043,154.297,0.000
1606144049.829,-445.312,-48.340,-36.621,-1000.000,0.000
1606144049.833,-354.980,-54.688,-35.645,-835.449,0.000
1606144049.837,173.828,-33.691,-11.719,313.477,0.000
1606144049.841,436.035,-12.695,4.883,-902.832,0.000
1606144049.845,89.844,-10.254,-16.602,319.824,0.000
1606144049.849,-397.461,-26.367,-52.246,-897.949,0.000
1606144049.853,-412.109,-36.621,-53.711,-931.641,0.000
1606144049.857,96.680,-23.438,-20.996,188.965,0.000
1606144049.861,417.480,-20.020,-5.371,-900.879,0.000
1606144049.865,137.695,-28.809,-25.391,478.027,0.000
1606144049.869,-366.699,-42.480,-52.734,-754.883,0.000
1606144049.872,-452.148,-53.711,-53.223,-1000.000,0.000
1606144049.876,36.133,-41.504,-32.227,50.293,0.000
1606144049.880,416.504,-27.832,-13.672,-925.781,0.000
1606144049.884,216.309,-15.137,-16.602,616.699,0.000
1606144049.888,-305.176,-36.133,-42.969,-587.891,0.000
1606144049.892,-478.516,-60.547,-51.758,-1000.000,0.000
1606144049.896,-27.344,-31.250,-20.996,-96.680,0.000
1606144049.900,399.902,-4.395,5.859,-971.680,0.000
1606144049.904,258.789,-14.160,-8.789,726.562,0.000
1606144049.908,-279.785,-41.504,-41.992,-444.824,0.000
1606144049.911,-496.094,-45.410,-58.594,-1000.000,0.000
1606144049.915,-106.934,-28.809,-34.180,-272.949,0.000
1606144049.919,350.098,-15.625,-0.977,936.035,0.000
1606144049.923,305.664,-13.184,-2.441,822.266,0.000
1606144049.927,-226.562,-25.391,-34.180,-328.613,0.000
1606144049.931,-512.207,-41.016,-46.875,-1000.000,0.000
1606144049.935,-171.387,-30.273,-25.879,-450.684,0.000
1606144049.939,326.660,-15.137,-4.395,797.363,0.000
1606144049.943,354.004,-25.879,-9.766,917.480,0.000
1606144049.947,-158.203,-47.363,-32.715,-208.984,0.000
1606144049.951,-505.859,-59.570,-48.340,-1000.000,0.000
1606144049.954,-244.629,-48.828,-40.039,-588.379,0.000
1606144049.958,281.250,-26.855,-9.766,642.090,0.000
1606144049.962,403.809,-13.184,-7.324,-983.398,0.000
1606144049.966,-65.918,-8.301,-33.691,-42.969,0.000
1606144049.970,-472.656,-32.227,-51.270,-1000.000,0.000
1606144049.974,-291.992,-38.574,-43.457,-717.773,0.000
1606144049.978,236.328,-19.531,-15.137,472.168,0.000
1606144049.982,415.527,-7.812,-6.836,-935.547,0.000
1606144049.986,-3.906,-30.762,-32.227,92.773,0.000
1606144049.990,-462.402,-60.547,-54.199,-1000.000,0.000
1606144049.994,-374.023,-54.199,-38.574,-816.895,0.000
1606144049.997,177.246,-22.949,-5.859,334.473,0.000
1606144050.001,424.316,-11.230,0.000,-905.762,0.000
1606144050.005,51.758,-32.227,-18.066,279.785,0.000
1606144050.009,-428.711,-51.758,-43.457,-929.688,0.000
1606144050.013,-407.227,-48.340,-48.340,-905.273,0.000
1606144050.017,124.023,-30.273,-16.602,227.051,0.000
1606144050.021,430.176,-19.043,0.000,-898.926,0.000
1606144050.025,123.047,-16.602,-20.508,448.730,0.000
1606144050.029,-374.512,-32.227,-45.410,-786.621,0.000
1606144050.033,-426.758,-41.992,-52.734,-998.535,0.000
1606144050.036,70.801,-23.926,-31.250,93.262,0.000
1606144050.040,416.016,-13.184,-8.789,-917.480,0.000
1606144050.044,177.246,-22.949,-12.207,586.426,0.000
1606144050.048,-333.496,-50.293,-36.621,-626.953,0.000
1606144050.052,-473.633,-59.570,-48.340,-1000.000,0.000
1606144050.056,-19.531,-35.645,-32.227,-61.035,0.000
1606144050.060,401.855,-20.996,-18.555,-956.543,0.000
1606144050.064,240.234,-13.672,-24.902,698.242,0.000
1606144050.068,-288.574,-27.344,-44.434,-482.422,0.000
1606144050.072,-483.398,-50.781,-54.688,-1000.000,0.000
1606144050.076,-71.289,-30.762,-30.762,-223.145,0.000
1606144050.079,376.465,-9.766,0.977,964.844,0.000
1606144050.083,296.875,-17.090,1.953,803.711,0.000
1606144050.087,-234.375,-40.039,-27.344,-346.680,0.000
1606144050.091,-502.930,-49.316,-41.992,-1000.000,0.000
1606144050.095,-157.715,-37.109,-22.949,-407.715,0.000
1606144050.099,328.613,-18.066,1.953,834.961,0.000
1606144050.103,339.844,-3.906,-9.277,900.879,0.000
1606144050.107,-180.176,-21.484,-41.992,-229.492,0.000
1606144050.111,-508.301,-51.758,-55.664,-1000.000,0.000
1606144050.115,-225.586,-43.457,-38.086,-557.617,0.000
1606144050.119,284.180,-17.578,-5.371,680.664,0.000
1606144050.122,379.395,-1.465,0.488,992.188,0.000
1606144050.126,-95.703,-23.438,-25.391,-89.844,0.000
1606144050.130,-482.910,-58.594,-41.504,-1000.000,0.000
1606144050.134,-278.320,-40.527,-33.691,-679.688,0.000
1606144050.138,268.555,-6.348,-9.277,522.949,0.000
1606144050.142,436.523,-0.488,5.859,-947.754,0.000
1606144050.146,-17.090,-23.926,-25.391,58.594,0.000
1606144050.150,-457.520,-47.852,-48.828,-1000.000,0.000
1606144050.154,-335.449,-46.875,-43.457,-788.086,0.000
1606144050.158,204.102,-22.461,-20.020,373.047,0.000
1606144050.161,421.387,-11.230,-1.465,-910.645,0.000
1606144050.165,33.691,-17.090,-17.578,241.699,0.000
1606144050.169,-429.688,-43.457,-41.992,-957.520,0.000
1606144050.173,-392.578,-56.152,-46.387,-879.883,0.000
1606144050.177,143.555,-25.879,-24.902,262.695,0.000
1606144050.181,437.012,-5.859,-10.254,-898.926,0.000
1606144050.185,106.934,-18.555,-23.438,410.645,0.000
1606144050.189,-375.977,-39.551,-44.434,-824.219,0.000
1606144050.193,-417.969,-43.457,-35.156,-971.680,0.000
1606144050.197,74.707,-26.855,-5.371,141.113,0.000
1606144050.201,439.453,-11.230,7.812,-910.156,0.000
1606144050.204,188.965,-5.371,-4.395,563.965,0.000
1606144050.208,-331.543,-22.461,-33.691,-660.156,0.000
1606144050.212,-446.289,-44.922,-45.898,-1000.000,0.000
1606144050.216,25.391,-25.879,-22.949,-7.324,0.000
1606144050.220,432.617,-3.906,-3.906,-940.430,0.000
1606144050.224,252.930,-8.789,-12.695,674.316,0.000
1606144050.228,-290.527,-38.086,-33.691,-510.742,0.000
1606144050.232,-477.539,-57.129,-49.805,-1000.000,0.000
1606144050.236,-54.688,-36.621,-28.809,-178.711,0.000
1606144050.240,383.301,-21.484,-5.859,989.746,0.000
1606144050.244,288.574,-11.230,-16.602,781.250,0.000
1606144050.247,-232.910,-26.855,-38.574,-375.000,0.000
1606144050.251,-493.652,-47.852,-50.781,-1000.000,0.000
1606144050.255,-140.137,-26.367,-30.273,-362.305,0.000
1606144050.259,347.168,-11.719,2.930,870.605,0.000
1606144050.263,335.938,-4.883,-3.418,876.465,0.000
1606144050.267,-184.082,-21.973,-36.133,-264.160,0.000
1606144050.271,-500.000,-46.387,-50.781,-1000.000,0.000
1606144050.275,-216.797,-40.039,-41.992,-528.320,0.000
1606144050.279,299.316,-26.367,-20.508,717.285,0.000
1606144050.283,372.070,-16.113,-15.625,968.750,0.000
1606144050.286,-131.836,-31.250,-34.180,-134.277,0.000
1606144050.290,-496.094,-53.711,-53.223,-1000.000,0.000
1606144050.294,-265.625,-39.551,-37.598,-647.461,0.000
1606144050.298,251.465,-16.602,-13.672,565.430,0.000
1606144050.302,389.648,-9.766,-13.184,-964.355,0.000
1606144050.306,-58.105,2.930,-32.715,7.812,0.000
1606144050.310,-480.469,-19.043,-46.875,-1000.000,0.000
1606144050.314,-337.402,-44.434,-33.691,-758.789,0.000
1606144050.318,203.125,-21.484,-13.184,414.551,0.000
1606144050.322,416.992,-16.602,-11.230,-916.504,0.000
1606144050.326,16.113,-34.180,-33.203,181.152,0.000
1606144050.329,-441.895,-51.270,-52.734,-992.676,0.000
1606144050.333,-375.000,-52.246,-47.363,-859.863,0.000
1606144050.337,161.621,-28.809,-16.113,278.809,0.000
1606144050.341,456.543,-6.836,0.977,-897.949,0.000
1606144050.345,110.352,-0.488,-20.508,366.211,0.000
1606144050.349,-399.902,-24.902,-48.828,-866.211,0.000
1606144050.353,-424.316,-48.828,-49.316,-950.684,0.000
1606144050.357,88.379,-33.203,-20.508,165.527,0.000
1606144050.361,427.246,-14.160,-0.977,-904.297,0.000
1606144050.365,160.645,-27.832,-17.578,513.672,0.000
1606144050.369,-355.469,-58.594,-47.852,-719.238,0.000
1606144050.372,-462.891,-56.152,-51.758,-1000.000,0.000
1606144050.376,27.344,-28.320,-16.113,30.762,0.000
1606144050.380,419.434,-13.672,7.324,-931.152,0.000
1606144050.384,216.309,-24.902,-10.742,641.602,0.000
1606144050.388,-294.434,-48.340,-38.574,-554.199,0.000
1606144050.392,-474.121,-60.547,-53.711,-1000.000,0.000
1606144050.396,-52.246,-41.992,-31.250,-141.113,0.000
1606144050.400,402.344,-28.320,3.418,-990.234,0.000
1606144050.404,273.926,-5.859,0.000,746.582,0.000
1606144050.408,-260.254,1.953,-34.180,-417.969,0.000
1606144050.411,-489.258,-45.898,-58.594,-1000.000,0.000
1606144050.415,-116.211,-44.922,-42.480,-317.383,0.000
1606144050.419,357.422,-20.996,-10.254,905.762,0.000
1606144050.423,333.008,-16.113,-8.789,852.051,0.000
1606144050.427,-189.453,-37.598,-32.715,-292.969,0.000
1606144050.431,-486.816,-60.547,-41.992,-1000.000,0.000
1606144050.435,-177.246,-45.898,-31.250,-476.562,0.000
1606144050.439,315.918,-22.949,-5.859,768.555,0.000
1606144050.443,364.746,3.418,2.930,942.871,0.000
1606144050.447,-139.648,-5.859,-24.902,-173.340,0.000
1606144050.451,-491.699,-53.223,-48.340,-1000.000,0.000
1606144050.454,-243.652,-50.293,-33.203,-613.770,0.000
1606144050.458,277.832,-20.996,-0.977,609.863,0.000
1606144050.462,395.020,-15.625,1.465,-977.051,0.000
1606144050.466,-68.848,-34.668,-26.367,-26.855,0.000
1606144050.470,-460.938,-51.758,-42.480,-1000.000,0.000
1606144050.474,-301.270,-37.598,-41.016,-731.934,0.000
1606144050.478,227.539,-15.137,-12.207,444.824,0.000
1606144050.482,436.035,-12.207,6.836,-922.852,0.000
1606144050.486,3.906,12.695,-17.578,151.367,0.000
1606144050.490,-453.613,-12.695,-42.969,-1000.000,0.000
1606144050.494,-371.094,-62.500,-41.504,-833.008,0.000
1606144050.497,161.621,-33.691,-14.160,316.895,0.000
1606144050.501,437.500,-17.090,1.465,-900.879,0.000
1606144050.505,80.078,-35.645,-20.996,322.754,0.000
1606144050.509,-409.180,-51.758,-48.828,-902.344,0.000
1606144050.513,-400.879,-50.781,-50.293,-921.875,0.000
1606144050.517,119.141,-24.414,-26.855,207.031,0.000
1606144050.521,443.359,-10.742,-7.324,-901.855,0.000
1606144050.525,159.668,-22.461,-23.438,492.676,0.000
1606144050.529,-354.004,-46.387,-43.945,-745.605,0.000
1606144050.533,-438.965,-52.246,-41.504,-1000.000,0.000
1606144050.536,50.293,-24.414,-15.625,75.684,0.000
1606144050.540,421.387,-9.766,0.000,-922.363,0.000
1606144050.544,210.449,-13.184,-18.555,613.770,0.000
1606144050.548,-310.547,-34.668,-36.133,-591.309,0.000
1606144050.552,-472.656,-56.641,-48.340,-1000.000,0.000
1606144050.556,-20.996,-41.016,-30.273,-88.867,0.000
1606144050.560,403.320,-11.719,5.859,-970.703,0.000
1606144050.564,267.578,-15.625,-4.883,732.910,0.000
1606144050.568,-279.297,-45.898,-41.016,-479.980,0.000
1606144050.572,-460.449,-55.176,-49.805,-1000.000,0.000
1606144050.576,-36.621,-35.645,-32.227,-111.328,0.000
1606144050.579,375.977,-20.020,-10.254,928.711,0.000
1606144050.583,323.730,-21.484,-10.742,824.707,0.000
1606144050.587,-203.125,-36.621,-38.086,-315.430,0.000
1606144050.591,-496.094,-47.363,-53.223,-1000.000,0.000
1606144050.595,-155.762,-30.273,-40.039,-433.105,0.000
1606144050.599,339.844,-12.695,-14.160,807.617,0.000
1606144050.603,344.727,-7.324,-15.625,920.898,0.000
1606144050.607,-159.668,-16.113,-44.922,-216.797,0.000
1606144050.611,-469.727,-50.293,-61.523,-1000.000,0.000
1606144050.615,-223.145,-48.340,-41.016,-540.039,0.000
1606144050.619,267.090,-19.043,-3.418,641.113,0.000
1606144050.622,384.277,-9.277,2.441,-992.188,0.000
1606144050.626,-98.145,-28.809,-30.762,-65.918,0.000
1606144050.630,-497.559,-55.176,-49.316,-1000.000,0.000
1606144050.634,-309.082,-49.316,-33.203,-703.125,0.000
1606144050.638,212.891,-29.785,-12.695,486.328,0.000
1606144050.642,399.414,-20.508,-6.836,-935.547,0.000
1606144050.646,-24.902,-41.504,-23.438,93.262,0.000
1606144050.650,-469.727,-62.988,-48.828,-1000.000,0.000
1606144050.654,-352.539,-49.805,-46.387,-809.082,0.000
1606144050.658,176.758,-26.367,-14.160,344.727,0.000
1606144050.661,422.363,-12.695,-1.465,-903.809,0.000
1606144050.665,77.637,-16.602,-17.090,281.250,0.000
1606144050.669,-410.156,-41.504,-39.062,-931.152,0.000
1606144050.673,-412.598,-46.387,-45.410,-907.715,0.000
1606144050.677,123.535,-19.531,-16.602,225.586,0.000
1606144050.681,438.477,-8.789,0.488,-898.926,0.000
1606144050.685,127.930,-0.977,-19.043,442.871,0.000
1606144050.689,-376.953,-16.602,-52.734,-792.480,0.000
1606144050.693,-431.641,-44.434,-54.199,-992.188,0.000
1606144050.697,72.754,-27.832,-19.531,107.910,0.000
1606144050.701,446.777,-18.066,0.000,-915.527,0.000
1606144050.704,206.543,-22.461,-8.789,590.332,0.000
1606144050.708,-324.219,-39.062,-38.086,-629.883,0.000
1606144050.712,-451.172,-50.293,-46.875,-1000.000,0.000
1606144050.716,6.836,-37.598,-22.949,-26.855,0.000
1606144050.720,418.457,-21.973,1.953,-951.172,0.000
1606144050.724,252.441,-9.277,-9.277,693.359,0.000
1606144050.728,-279.785,-21.484,-36.133,-485.840,0.000
1606144050.732,-481.934,-50.293,-46.387,-1000.000,0.000
1606144050.736,-72.266,-33.691,-27.344,-211.426,0.000
1606144050.740,396.484,-8.301,3.418,974.121,0.000
1606144050.744,313.965,-11.719,-2.441,793.945,0.000
1606144050.747,-231.934,-33.691,-34.668,-359.863,0.000
1606144050.751,-495.605,-55.664,-52.734,-1000.000,0.000
1606144050.755,-154.785,-46.875,-34.180,-397.949,0.000
1606144050.759,338.867,-24.902,-2.930,842.773,0.000
1606144050.763,346.191,-5.859,-10.254,894.531,0.000
1606144050.767,-164.551,1.953,-46.387,-240.723,0.000
1606144050.771,-489.746,-34.668,-59.570,-1000.000,0.000
1606144050.775,-224.121,-48.828,-36.133,-552.246,0.000
1606144050.779,295.898,-30.273,-6.836,692.383,0.000
1606144050.783,380.859,-18.555,0.488,982.910,0.000
1606144050.786,-110.352,-38.086,-28.809,-110.352,0.000
1606144050.790,-488.770,-61.523,-52.246,-1000.000,0.000
1606144050.794,-279.297,-42.969,-34.668,-670.410,0.000
1606144050.798,270.996,-17.578,-5.371,533.691,0.000
1606144050.802,431.152,-16.113,-5.859,-951.172,0.000
1606144050.806,-30.762,-33.203,-33.691,43.945,0.000
1606144050.810,-452.637,-55.176,-47.363,-1000.000,0.000
1606144050.814,-328.125,-55.176,-40.039,-779.785,0.000
1606144050.818,192.871,-27.344,-12.695,382.324,0.000
1606144050.822,424.316,-4.883,3.906,-911.621,0.000
1606144050.826,33.691,0.000,-15.137,223.633,0.000
1606144050.829,-445.312,-35.645,-44.434,-968.750,0.000
1606144050.833,-391.602,-51.270,-42.480,-877.930,0.000
1606144050.837,137.207,-25.879,-18.555,259.277,0.000
1606144050.841,427.246,-10.742,-13.184,-898.438,0.000
1606144050.845,116.699,-22.461,-26.855,402.344,0.000
1606144050.849,-384.766,-51.758,-46.875,-834.473,0.000
1606144050.853,-420.410,-52.734,-44.922,-963.379,0.000
1606144050.857,92.773,-17.090,-11.230,152.344,0.000
1606144050.861,441.895,-1.465,4.883,-906.738,0.000
1606144050.865,177.734,12.207,-21.484,544.434,0.000
1606144050.869,-344.238,-7.324,-47.363,-681.152,0.000
1606144050.872,-453.125,-56.152,-40.039,-1000.000,0.000
1606144050.876,12.695,-39.551,-18.555,-6.348,0.000
1606144050.880,407.715,-24.414,-8.301,-939.453,0.000
1606144050.884,224.121,-25.391,-10.742,663.086,0.000
1606144050.888,-295.898,-41.992,-38.574,-528.320,0.000
1606144050.892,-471.191,-55.176,-55.176,-1000.000,0.000
1606144050.896,-40.527,-28.809,-31.250,-159.180,0.000
1606144050.900,401.855,-17.578,-7.812,996.094,0.000
1606144050.904,294.922,-0.977,-10.742,772.461,0.000
1606144050.908,-242.188,-14.160,-36.133,-386.230,0.000
1606144050.911,-494.629,-57.617,-57.129,-1000.000,0.000
1606144050.915,-127.441,-42.969,-47.852,-351.562,0.000
1606144050.919,350.098,-14.160,-15.625,879.883,0.000
1606144050.923,341.309,-9.766,-3.906,868.652,0.000
1606144050.927,-181.641,-35.156,-27.344,-273.438,0.000
1606144050.931,-496.094,-56.641,-47.852,-1000.000,0.000
1606144050.935,-192.383,-37.109,-27.344,-500.977,0.000
1606144050.939,308.105,-10.254,-4.395,742.676,0.000
1606144050.943,368.652,-15.137,-13.672,957.520,0.000
1606144050.947,-123.047,-36.621,-28.320,-148.438,0.000
1606144050.951,-474.609,-46.875,-41.504,-1000.000,0.000
1606144050.954,-250.977,-32.715,-36.621,-630.859,0.000
1606144050.958,244.141,-19.531,-14.160,583.496,0.000
1606144050.962,376.953,-10.254,-6.836,-968.750,0.000
1606144050.966,-74.707,5.859,-25.879,-2.930,0.000
1606144050.970,-486.816,-23.438,-52.246,-1000.000,0.000
1606144050.974,-336.914,-47.852,-44.922,-755.371,0.000
1606144050.978,217.773,-29.297,-18.555,416.016,0.000
1606144050.982,426.758,-15.137,-7.812,-920.410,0.000
1606144050.986,-4.395,-28.809,-19.531,175.781,0.000
1606144050.990,-455.566,-57.129,-40.527,-999.023,0.000
1606144050.994,-374.512,-50.781,-41.016,-840.332,0.000
1606144050.997,164.062,-21.973,-14.160,309.082,0.000
1606144051.001,438.477,-7.324,0.977,-900.879,0.000
1606144051.005,92.285,-13.184,-15.625,352.539,0.000
1606144051.009,-404.297,-40.527,-44.434,-875.000,0.000
1606144051.013,-420.898,-45.410,-61.523,-945.312,0.000
1606144051.017,89.844,-25.391,-39.551,172.852,0.000
1606144051.021,429.199,-18.066,-10.742,-902.832,0.000
1606144051.025,158.203,-25.391,-22.949,503.906,0.000
1606144051.029,-363.281,-50.781,-53.223,-731.445,0.000
1606144051.033,-458.496,-51.758,-57.129,-1000.000,0.000
1606144051.036,30.762,-19.043,-23.438,38.574,0.000
1606144051.040,423.828,-4.395,-0.488,-931.152,0.000
1606144051.044,229.492,14.160,-12.695,644.043,0.000
1606144051.048,-309.082,-0.488,-40.527,-554.688,0.000
1606144051.052,-486.816,-52.734,-51.758,-1000.000,0.000
1606144051.056,-41.992,-40.039,-24.414,-123.535,0.000
1606144051.060,393.555,-6.836,0.488,-980.957,0.000
1606144051.064,267.578,-12.207,-11.230,738.770,0.000
1606144051.068,-262.207,-39.062,-40.527,-430.176,0.000
1606144051.072,-487.305,-43.945,-51.758,-1000.000,0.000
1606144051.076,-102.539,-23.926,-30.762,-290.039,0.000
1606144051.079,362.793,-9.277,-5.859,922.852,0.000
1606144051.083,325.684,-17.578,-10.254,835.938,0.000
1606144051.087,-201.660,-37.598,-29.297,-312.988,0.000
1606144051.091,-509.766,-45.898,-37.598,-1000.000,0.000
1606144051.095,-192.871,-34.180,-29.297,-460.449,0.000
1606144051.099,321.777,-18.555,-14.160,780.762,0.000
1606144051.103,366.699,-4.395,-8.789,934.082,0.000
1606144051.107,-143.066,-17.578,-28.320,-184.082,0.000
1606144051.111,-492.676,-54.199,-48.828,-1000.000,0.000
1606144051.115,-234.863,-52.734,-39.062,-611.816,0.000
1606144051.119,287.109,-31.738,-7.812,616.699,0.000
1606144051.122,392.090,-23.926,-6.348,-985.352,0.000
1606144051.126,-75.195,-44.922,-35.156,-45.898,0.000
1606144051.130,-477.539,-58.105,-49.805,-1000.000,0.000
1606144051.134,-303.711,-40.039,-39.551,-704.102,0.000
1606144051.138,231.934,-20.508,-12.207,482.910,0.000
1606144051.142,420.410,-16.602,-8.301,-931.152,0.000
1606144051.146,4.883,-17.578,-33.203,127.930,0.000
1606144051.150,-455.078,-45.410,-48.828,-1000.000,0.000
1606144051.154,-374.512,-59.570,-41.992,-823.242,0.000
1606144051.158,174.805,-26.855,-13.672,330.078,0.000
1606144051.161,435.059,-19.043,3.906,-903.320,0.000
1606144051.165,61.035,-38.574,-12.207,302.734,0.000
1606144051.169,-423.340,-52.246,-38.574,-913.574,0.000
1606144051.173,-413.086,-49.805,-45.898,-917.480,0.000
1606144051.177,108.887,-23.438,-18.555,210.938,0.000
1606144051.181,428.711,-4.883,-3.418,-898.926,0.000
1606144051.185,143.066,-7.812,-24.414,475.098,0.000
1606144051.189,-366.211,-37.598,-44.434,-764.648,0.000
1606144051.193,-435.547,-57.129,-40.039,-1000.000,0.000
1606144051.197,65.430,-36.621,-23.438,79.590,0.000
1606144051.201,422.852,-12.207,-7.812,-919.434,0.000
1606144051.204,195.801,-19.043,-12.207,597.168,0.000
1606144051.208,-325.684,-41.992,-42.969,-612.305,0.000
1606144051.212,-475.586,-46.875,-53.711,-1000.000,0.000
1606144051.216,-17.090,-25.879,-30.762,-76.660,0.000
1606144051.220,403.809,-0.977,-11.719,-961.914,0.000
1606144051.224,249.512,-14.160,-22.461,713.379,0.000
1606144051.228,-278.320,-44.922,-48.828,-463.379,0.000
1606144051.232,-486.816,-45.410,-51.758,-1000.000,0.000
1606144051.236,-82.031,-17.578,-28.809,-236.816,0.000
1606144051.240,381.348,-4.883,-3.906,953.613,0.000
1606144051.244,314.941,-0.488,-3.906,810.059,0.000
1606144051.247,-210.938,0.977,-40.527,-341.797,0.000
1606144051.251,-482.422,-28.809,-46.875,-1000.000,0.000
1606144051.255,-138.672,-34.668,-21.973,-417.969,0.000
1606144051.259,343.750,-12.695,-10.254,819.824,0.000
1606144051.263,348.633,-10.254,-8.789,914.062,0.000
1606144051.267,-154.297,-39.551,-34.668,-210.938,0.000
1606144051.271,-489.746,-55.176,-48.828,-1000.000,0.000
1606144051.275,-219.238,-37.109,-25.391,-561.523,0.000
1606144051.279,312.988,-13.672,-0.488,678.711,0.000
1606144051.283,404.785,-9.277,0.488,995.117,0.000
1606144051.286,-92.285,-27.832,-24.902,-83.984,0.000
1606144051.290,-483.398,-58.105,-47.852,-1000.000,0.000
1606144051.294,-299.805,-55.664,-41.504,-693.848,0.000
1606144051.298,219.238,-26.855,-7.812,502.930,0.000
1606144051.302,399.414,-16.602,2.930,-945.801,0.000
1606144051.306,-30.273,-34.180,-24.902,64.453,0.000
1606144051.310,-467.285,-54.688,-52.734,-1000.000,0.000
1606144051.314,-343.262,-47.852,-49.316,-795.410,0.000
1606144051.318,199.219,-26.367,-17.090,359.375,0.000
1606144051.322,435.547,-18.555,-3.418,-906.738,0.000
1606144051.326,60.059,-23.438,-17.578,257.324,0.000
1606144051.329,-414.062,-44.434,-45.898,-947.266,0.000
1606144051.333,-393.066,-57.129,-51.758,-897.949,0.000
1606144051.337,133.789,-37.109,-23.926,235.352,0.000
1606144051.341,440.430,-6.836,-4.883,-898.926,0.000
1606144051.345,124.512,-3.418,-24.414,421.387,0.000
1606144051.349,-378.906,-28.809,-50.781,-812.988,0.000
1606144051.353,-424.316,-41.504,-54.688,-983.887,0.000
1606144051.357,82.031,-29.297,-20.508,119.141,0.000
1606144051.361,439.453,-18.555,0.488,-911.621,0.000
1606144051.365,200.684,-24.414,-24.414,567.383,0.000
1606144051.369,-327.148,-46.875,-50.293,-655.762,0.000
1606144051.372,-452.148,-52.246,-50.293,-1000.000,0.000
1606144051.376,23.438,-31.250,-27.832,-23.438,0.000
1606144051.380,416.016,-13.672,-9.277,-947.754,0.000
1606144051.384,254.395,-3.906,-10.742,690.918,0.000
1606144051.388,-280.762,-23.926,-35.645,-492.676,0.000
1606144051.392,-476.074,-60.547,-51.270,-1000.000,0.000
1606144051.396,-56.641,-49.316,-28.809,-183.594,0.000
1606144051.400,380.859,-16.602,-1.953,984.375,0.000
1606144051.404,295.898,-13.672,-11.230,793.945,0.000
1606144051.408,-224.121,-36.133,-27.344,-356.934,0.000
1606144051.411,-475.098,-49.805,-39.062,-1000.000,0.000
1606144051.415,-123.535,-38.086,-38.574,-360.352,0.000
1606144051.419,352.539,-18.066,-16.602,872.559,0.000
1606144051.423,341.797,-8.789,-15.625,878.906,0.000
1606144051.427,-184.082,-24.902,-43.945,-256.836,0.000
1606144051.431,-497.070,-55.176,-57.129,-1000.000,0.000
1606144051.435,-201.172,-53.711,-34.668,-527.344,0.000
1606144051.439,308.594,-22.949,-15.137,715.820,0.000
1606144051.443,383.301,-13.184,-17.090,970.215,0.000
1606144051.447,-102.051,-27.832,-34.180,-127.441,0.000
1606144051.451,-476.074,-43.945,-46.875,-1000.000,0.000
1606144051.454,-262.695,-43.457,-35.645,-651.367,0.000
1606144051.458,265.137,-22.949,-3.418,557.617,0.000
1606144051.462,398.926,-15.625,-1.465,-954.102,0.000
1606144051.466,-49.805,-28.320,-22.949,36.621,0.000
1606144051.470,-469.727,-49.805,-35.645,-1000.000,0.000
1606144051.474,-337.891,-53.223,-38.574,-774.902,0.000
1606144051.478,192.871,-22.949,-16.113,390.625,0.000
1606144051.482,426.270,-8.301,4.395,-911.133,0.000
1606144051.486,35.156,-27.344,-13.672,217.285,0.000
1606144051.490,-433.105,-45.898,-41.992,-976.074,0.000
1606144051.494,-382.324,-53.223,-43.457,-866.211,0.000
1606144051.497,148.438,-28.809,-16.113,279.297,0.000
1606144051.501,433.594,-11.719,4.395,-898.438,0.000
1606144051.505,92.285,-27.344,-15.625,373.535,0.000
1606144051.509,-405.273,-52.734,-42.480,-858.398,0.000
1606144051.513,-425.781,-49.316,-39.551,-952.148,0.000
1606144051.517,87.402,-20.020,-10.742,166.504,0.000
1606144051.521,419.922,-21.973,0.000,-905.762,0.000
1606144051.525,152.344,-24.902,-22.949,520.020,0.000
1606144051.529,-359.375,-35.156,-46.875,-707.520,0.000
1606144051.533,-462.891,-60.059,-50.293,-1000.000,0.000
1606144051.536,15.625,-40.039,-17.090,19.043,0.000
1606144051.540,407.227,-15.625,4.883,-934.570,0.000
1606144051.544,216.309,-25.879,-21.973,650.879,0.000
1606144051.548,-317.871,-45.410,-42.480,-563.477,0.000
1606144051.552,-474.121,-50.781,-43.945,-1000.000,0.000
1606144051.556,-19.531,-29.297,-25.879,-68.359,0.000
1606144051.560,395.508,-11.719,-7.324,999.023,0.000
1606144051.564,281.250,9.277,-11.230,763.672,0.000
1606144051.568,-251.465,-4.395,-37.109,-394.531,0.000
1606144051.572,-493.164,-51.758,-44.434,-1000.000,0.000
1606144051.576,-115.234,-41.504,-23.926,-324.707,0.000
1606144051.579,358.398,-20.996,-2.930,902.344,0.000
1606144051.583,327.148,-17.578,-6.836,850.098,0.000
1606144051.587,-201.660,-35.156,-41.992,-296.875,0.000
1606144051.591,-503.906,-49.805,-62.012,-1000.000,0.000
1606144051.595,-181.152,-37.109,-46.875,-484.863,0.000
1606144051.599,330.566,-18.066,-22.949,758.789,0.000
1606144051.603,365.723,3.906,-12.207,951.660,0.000
1606144051.607,-141.113,-1.953,-30.273,-159.180,0.000
1606144051.611,-501.465,-47.363,-54.688,-1000.000,0.000
1606144051.615,-265.625,-47.363,-41.016,-633.301,0.000
1606144051.619,269.043,-13.184,-11.230,588.379,0.000
1606144051.622,404.297,2.441,-12.207,-971.680,0.000
1606144051.626,-71.777,-15.625,-31.250,-22.461,0.000
1606144051.630,-482.422,-50.781,-46.875,-1000.000,0.000
1606144051.634,-305.664,-52.734,-37.109,-729.492,0.000
1606144051.638,217.285,-28.320,-8.789,452.637,0.000
1606144051.642,402.832,-13.672,-5.859,-926.270,0.000
1606144051.646,-7.324,-29.297,-27.832,144.043,0.000
1606144051.650,-451.660,-50.781,-48.828,-1000.000,0.000
1606144051.654,-360.840,-51.758,-42.480,-834.473,0.000
1606144051.658,174.316,-28.320,-14.648,314.453,0.000
1606144051.661,447.266,-7.812,0.000,-902.344,0.000
1606144051.665,89.355,-5.371,-19.043,322.754,0.000
1606144051.669,-407.715,-39.551,-39.062,-897.461,0.000
1606144051.673,-408.203,-50.781,-43.457,-930.664,0.000
1606144051.677,108.398,-18.066,-20.508,194.336,0.000
1606144051.681,419.922,-10.254,-5.371,-901.367,0.000
1606144051.685,131.836,-23.926,-26.855,485.352,0.000
1606144051.689,-361.328,-41.016,-49.316,-747.559,0.000
1606144051.693,-448.242,-48.828,-54.688,-1000.000,0.000
1606144051.697,30.762,-35.156,-28.809,57.129,0.000
1606144051.701,421.387,-21.973,-0.488,-923.340,0.000
1606144051.704,209.473,6.348,-12.207,616.699,0.000
1606144051.708,-320.312,-0.977,-40.039,-586.914,0.000
1606144051.712,-479.004,-47.852,-48.828,-1000.000,0.000
1606144051.716,-29.785,-34.180,-22.461,-99.609,0.000
1606144051.720,404.785,-9.766,3.906,-970.703,0.000
1606144051.724,262.695,-19.531,-5.371,727.051,0.000
1606144051.728,-263.672,-45.410,-35.156,-445.312,0.000
1606144051.732,-480.957,-45.410,-39.062,-1000.000,0.000
1606144051.736,-102.051,-20.508,-14.160,-260.742,0.000
1606144051.740,362.305,-14.160,-2.441,939.941,0.000
1606144051.744,313.477,-3.906,-9.766,826.660,0.000
1606144051.747,-215.820,-21.973,-41.016,-319.336,0.000
1606144051.751,-505.859,-57.617,-51.758,-1000.000,0.000
1606144051.755,-171.875,-45.898,-27.344,-450.195,0.000
1606144051.759,326.172,-22.461,-6.348,795.898,0.000
1606144051.763,354.004,-1.465,-9.766,921.875,0.000
1606144051.767,-145.020,-19.531,-34.180,-203.613,0.000
1606144051.771,-500.977,-49.805,-41.504,-1000.000,0.000
1606144051.775,-254.883,-48.340,-31.250,-592.285,0.000
1606144051.779,271.973,-25.391,-16.113,640.625,0.000
1606144051.783,389.160,-10.254,-4.395,-992.676,0.000
1606144051.786,-77.637,-30.762,-23.926,-64.941,0.000
1606144051.790,-475.098,-50.293,-50.781,-1000.000,0.000
1606144051.794,-302.246,-39.551,-45.410,-707.031,0.000
1606144051.798,235.352,-18.066,-15.137,483.887,0.000
1606144051.802,422.363,-7.324,-7.324,-936.035,0.000
1606144051.806,-20.996,10.254,-39.062,91.797,0.000
1606144051.810,-463.379,-14.160,-65.430,-1000.000,0.000
1606144051.814,-348.145,-44.434,-54.688,-812.500,0.000
1606144051.818,189.941,-14.648,-15.625,341.309,0.000
1606144051.822,437.012,-6.836,5.371,-904.297,0.000
1606144051.826,62.012,-27.832,-22.949,272.949,0.000
1606144051.829,-413.574,-49.805,-43.945,-936.523,0.000
1606144051.833,-379.883,-61.035,-39.551,-898.926,0.000
1606144051.837,145.020,-35.156,-17.090,232.422,0.000
1606144051.841,458.008,0.977,3.906,-896.484,0.000
1606144051.845,155.762,11.719,-18.555,447.266,0.000
1606144051.849,-366.211,-18.555,-53.223,-792.480,0.000
1606144051.853,-424.805,-31.250,-55.176,-999.023,0.000
1606144051.857,75.684,3.418,-33.691,92.773,0.000
1606144051.861,435.547,22.461,-20.996,-912.598,0.000
1606144051.865,195.801,9.766,-40.527,562.988,0.000
1606144051.869,-326.172,-20.996,-74.707,-657.227,0.000
1606144051.872,-451.172,-33.203,-83.008,-1000.000,0.000
1606144051.876,21.484,-15.625,-59.570,-60.059,0.000
1606144051.880,432.129,4.395,-30.273,-954.590,0.000
1606144051.884,249.512,1.953,-35.156,691.406,0.000
1606144051.888,-275.879,-28.320,-59.082,-486.816,0.000
1606144051.892,-471.191,-39.062,-62.988,-1000.000,0.000
1606144051.896,-68.359,-21.973,-46.387,-235.352,0.000
1606144051.900,375.000,-13.184,-29.785,960.449,0.000
1606144051.904,307.617,13.184,-29.297,798.828,0.000
1606144051.908,-204.590,2.930,-48.340,-357.422,0.000
1606144051.911,-480.957,-46.875,-70.801,-1000.000,0.000
1606144051.915,-154.297,-50.293,-61.035,-402.832,0.000
1606144051.919,335.449,-25.879,-31.738,835.449,0.000
1606144051.923,353.027,-8.301,-18.066,895.020,0.000
1606144051.927,-167.480,-33.691,-40.039,-240.234,0.000
1606144051.931,-484.375,-49.805,-65.430,-1000.000,0.000
1606144051.935,-205.566,-25.391,-48.340,-549.316,0.000
1606144051.939,294.434,-9.766,-20.020,692.383,0.000
1606144051.943,383.301,-13.184,-19.043,979.980,0.000
1606144051.947,-87.402,-28.809,-45.898,-114.258,0.000
1606144051.951,-472.656,-47.852,-60.547,-1000.000,0.000
1606144051.954,-286.621,-42.480,-43.457,-679.199,0.000
1606144051.958,230.469,-24.414,-18.555,520.020,0.000
1606144051.962,403.809,-9.766,-8.789,-946.777,0.000
1606144051.966,-20.020,-19.043,-20.508,55.176,0.000
1606144051.970,-459.961,-47.363,-54.199,-1000.000,0.000
1606144051.974,-338.379,-47.852,-54.688,-778.809,0.000
1606144051.978,196.777,-22.949,-16.602,386.719,0.000
1606144051.982,424.805,-7.812,-11.230,-911.133,0.000
1606144051.986,40.039,25.391,-31.250,223.145,0.000
1606144051.990,-425.781,5.859,-53.711,-968.262,0.000
1606144051.994,-387.207,-50.781,-59.082,-882.812,0.000
1606144051.997,155.273,-25.391,-22.949,253.418,0.000
1606144052.001,451.660,-3.418,-7.324,-896.973,0.000
1606144052.005,113.281,-16.602,-30.273,399.414,0.000
1606144052.009,-385.254,-42.969,-42.480,-835.449,0.000
1606144052.013,-421.875,-47.363,-48.828,-970.703,0.000
1606144052.017,84.473,-18.066,-30.762,139.648,0.000
1606144052.021,434.570,-3.418,-11.230,-908.203,0.000
1606144052.025,182.129,-12.695,-25.879,552.246,0.000
1606144052.029,-344.727,-37.109,-54.199,-675.293,0.000
1606144052.033,-462.402,-50.781,-58.105,-1000.000,0.000
1606144052.036,18.555,-32.715,-30.762,-3.906,0.000
1606144052.040,418.457,-18.555,-13.184,-939.453,0.000
1606144052.044,230.957,-8.789,-24.902,666.504,0.000
1606144052.048,-294.922,-33.691,-43.457,-521.484,0.000
1606144052.052,-479.492,-59.570,-48.340,-1000.000,0.000
1606144052.056,-52.734,-38.574,-31.738,-164.551,0.000
1606144052.060,396.484,-10.742,-8.301,995.117,0.000
1606144052.064,305.664,-12.695,-9.766,773.926,0.000
1606144052.068,-232.422,-44.434,-36.621,-384.277,0.000
1606144052.072,-487.793,-55.176,-49.316,-1000.000,0.000
1606144052.076,-113.770,-31.250,-28.809,-339.844,0.000
1606144052.079,359.863,-16.602,3.418,886.719,0.000
1606144052.083,342.285,0.488,11.230,871.094,0.000
1606144052.087,-172.363,15.625,-19.043,-267.090,0.000
1606144052.091,-480.469,-29.297,-43.457,-1000.000,0.000
1606144052.095,-187.012,-46.387,-30.762,-508.789,0.000
1606144052.099,316.406,-20.508,-6.836,734.863,0.000
1606144052.103,380.859,-10.742,-5.371,964.844,0.000
1606144052.107,-116.211,-32.227,-23.438,-136.719,0.000
1606144052.111,-479.492,-57.129,-45.898,-1000.000,0.000
1606144052.115,-254.883,-48.340,-44.434,-651.367,0.000
1606144052.119,259.277,-27.832,-12.207,564.941,0.000
1606144052.122,406.250,-7.812,-7.812,-968.750,0.000
1606144052.126,-62.012,-1.953,-37.109,-5.859,0.000
1606144052.130,-485.352,-41.992,-57.129,-1000.000,0.000
1606144052.134,-332.520,-54.199,-41.992,-756.348,0.000
1606144052.138,212.891,-30.273,-6.348,417.480,0.000
1606144052.142,421.875,-11.230,-3.418,-921.387,0.000
1606144052.146,6.348,-21.973,-30.762,164.551,0.000
1606144052.150,-437.012,-48.340,-50.781,-1000.000,0.000
1606144052.154,-354.492,-50.293,-39.062,-841.797,0.000
1606144052.158,169.922,-23.438,-6.836,303.223,0.000
1606144052.161,435.059,-5.859,2.930,-899.414,0.000
1606144052.165,91.797,-22.949,-19.531,374.023,0.000
1606144052.169,-397.949,-52.734,-51.758,-860.840,0.000
1606144052.173,-415.527,-49.805,-51.270,-944.336,0.000
1606144052.177,96.191,-20.996,-16.602,180.176,0.000
1606144052.181,429.688,-22.461,-2.930,-903.809,0.000
1606144052.185,157.715,14.160,-23.438,504.883,0.000
1606144052.189,-352.051,11.719,-46.387,-726.074,0.000
1606144052.193,-431.641,-54.199,-45.410,-1000.000,0.000
1606144052.197,46.875,-44.434,-25.391,41.504,0.000
1606144052.201,426.270,-26.367,-1.953,-928.711,0.000
1606144052.204,228.516,-30.273,-9.766,636.230,0.000
1606144052.208,-311.035,-52.246,-44.434,-563.965,0.000
1606144052.212,-478.516,-55.664,-58.105,-1000.000,0.000
1606144052.216,-33.691,-42.969,-26.855,-120.117,0.000
1606144052.220,392.578,-38.086,-3.906,-982.910,0.000
1606144052.224,268.066,0.977,-12.207,739.746,0.000
1606144052.228,-257.324,-4.883,-37.598,-427.246,0.000
1606144052.232,-485.352,-58.594,-53.711,-1000.000,0.000
1606144052.236,-107.422,-50.781,-32.227,-302.246,0.000
1606144052.240,361.816,-31.738,-0.488,917.969,0.000
1606144052.244,327.637,-27.832,-2.441,840.332,0.000
1606144052.247,-190.918,-46.387,-41.016,-307.617,0.000
1606144052.251,-493.652,-70.801,-66.406,-1000.000,0.000
1606144052.255,-188.477,-54.688,-46.875,-466.309,0.000
1606144052.259,313.477,-26.855,-15.625,781.250,0.000
1606144052.263,364.746,-1.465,-6.348,935.547,0.000
1606144052.267,-139.648,21.484,-36.133,-185.059,0.000
1606144052.271,-493.652,-32.227,-62.012,-1000.000,0.000
1606144052.275,-242.188,-59.082,-40.527,-611.328,0.000
1606144052.279,279.785,-25.879,-7.812,617.676,0.000
1606144052.283,402.832,-15.137,-4.883,-979.492,0.000
1606144052.286,-67.871,-43.457,-32.715,-38.574,0.000
1606144052.290,-462.402,-70.801,-50.781,-1000.000,0.000
1606144052.294,-288.574,-50.781,-39.062,-716.309,0.000
1606144052.298,234.863,-20.996,-16.113,468.750,0.000
1606144052.302,439.453,-12.207,-9.766,-930.176,0.000
1606144052.306,15.625,-28.320,-24.414,135.742,0.000
1606144052.310,-463.379,-51.758,-46.387,-1000.000,0.000
1606144052.314,-372.070,-55.664,-50.781,-827.637,0.000
1606144052.318,169.922,-34.668,-23.926,325.684,0.000
1606144052.322,417.480,-15.625,-4.883,-900.879,0.000
1606144052.326,55.664,-11.719,-24.902,301.270,0.000
1606144052.329,-423.340,-43.457,-46.387,-917.480,0.000
1606144052.333,-404.297,-49.316,-46.387,-917.969,0.000
1606144052.337,120.605,-18.555,-26.367,208.008,0.000
1606144052.341,429.688,-8.789,-8.789,-899.414,0.000
1606144052.345,143.066,-20.508,-20.508,464.844,0.000
1606144052.349,-372.070,-48.828,-45.898,-773.926,0.000
1606144052.353,-450.684,-56.641,-48.340,-1000.000,0.000
1606144052.357,55.664,-31.250,-21.484,90.332,0.000
1606144052.361,423.340,-22.949,1.465,-918.457,0.000
1606144052.365,194.824,1.465,-16.113,589.844,0.000
1606144052.369,-329.590,-9.277,-50.781,-619.629,0.000
1606144052.372,-477.051,-65.430,-57.129,-1000.000,0.000
1606144052.376,-20.020,-48.828,-35.645,-77.637,0.000
1606144052.380,409.668,-15.625,-8.789,-961.914,0.000
1606144052.384,253.906,-24.414,-15.625,712.402,0.000
1606144052.388,-285.156,-55.664,-48.340,-465.820,0.000
1606144052.392,-497.070,-62.988,-54.199,-1000.000,0.000
1606144052.396,-90.820,-38.574,-29.297,-246.582,0.000
1606144052.400,375.488,-24.902,-18.066,951.660,0.000
1606144052.404,304.688,9.277,-22.949,812.012,0.000
1606144052.408,-235.352,8.789,-41.504,-339.355,0.000
1606144052.411,-510.254,-61.035,-52.734,-1000.000,0.000
1606144052.415,-162.109,-52.246,-33.203,-417.969,0.000
1606144052.419,336.914,-24.902,-14.648,824.707,0.000
1606144052.423,359.375,-24.414,-16.602,909.180,0.000
1606144052.427,-154.785,-43.945,-31.738,-216.309,0.000
1606144052.431,-482.422,-55.664,-44.434,-1000.000,0.000
1606144052.435,-202.148,-41.016,-36.621,-557.617,0.000
1606144052.439,305.664,-20.508,-13.672,679.688,0.000
1606144052.443,388.184,-6.836,-7.812,996.582,0.000
1606144052.447,-85.449,-17.090,-33.691,-79.590,0.000
1606144052.451,-468.750,-38.574,-53.711,-1000.000,0.000
1606144052.454,-276.855,-30.762,-33.203,-682.129,0.000
1606144052.458,255.371,-17.090,-4.883,515.137,0.000
1606144052.462,424.805,-9.277,-4.883,-941.406,0.000
1606144052.466,-10.742,26.367,-26.855,82.520,0.000
1606144052.470,-447.266,-11.719,-47.852,-1000.000,0.000
1606144052.474,-325.684,-55.664,-41.504,-786.621,0.000
1606144052.478,208.008,-22.949,-16.113,376.465,0.000
1606144052.482,440.430,-6.348,-3.906,-908.691,0.000
1606144052.486,66.406,-16.602,-23.438,260.254,0.000
1606144052.490,-407.715,-41.016,-49.805,-949.219,0.000
1606144052.494,-381.836,-45.410,-45.410,-881.348,0.000
1606144052.497,141.113,-24.902,-14.648,264.160,0.000
1606144052.501,435.059,-16.602,-1.465,-898.926,0.000
1606144052.505,115.234,-12.695,-23.926,416.992,0.000
1606144052.509,-382.812,-37.598,-46.875,-818.359,0.000
1606144052.513,-427.246,-60.547,-40.527,-976.562,0.000
1606144052.517,82.031,-39.551,-22.949,128.906,0.000
1606144052.521,446.289,-13.672,-11.719,-911.621,0.000
1606144052.525,183.105,-16.602,-17.578,563.965,0.000
1606144052.529,-345.703,-46.387,-45.410,-661.621,0.000
1606144052.533,-456.055,-53.711,-51.758,-1000.000,0.000
1606144052.536,11.230,-24.414,-31.250,-13.672,0.000
1606144052.540,408.203,-20.020,-7.324,-944.824,0.000
1606144052.544,238.281,0.000,-14.160,683.105,0.000
1606144052.548,-291.016,4.883,-42.969,-498.047,0.000
1606144052.552,-487.305,-59.082,-48.828,-1000.000,0.000
1606144052.556,-69.336,-56.641,-31.250,-196.289,0.000
1606144052.560,382.812,-27.344,-11.719,984.375,0.000
1606144052.564,285.156,-28.320,-14.160,781.250,0.000
1606144052.568,-239.746,-40.527,-26.855,-376.953,0.000
1606144052.572,-495.117,-58.105,-50.293,-1000.000,0.000
1606144052.576,-131.348,-42.480,-44.922,-368.164,0.000
1606144052.579,353.516,-12.207,-4.883,867.676,0.000
1606144052.583,338.867,-11.719,4.395,877.930,0.000
1606144052.587,-181.152,-46.387,-33.691,-261.719,0.000
1606144052.591,-491.699,-67.383,-56.152,-1000.000,0.000
1606144052.595,-203.613,-44.922,-36.133,-529.297,0.000
1606144052.599,300.781,-27.832,-5.859,718.262,0.000
1606144052.603,372.070,4.883,-1.953,969.238,0.000
1606144052.607,-117.188,18.555,-33.691,-131.836,0.000
1606144052.611,-491.699,-48.828,-52.734,-1000.000,0.000
1606144052.615,-281.738,-56.152,-37.109,-658.203,0.000
1606144052.619,254.883,-20.020,-9.277,550.781,0.000
1606144052.622,402.344,-10.742,-8.789,-955.078,0.000
1606144052.626,-40.527,-29.785,-28.809,33.203,0.000
1606144052.630,-456.055,-57.617,-46.387,-1000.000,0.000
1606144052.634,-319.336,-51.270,-36.621,-755.859,0.000
1606144052.638,213.867,-19.043,-10.254,419.922,0.000
1606144052.642,423.828,-11.719,-12.695,-917.480,0.000
1606144052.646,27.344,21.484,-38.086,192.383,0.000
1606144052.650,-430.664,-2.930,-52.734,-985.840,0.000
1606144052.654,-357.422,-56.152,-41.992,-861.328,0.000
1606144052.658,168.945,-31.250,-14.648,280.762,0.000
1606144052.661,426.270,-11.230,-4.883,-899.902,0.000
1606144052.665,98.633,-20.508,-22.461,373.535,0.000
1606144052.669,-394.043,-52.734,-43.457,-855.469,0.000
1606144052.673,-429.199,-59.082,-48.828,-954.590,0.000
1606144052.677,86.426,-32.715,-26.855,162.109,0.000
1606144052.681,431.152,-13.672,-2.441,-904.785,0.000
1606144052.685,169.434,0.977,-13.672,516.602,0.000
1606144052.689,-354.980,-34.180,-51.758,-714.844,0.000
1606144052.693,-459.961,-70.312,-58.105,-1000.000,0.000
1606144052.697,34.180,-44.922,-24.902,24.414,0.000
1606144052.701,425.293,-20.996,-3.906,-933.105,0.000
1606144052.704,226.562,-15.137,-17.090,645.020,0.000
1606144052.708,-294.434,-39.062,-42.969,-551.270,0.000
1606144052.712,-469.238,-61.035,-43.457,-1000.000,0.000
1606144052.716,-35.645,-39.062,-13.184,-129.883,0.000
1606144052.720,392.578,-20.020,3.906,-988.770,0.000
1606144052.724,267.090,-35.645,-9.277,750.977,0.000
1606144052.728,-254.395,-57.129,-36.621,-413.086,0.000
1606144052.732,-485.840,-58.105,-44.434,-1000.000,0.000
1606144052.736,-108.398,-37.109,-21.973,-303.711,0.000
1606144052.740,368.164,-27.344,-3.906,910.156,0.000
1606144052.744,324.219,8.301,-7.812,846.191,0.000
1606144052.747,-199.219,24.414,-31.738,-298.828,0.000
1606144052.751,-497.559,-35.645,-48.340,-1000.000,0.000
1606144052.755,-183.594,-54.688,-28.809,-474.609,0.000
1606144052.759,324.707,-26.367,-3.418,768.555,0.000
1606144052.763,378.906,-16.602,1.465,941.406,0.000
1606144052.767,-134.277,-53.223,-30.273,-174.805,0.000
1606144052.771,-495.605,-70.312,-52.734,-1000.000,0.000
1606144052.775,-250.977,-44.922,-36.133,-617.676,0.000
1606144052.779,264.648,-30.273,-11.719,612.305,0.000
1606144052.783,378.418,-20.020,-5.371,-982.422,0.000
1606144052.786,-87.891,-24.414,-29.297,-43.457,0.000
1606144052.790,-478.027,-59.082,-42.969,-1000.000,0.000
1606144052.794,-306.152,-55.176,-35.156,-735.840,0.000
1606144052.798,215.820,-30.762,-18.555,443.359,0.000
1606144052.802,408.691,-24.902,-4.395,-929.688,0.000
1606144052.806,0.488,-38.086,-25.879,130.371,0.000
1606144052.810,-448.242,-59.082,-45.410,-1000.000,0.000
1606144052.814,-354.004,-58.594,-42.969,-825.684,0.000
1606144052.818,178.711,-40.527,-14.160,323.730,0.000
1606144052.822,436.523,-26.367,9.277,-900.391,0.000
1606144052.826,82.031,25.879,-8.789,338.379,0.000
1606144052.829,-398.926,0.977,-36.621,-891.113,0.000
1606144052.833,-398.926,-60.059,-50.293,-928.223,0.000
1606144052.837,109.375,-40.039,-30.762,200.195,0.000
1606144052.841,424.805,-24.414,-10.742,-901.367,0.000
1606144052.845,145.508,-25.879,-24.414,482.910,0.000
1606144052.849,-357.422,-54.199,-50.781,-754.395,0.000
1606144052.853,-444.336,-67.871,-59.082,-1000.000,0.000
1606144052.857,41.504,-41.504,-28.320,72.754,0.000
1606144052.861,416.016,-19.531,-0.488,-921.875,0.000
1606144052.865,208.496,-18.066,-11.230,609.863,0.000
1606144052.869,-328.125,-44.922,-41.016,-597.656,0.000
1606144052.872,-487.793,-65.430,-57.617,-1000.000,0.000
1606144052.876,-35.156,-41.016,-37.109,-89.355,0.000
1606144052.880,382.812,-33.203,-9.277,-968.262,0.000
1606144052.884,239.258,-13.672,-21.973,720.215,0.000
1606144052.888,-279.785,-14.160,-45.898,-453.125,0.000
1606144052.892,-493.652,-55.664,-49.316,-1000.000,0.000
1606144052.896,-100.098,-41.992,-25.879,-267.578,0.000
1606144052.900,371.094,-11.230,8.789,940.918,0.000
1606144052.904,319.824,-9.766,0.000,818.359,0.000
1606144052.908,-216.797,-41.504,-40.527,-333.496,0.000
1606144052.911,-508.301,-58.594,-47.363,-1000.000,0.000
1606144052.915,-177.734,-39.551,-38.574,-433.594,0.000
1606144052.919,318.848,-19.531,-18.555,810.547,0.000
1606144052.923,359.375,-7.324,-12.695,917.969,0.000
1606144052.927,-149.902,7.812,-33.691,-207.520,0.000
1606144052.931,-496.582,-30.762,-51.270,-1000.000,0.000
1606144052.935,-222.656,-44.922,-38.086,-583.496,0.000
1606144052.939,293.945,-18.555,-5.859,653.809,0.000
1606144052.943,390.137,-18.066,1.465,-999.512,0.000
1606144052.947,-84.473,-33.691,-29.297,-78.613,0.000
1606144052.951,-476.562,-56.152,-46.875,-1000.000,0.000
1606144052.954,-288.574,-60.059,-38.086,-704.590,0.000
1606144052.958,241.699,-33.691,-14.648,486.816,0.000
1606144052.962,408.691,-5.371,-15.137,-935.059,0.000
1606144052.966,-16.113,5.371,-41.504,93.750,0.000
1606144052.970,-454.102,-34.668,-48.828,-1000.000,0.000
1606144052.974,-347.656,-53.223,-39.551,-805.664,0.000
1606144052.978,182.129,-28.320,-15.137,351.074,0.000
1606144052.982,419.434,-11.230,-7.812,-906.738,0.000
1606144052.986,51.758,-27.832,-25.879,264.648,0.000
1606144052.990,-416.016,-58.105,-49.316,-943.359,0.000
1606144052.994,-387.207,-56.641,-44.922,-892.578,0.000
1606144052.997,144.043,-34.668,-10.254,244.141,0.000
1606144053.001,450.195,-17.578,-4.883,-897.949,0.000
1606144053.005,133.301,-30.762,-28.320,434.570,0.000
1606144053.009,-370.605,-49.805,-44.922,-805.176,0.000
1606144053.013,-427.734,-49.316,-42.969,-987.305,0.000
1606144053.017,59.570,-25.879,-20.020,115.723,0.000
1606144053.021,414.551,-14.160,-2.441,-914.551,0.000
1606144053.025,183.594,20.020,-12.695,580.078,0.000
1606144053.029,-337.402,17.090,-42.480,-637.695,0.000
1606144053.033,-476.074,-55.664,-52.734,-1000.000,0.000
1606144053.036,-19.531,-45.410,-34.180,-43.457,0.000
1606144053.040,393.066,-17.578,-12.207,-951.660,0.000
1606144053.044,238.281,-26.367,-9.766,690.918,0.000
1606144053.048,-283.691,-47.852,-38.574,-492.676,0.000
1606144053.052,-469.238,-57.617,-51.758,-1000.000,0.000
1606144053.056,-56.641,-43.457,-23.438,-205.078,0.000
1606144053.060,380.859,-26.855,4.395,978.027,0.000
1606144053.064,296.875,5.859,-6.836,783.691,0.000
1606144053.068,-238.281,1.953,-45.410,-373.535,0.000
1606144053.072,-509.277,-45.410,-60.547,-1000.000,0.000
1606144053.076,-148.438,-41.504,-34.668,-386.230,0.000
1606144053.079,347.168,-13.672,-4.395,855.469,0.000
1606144053.083,347.168,-10.254,-6.348,886.719,0.000
1606144053.087,-162.598,-38.086,-36.621,-250.977,0.000
1606144053.091,-488.281,-57.617,-56.641,-1000.000,0.000
1606144053.095,-208.496,-48.340,-34.180,-538.086,0.000
1606144053.099,295.898,-26.855,0.000,705.078,0.000
1606144053.103,360.352,-14.648,-1.465,977.051,0.000
1606144053.107,-105.469,-30.762,-28.320,-118.164,0.000
1606144053.111,-472.656,-48.340,-43.945,-1000.000,0.000
1606144053.115,-285.645,-36.621,-39.062,-676.270,0.000
1606144053.119,243.652,-23.438,-19.043,524.902,0.000
1606144053.122,409.668,-2.441,-7.812,-949.707,0.000
1606144053.126,-35.645,-6.348,-22.461,39.062,0.000
1606144053.130,-463.867,-46.387,-37.598,-1000.000,0.000
1606144053.134,-340.332,-46.875,-38.574,-773.926,0.000
1606144053.138,187.988,-11.719,-13.672,394.531,0.000
1606144053.142,411.133,-6.836,-4.883,-916.504,0.000
1606144053.146,25.879,-34.668,-33.691,199.707,0.000
1606144053.150,-437.988,-60.547,-61.035,-979.492,0.000
1606144053.154,-383.301,-50.781,-58.105,-870.117,0.000
1606144053.158,162.109,-25.391,-22.461,269.043,0.000
1606144053.161,438.965,-22.949,-2.930,-897.949,0.000
1606144053.165,94.238,-12.695,-27.344,383.301,0.000
1606144053.169,-387.695,-31.738,-52.734,-850.098,0.000
1606144053.173,-418.945,-56.641,-51.758,-958.496,0.000
1606144053.177,84.961,-34.668,-23.438,155.273,0.000
1606144053.181,434.570,-13.184,-0.488,-905.762,0.000
1606144053.185,177.246,-24.902,-18.555,535.645,0.000
1606144053.189,-337.891,-48.828,-49.805,-697.266,0.000
1606144053.193,-440.430,-52.246,-55.176,-1000.000,0.000
1606144053.197,32.715,-26.367,-27.344,20.996,0.000
1606144053.201,414.062,-11.719,-4.395,-935.059,0.000
1606144053.204,243.652,-3.418,-13.672,660.645,0.000
1606144053.208,-288.086,-12.207,-40.527,-528.320,0.000
1606144053.212,-494.141,-47.852,-55.176,-1000.000,0.000
1606144053.216,-62.012,-36.621,-31.738,-157.227,0.000
1606144053.220,377.930,-16.113,-2.441,-995.605,0.000
1606144053.224,269.531,-19.043,-11.719,755.859,0.000
1606144053.228,-256.348,-42.480,-45.410,-412.109,0.000
1606144053.232,-485.840,-56.152,-56.152,-1000.000,0.000
1606144053.236,-105.469,-37.598,-36.621,-316.406,0.000
1606144053.240,361.328,-23.926,-13.184,900.391,0.000
1606144053.244,332.031,-11.230,-11.719,861.328,0.000
1606144053.247,-188.477,-26.855,-35.645,-277.832,0.000
1606144053.251,-487.793,-62.012,-51.270,-1000.000,0.000
1606144053.255,-177.734,-45.410,-38.574,-490.723,0.000
1606144053.259,309.082,-20.996,-11.230,754.883,0.000
1606144053.263,361.328,-5.859,-9.766,946.289,0.000
1606144053.267,-133.301,-14.160,-38.574,-167.969,0.000
1606144053.271,-481.934,-38.574,-54.199,-1000.000,0.000
1606144053.275,-247.070,-34.180,-45.410,-629.395,0.000
1606144053.279,268.555,-15.625,-21.973,591.797,0.000
1606144053.283,408.203,-9.766,-11.719,-969.238,0.000
1606144053.286,-60.059,-35.156,-35.156,-16.602,0.000
1606144053.290,-472.656,-55.176,-53.711,-1000.000,0.000
1606144053.294,-292.969,-46.875,-44.434,-729.492,0.000
1606144053.298,235.352,-24.902,-16.113,449.219,0.000
1606144053.302,416.016,-1.953,-7.324,-923.340,0.000
1606144053.306,0.977,9.277,-29.297,157.227,0.000
1606144053.310,-448.730,-21.484,-49.805,-1000.000,0.000
1606144053.314,-370.605,-51.758,-44.922,-834.961,0.000
1606144053.318,168.945,-29.297,-16.113,315.430,0.000
1606144053.322,437.012,-9.277,-1.953,-899.902,0.000
1606144053.326,73.242,-25.391,-20.996,340.820,0.000
1606144053.329,-408.691,-56.641,-40.527,-887.695,0.000
1606144053.333,-400.391,-49.805,-32.227,-932.617,0.000
1606144053.337,116.699,-22.949,-12.207,194.824,0.000
1606144053.341,443.848,-6.836,2.441,-899.902,0.000
1606144053.345,156.250,-0.977,-13.672,492.676,0.000
1606144053.349,-362.305,-29.785,-41.016,-744.629,0.000
1606144053.353,-439.453,-51.758,-43.945,-1000.000,0.000
1606144053.357,46.387,-29.297,-24.414,53.223,0.000
1606144053.361,425.781,-9.766,-7.324,-925.781,0.000
1606144053.365,229.980,-7.812,-10.254,625.000,0.000
1606144053.369,-301.270,-39.551,-34.180,-581.055,0.000
1606144053.372,-467.773,-59.082,-48.828,-1000.000,0.000
1606144053.376,-23.438,-32.715,-27.344,-99.609,0.000
1606144053.380,404.297,-17.090,-7.324,-974.121,0.000
1606144053.384,264.160,-23.926,-22.461,726.562,0.000
1606144053.388,-268.555,-45.410,-48.828,-444.336,0.000
1606144053.392,-486.328,-54.688,-53.223,-1000.000,0.000
1606144053.396,-106.445,-33.691,-32.715,-278.320,0.000
1606144053.400,372.070,-19.531,0.977,933.594,0.000
1606144053.404,322.754,-12.695,-3.906,829.102,0.000
1606144053.408,-202.637,-22.461,-37.109,-318.848,0.000
1606144053.411,-481.934,-45.898,-55.664,-1000.000,0.000
1606144053.415,-159.180,-31.250,-38.574,-443.359,0.000
1606144053.419,341.309,-9.766,-8.301,801.270,0.000
1606144053.423,379.883,-8.301,-2.441,927.246,0.000
1606144053.427,-132.812,-27.832,-26.367,-195.312,0.000
1606144053.431,-491.211,-48.828,-47.363,-1000.000,0.000
1606144053.435,-235.840,-34.668,-34.180,-574.707,0.000
1606144053.439,280.762,-15.137,-3.418,656.250,0.000
1606144053.443,389.648,0.488,-2.441,-998.535,0.000
1606144053.447,-90.332,-6.836,-27.344,-70.312,0.000
1606144053.451,-479.492,-43.457,-41.992,-1000.000,0.000
1606144053.454,-286.133,-46.387,-39.062,-706.055,0.000
1606144053.458,228.516,-24.902,-20.508,481.934,0.000
1606144053.462,404.785,-15.625,-7.324,-934.570,0.000
1606144053.466,-12.207,-29.297,-24.414,104.492,0.000
1606144053.470,-461.914,-51.270,-49.316,-1000.000,0.000
1606144053.474,-361.816,-42.969,-44.434,-807.129,0.000
1606144053.478,171.387,-13.672,-14.648,349.121,0.000
1606144053.482,417.480,-4.883,-7.324,-905.273,0.000
1606144053.486,58.105,1.953,-22.949,281.250,0.000
1606144053.490,-436.035,-24.902,-50.781,-949.707,0.000
1606144053.494,-395.996,-51.270,-51.758,-864.258,0.000
1606144053.497,146.484,-25.391,-18.555,292.969,0.000
1606144053.501,430.664,-8.789,-8.789,-907.227,0.000
1606144053.505,114.746,-24.414,-21.973,432.617,0.000
1606144053.509,-395.508,-52.734,-32.715,-797.363,0.000
1606144053.513,-448.242,-63.477,-41.992,-997.070,0.000
1606144053.517,48.340,-39.551,-24.414,95.703,0.000
1606144053.521,410.156,-17.090,0.977,-916.504,0.000
1606144053.525,184.570,-23.438,-10.254,593.262,0.000
1606144053.529,-333.496,-36.621,-43.457,-624.023,0.000
1606144053.533,-478.516,-45.410,-51.758,-1000.000,0.000
1606144053.536,-9.277,-32.715,-24.902,-51.758,0.000
1606144053.540,409.668,-16.602,-1.953,-954.102,0.000
1606144053.544,251.953,-15.625,-9.766,700.195,0.000
1606144053.548,-269.043,-36.621,-40.527,-479.492,0.000
1606144053.552,-477.051,-54.199,-50.293,-1000.000,0.000
1606144053.556,-72.266,-37.598,-26.855,-217.773,0.000
1606144053.560,379.883,-24.902,-10.254,969.727,0.000
1606144053.564,303.223,-13.672,-13.184,800.781,0.000
1606144053.568,-231.934,-28.320,-35.645,-372.559,0.000
1606144053.572,-483.887,-42.480,-52.246,-1000.000,0.000
1606144053.576,-120.605,-22.461,-27.832,-331.055,0.000
1606144053.579,349.121,-8.789,-2.930,837.402,0.000
1606144053.583,346.191,-6.348,-12.695,888.672,0.000
1606144053.587,-175.781,0.977,-35.156,-247.559,0.000
1606144053.591,-486.328,-28.809,-42.480,-1000.000,0.000
1606144053.595,-191.895,-49.805,-33.691,-549.316,0.000
1606144053.599,294.922,-27.344,-9.766,690.430,0.000
1606144053.603,365.234,-13.672,0.000,986.328,0.000
1606144053.607,-108.398,-32.227,-24.414,-104.004,0.000
1606144053.611,-482.422,-54.199,-53.711,-1000.000,0.000
1606144053.615,-271.484,-44.434,-35.645,-669.922,0.000
1606144053.619,249.512,-25.391,-7.812,533.203,0.000
1606144053.622,407.715,-9.277,1.465,-949.707,0.000
1606144053.626,-42.969,-19.531,-22.461,42.480,0.000
1606144053.630,-476.562,-53.223,-53.223,-1000.000,0.000
1606144053.634,-340.820,-51.758,-43.457,-783.691,0.000
1606144053.638,203.613,-23.926,-5.371,380.371,0.000
1606144053.642,434.082,-10.742,5.371,-912.109,0.000
1606144053.646,32.227,-36.621,-23.926,213.379,0.000
1606144053.650,-416.992,-58.105,-49.805,-973.145,0.000
1606144053.654,-373.047,-49.805,-51.270,-877.930,0.000
1606144053.658,125.977,-26.367,-18.555,258.789,0.000
1606144053.661,424.316,-11.230,7.812,-897.461,0.000
1606144053.665,95.215,-27.344,-14.160,388.672,0.000
1606144053.669,-407.227,-54.688,-51.270,-843.262,0.000
1606144053.673,-438.477,-51.758,-49.805,-970.703,0.000
1606144053.677,63.477,-24.902,-28.320,136.230,0.000
1606144053.681,425.781,-13.672,-8.301,-906.738,0.000
1606144053.685,179.199,-15.625,-23.926,541.992,0.000
1606144053.689,-355.957,-31.250,-65.918,-687.500,0.000
1606144053.693,-466.309,-55.176,-61.523,-1000.000,0.000
1606144053.697,9.277,-38.086,-23.926,-0.977,0.000
1606144053.701,400.391,-8.301,-0.488,-937.500,0.000
1606144053.704,223.633,-17.578,-9.766,664.062,0.000
1606144053.708,-299.316,-49.805,-41.992,-524.902,0.000
1606144053.712,-476.074,-61.523,-53.223,-1000.000,0.000
1606144053.716,-43.945,-38.086,-28.320,-143.555,0.000
1606144053.720,399.414,-20.996,-18.555,-997.559,0.000
1606144053.724,296.387,5.371,-21.973,770.508,0.000
1606144053.728,-230.469,0.488,-42.969,-387.207,0.000
1606144053.732,-479.980,-39.062,-74.707,-1000.000,0.000
1606144053.736,-108.887,-30.762,-54.688,-338.867,0.000
1606144053.740,360.840,-15.625,-22.461,889.648,0.000
1606144053.744,331.055,-17.090,-16.602,860.840,0.000
1606144053.747,-197.266,-30.273,-39.062,-280.273,0.000
1606144053.751,-503.418,-42.480,-64.941,-1000.000,0.000
1606144053.755,-207.031,-37.109,-46.875,-515.625,0.000
1606144053.759,301.758,-14.160,-12.207,731.445,0.000
1606144053.763,374.512,-5.859,4.395,960.449,0.000
1606144053.767,-117.676,-12.695,-22.949,-147.949,0.000
1606144053.771,-489.746,-29.785,-59.570,-1000.000,0.000
1606144053.775,-273.438,-39.551,-43.457,-644.531,0.000
1606144053.779,253.418,-23.926,-13.672,574.219,0.000
1606144053.783,388.672,-12.695,-11.719,-970.215,0.000
1606144053.786,-68.359,-33.691,-37.598,-12.695,0.000
1606144053.790,-467.285,-46.875,-59.570,-1000.000,0.000
1606144053.794,-299.316,-30.762,-42.480,-738.770,0.000
1606144053.798,228.027,-14.160,-7.812,434.082,0.000
1606144053.802,429.688,0.000,10.742,-921.387,0.000
1606144053.806,28.809,-14.648,-20.508,181.152,0.000
1606144053.810,-434.570,-48.340,-58.594,-994.629,0.000
1606144053.814,-362.305,-52.246,-45.410,-846.191,0.000
1606144053.818,169.434,-23.926,-12.695,303.711,0.000
1606144053.822,434.570,-5.371,-1.953,-900.391,0.000
1606144053.826,95.703,3.418,-17.090,345.703,0.000
1606144053.829,-401.367,-25.391,-41.992,-880.859,0.000
1606144053.833,-417.480,-49.316,-43.945,-941.406,0.000
1606144053.837,103.516,-20.020,-8.301,179.688,0.000
1606144053.841,429.199,-0.488,5.859,-902.832,0.000
1606144053.845,149.902,-16.113,-19.043,499.023,0.000
1606144053.849,-349.609,-44.922,-47.363,-736.328,0.000
1606144053.853,-438.965,-46.875,-55.664,-1000.000,0.000
1606144053.857,43.457,-22.949,-25.391,58.105,0.000
1606144053.861,427.246,-5.371,-5.371,-926.270,0.000
1606144053.865,215.820,-2.441,-18.066,630.371,0.000
1606144053.869,-305.176,-23.438,-39.062,-570.312,0.000
1606144053.872,-468.750,-51.270,-41.016,-1000.000,0.000
1606144053.876,-36.621,-32.715,-27.832,-108.398,0.000
1606144053.880,406.250,-10.742,-10.742,-974.609,0.000
1606144053.884,269.531,-21.484,-12.207,732.422,0.000
1606144053.888,-274.902,-47.363,-40.527,-435.547,0.000
1606144053.892,-484.863,-54.199,-59.082,-1000.000,0.000
1606144053.896,-104.980,-38.086,-38.086,-295.410,0.000
1606144053.900,348.633,-16.113,-14.648,924.805,0.000
1606144053.904,310.547,4.395,-16.602,830.566,0.000
1606144053.908,-215.332,-13.184,-43.457,-319.336,0.000
1606144053.911,-502.441,-55.664,-59.082,-1000.000,0.000
1606144053.915,-173.828,-53.711,-41.016,-465.332,0.000
1606144053.919,326.172,-29.785,-10.254,787.598,0.000
1606144053.923,359.375,-17.090,-0.977,924.805,0.000
1606144053.927,-152.832,-37.109,-34.668,-202.148,0.000
1606144053.931,-493.652,-56.152,-55.664,-1000.000,0.000
1606144053.935,-241.211,-47.852,-40.039,-601.074,0.000
1606144053.939,276.855,-17.090,-5.859,631.348,0.000
1606144053.943,392.090,-7.812,-3.906,-989.746,0.000
1606144053.947,-70.312,-34.180,-40.527,-57.617,0.000
1606144053.951,-472.656,-53.711,-58.594,-1000.000,0.000
1606144053.954,-315.430,-46.875,-53.711,-730.957,0.000
1606144053.958,253.906,-22.949,-20.996,537.598,0.000
1606144053.962,380.371,0.488,-1.465,987.793,0.000
1606144053.966,88.867,-7.812,-19.043,347.168,0.000
1606144053.970,353.027,-15.137,-6.836,767.090,0.000
1606144053.974,357.422,-19.531,-10.254,932.129,0.000
1606144053.978,-195.312,-45.410,-41.504,-393.066,0.000
1606144053.982,-480.957,-51.270,-50.781,-1000.000,0.000
1606144053.986,-148.438,-34.668,-35.156,-411.621,0.000
1606144053.990,346.191,-13.184,-6.348,800.781,0.000
1606144053.994,341.797,-8.789,-6.836,967.285,0.000
1606144053.997,-139.648,-24.902,-39.551,-207.520,0.000
1606144054.001,-487.305,-53.223,-60.059,-1000.000,0.000
1606144054.005,-228.516,-52.734,-41.504,-559.570,0.000
1606144054.009,297.852,-22.461,-6.348,718.750,0.000
1606144054.013,366.699,-19.043,-6.836,-980.469,0.000
1606144054.017,-91.797,-41.504,-34.180,-34.180,0.000
1606144054.021,-493.652,-62.012,-43.945,-1000.000,0.000
1606144054.025,-304.199,-52.246,-26.855,-707.520,0.000
1606144054.029,246.094,-28.320,-1.953,612.793,0.000
1606144054.033,396.973,-21.484,0.488,-941.406,0.000
1606144054.036,-23.926,-32.715,-18.555,133.789,0.000
1606144054.040,-475.098,-50.293,-39.551,-951.172,0.000
1606144054.044,-356.445,-42.480,-35.645,-839.844,0.000
1606144054.048,184.082,-21.973,-5.371,467.285,0.000
1606144054.052,415.527,-10.254,5.859,-925.781,0.000
1606144054.056,49.805,-9.277,-18.555,273.926,0.000
1606144054.060,-433.105,-31.250,-44.922,-881.348,0.000
1606144054.064,-384.766,-41.992,-35.156,-948.242,0.000
1606144054.068,118.652,-24.902,-18.555,281.250,0.000
1606144054.072,415.039,-9.277,-9.277,-937.500,0.000
1606144054.076,112.793,-23.438,-20.020,406.250,0.000
1606144054.079,-389.160,-56.152,-41.016,-813.965,0.000
1606144054.083,-426.270,-61.523,-49.805,-1000.000,0.000
1606144054.087,38.086,-25.391,-36.133,88.867,0.000
1606144054.091,406.250,-2.930,-7.812,-973.145,0.000
1606144054.095,163.086,-8.301,-22.461,533.203,0.000
1606144054.099,-359.375,-36.133,-52.246,-741.211,0.000
1606144054.103,-463.867,-51.758,-55.176,-1000.000,0.000
1606144054.107,-32.715,-33.691,-36.133,-107.910,0.000
1606144054.111,394.043,-9.277,-15.625,957.520,0.000
1606144054.115,229.004,-11.230,-14.160,701.660,0.000
1606144054.119,-300.293,-46.875,-32.227,-625.000,0.000
1606144054.122,-479.004,-56.152,-49.316,-1000.000,0.000
1606144054.126,-75.195,-38.086,-36.133,-238.281,0.000
1606144054.130,395.996,-18.555,-7.812,887.695,0.000
1606144054.134,289.062,3.906,-9.766,844.727,0.000
1606144054.138,-231.445,15.625,-38.574,-448.730,0.000
1606144054.142,-490.723,-29.785,-61.523,-1000.000,0.000
1606144054.146,-147.461,-39.062,-36.621,-368.652,0.000
1606144054.150,355.469,-11.719,-1.953,823.730,0.000
1606144054.154,331.055,-18.555,-10.742,937.012,0.000
1606144054.158,-155.273,-42.480,-28.320,-266.602,0.000
1606144054.161,-481.934,-59.082,-40.527,-1000.000,0.000
1606144054.165,-196.777,-44.434,-28.320,-497.070,0.000
1606144054.169,333.984,-20.996,-8.789,754.395,0.000
1606144054.173,385.254,-17.090,-3.418,-992.676,0.000
1606144054.177,-71.289,-33.691,-27.832,-76.660,0.000
1606144054.181,-463.379,-52.246,-45.898,-1000.000,0.000
1606144054.185,-260.254,-47.852,-35.645,-658.691,0.000
1606144054.189,277.344,-33.691,-21.484,649.902,0.000
1606144054.193,394.531,-19.531,-12.695,-948.242,0.000
1606144054.197,-37.109,6.836,-24.414,99.609,0.000
1606144054.201,-468.262,-34.180,-44.922,-970.703,0.000
1606144054.204,-322.754,-52.246,-47.363,-805.176,0.000
1606144054.208,210.938,-13.672,-15.137,520.020,0.000
1606144054.212,417.969,-4.883,0.977,-929.199,0.000
1606144054.216,23.926,-27.344,-34.180,214.355,0.000
1606144054.220,-444.824,-46.875,-63.477,-909.180,0.000
1606144054.224,-371.094,-48.828,-58.105,-919.922,0.000
1606144054.228,134.277,-37.109,-20.020,341.797,0.000
1606144054.232,422.363,-21.973,1.953,-928.711,0.000
1606144054.236,91.797,19.043,-19.531,355.469,0.000
1606144054.240,-421.387,2.441,-46.875,-839.355,0.000
1606144054.244,-418.457,-49.316,-48.340,-1000.000,0.000
1606144054.247,63.477,-38.086,-17.090,142.578,0.000
1606144054.251,417.969,-19.043,5.371,-959.473,0.000
1606144054.255,165.527,-23.438,-12.207,507.812,0.000
1606144054.259,-358.887,-46.387,-38.086,-760.254,0.000
1606144054.263,-434.082,-57.129,-40.039,-1000.000,0.000
1606144054.267,18.555,-33.691,-17.090,-27.832,0.000
1606144054.271,421.387,-13.672,-3.906,988.281,0.000
1606144054.275,222.168,-15.137,-13.672,668.945,0.000
1606144054.279,-309.570,-43.945,-41.992,-647.949,0.000
1606144054.283,-470.703,-67.871,-58.105,-1000.000,0.000
1606144054.286,-59.082,-52.734,-33.203,-187.012,0.000
1606144054.290,408.691,-20.020,-5.859,915.527,0.000
1606144054.294,284.180,-5.859,-7.812,789.062,0.000
1606144054.298,-251.953,-25.879,-32.715,-518.555,0.000
1606144054.302,-477.051,-43.457,-53.223,-1000.000,0.000
1606144054.306,-125.488,-33.203,-36.621,-330.078,0.000
1606144054.310,359.375,-18.066,-4.395,841.309,0.000
1606144054.314,322.266,0.000,-7.324,912.598,0.000
1606144054.318,-169.922,-16.113,-40.039,-321.777,0.000
1606144054.322,-488.281,-58.105,-56.641,-1000.000,0.000
1606144054.326,-190.430,-47.852,-30.762,-462.402,0.000
1606144054.329,343.262,-20.996,-2.930,774.414,0.000
1606144054.333,364.258,-10.742,-11.230,987.793,0.000
1606144054.337,-125.488,-10.742,-32.227,-135.254,0.000
1606144054.341,-486.328,-46.875,-50.781,-1000.000,0.000
1606144054.345,-235.352,-45.410,-40.527,-606.934,0.000
1606144054.349,291.016,-26.367,-8.789,692.383,0.000
1606144054.353,392.090,-31.738,-12.695,-966.309,0.000
1606144054.357,-45.410,-41.504,-34.180,25.879,0.000
1606144054.361,-471.191,-58.105,-48.828,-1000.000,0.000
1606144054.365,-306.641,-48.828,-44.434,-752.930,0.000
1606144054.369,229.980,-30.273,-25.391,568.359,0.000
1606144054.372,410.645,-14.160,-14.160,-931.641,0.000
1606144054.376,23.926,6.836,-26.367,191.895,0.000
1606144054.380,-441.895,-37.598,-49.316,-924.316,0.000
1606144054.384,-347.656,-58.594,-40.039,-882.324,0.000
1606144054.388,178.223,-29.785,-15.625,405.273,0.000
1606144054.392,439.453,-6.348,-8.301,-926.270,0.000
1606144054.396,95.703,-15.137,-18.066,323.242,0.000
1606144054.400,-410.645,-43.457,-45.898,-857.910,0.000
1606144054.404,-378.418,-44.922,-44.922,-982.910,0.000
1606144054.408,125.488,-24.902,-18.555,213.379,0.000
1606144054.411,425.781,-12.695,-21.973,-944.824,0.000
1606144054.415,134.277,-7.324,-35.156,460.449,0.000
1606144054.419,-387.207,-38.574,-49.805,-785.156,0.000
1606144054.423,-440.918,-50.781,-51.270,-1000.000,0.000
1606144054.427,23.926,-32.715,-26.855,19.531,0.000
1606144054.431,418.945,-20.996,-7.324,-993.652,0.000
1606144054.435,202.148,-10.742,-17.578,599.609,0.000
1606144054.439,-336.914,-33.203,-50.781,-703.125,0.000
1606144054.443,-463.379,-55.176,-64.453,-1000.000,0.000
1606144054.447,-34.668,-30.273,-38.574,-147.461,0.000
1606144054.451,407.227,-5.371,-13.672,936.035,0.000
1606144054.454,261.719,-4.883,-16.113,754.883,0.000
1606144054.458,-276.367,-23.438,-41.992,-564.453,0.000
1606144054.462,-482.910,-45.410,-50.781,-1000.000,0.000
1606144054.466,-110.352,-41.504,-22.461,-282.715,0.000
1606144054.470,362.793,-22.949,5.371,867.188,0.000
1606144054.474,296.875,-12.695,-2.930,875.000,0.000
1606144054.478,-214.355,-31.738,-31.250,-395.996,0.000
1606144054.482,-498.535,-57.617,-52.246,-1000.000,0.000
1606144054.486,-181.641,-48.828,-36.133,-427.246,0.000
1606144054.490,336.426,-24.902,-7.324,793.945,0.000
1606144054.494,341.309,-11.719,-8.789,973.145,0.000
1606144054.497,-152.344,-22.461,-27.832,-208.984,0.000
1606144054.501,-489.746,-48.828,-44.922,-1000.000,0.000
1606144054.505,-197.266,-43.945,-36.621,-481.445,0.000
1606144054.509,302.734,-18.555,-9.277,743.164,0.000
1606144054.513,368.164,-6.836,4.883,-987.793,0.000
1606144054.517,-61.035,7.324,-18.066,-8.789,0.000
1606144054.521,-473.145,-30.273,-53.223,-1000.000,0.000
1606144054.525,-291.504,-54.688,-46.387,-713.867,0.000
1606144054.529,233.398,-21.973,-14.160,609.375,0.000
1606144054.533,395.020,-9.277,-4.395,-935.059,0.000
1606144054.536,-16.602,-29.785,-30.273,135.742,0.000
1606144054.540,-472.656,-66.895,-57.129,-946.777,0.000
1606144054.544,-315.918,-61.523,-42.480,-770.020,0.000
1606144054.548,185.059,-34.180,-11.719,483.887,0.000
1606144054.552,396.973,-25.391,-3.906,-938.477,0.000
1606144054.556,49.805,-32.715,-25.879,283.203,0.000
1606144054.560,-446.289,-58.105,-48.828,-881.348,0.000
1606144054.564,-394.043,-56.641,-46.875,-956.543,0.000
1606144054.568,104.980,-37.109,-30.762,271.484,0.000
1606144054.572,404.297,-21.484,-13.184,-937.012,0.000
1606144054.576,116.211,8.789,-18.555,403.320,0.000
1606144054.579,-410.645,-31.250,-46.387,-816.895,0.000
1606144054.583,-442.383,-60.059,-47.363,-1000.000,0.000
1606144054.587,42.969,-22.461,-26.367,83.984,0.000
1606144054.591,414.062,-9.766,-9.277,-974.121,0.000
1606144054.595,183.594,-31.738,-24.902,567.383,0.000
1606144054.599,-356.934,-53.223,-55.664,-727.539,0.000
1606144054.603,-460.449,-53.711,-56.152,-1000.000,0.000
1606144054.607,-12.695,-33.691,-32.715,-83.008,0.000
1606144054.611,405.762,-14.648,-8.789,961.914,0.000
1606144054.615,248.535,4.883,-13.184,711.914,0.000
1606144054.619,-262.695,3.906,-38.574,-608.887,0.000
1606144054.622,-468.262,-49.805,-49.805,-1000.000,0.000
1606144054.626,-91.797,-48.828,-33.203,-236.816,0.000
1606144054.630,388.672,-14.160,-11.230,890.625,0.000
1606144054.634,295.410,-9.277,-20.996,836.426,0.000
1606144054.638,-232.910,-32.715,-50.781,-456.543,0.000
1606144054.642,-487.793,-59.570,-63.477,-1000.000,0.000
1606144054.646,-144.043,-44.922,-41.504,-372.559,0.000
1606144054.650,361.816,-19.531,-11.230,821.289,0.000
1606144054.654,341.797,0.000,-9.766,939.453,0.000
1606144054.658,-152.832,-0.488,-35.645,-267.578,0.000
1606144054.661,-478.027,-41.504,-52.734,-1000.000,0.000
1606144054.665,-201.172,-44.434,-28.320,-506.836,0.000
1606144054.669,318.848,-26.855,-1.465,749.512,0.000
1606144054.673,379.883,-21.973,-6.836,-991.699,0.000
1606144054.677,-78.613,-36.621,-31.250,-74.219,0.000
1606144054.681,-482.422,-60.059,-53.711,-1000.000,0.000
1606144054.685,-266.602,-46.387,-39.062,-660.156,0.000
1606144054.689,277.344,-20.508,-11.719,653.809,0.000
