timestamps,TP9,AF7,AF8,TP10,Right AUX
1606132225.830,-0.488,0.000,0.000,-0.488,0.000
1606132225.834,0.000,0.000,0.000,0.000,0.000
1606132225.838,10.742,-0.488,-0.488,29.297,0.000
1606132225.842,-32.227,-0.488,0.000,-84.473,0.000
1606132225.846,137.695,-1.465,-3.418,370.117,0.000
1606132225.850,264.160,-10.254,-8.789,758.789,0.000
1606132225.853,-116.699,-34.180,-30.762,-178.223,0.000
1606132225.857,-372.559,-50.293,-45.898,-895.508,0.000
1606132225.861,-154.785,-39.062,-26.855,-441.406,0.000
1606132225.865,220.703,-15.625,-8.789,540.039,0.000
1606132225.869,278.320,-7.324,-8.301,787.598,0.000
1606132225.873,-82.031,-29.297,-29.785,-82.031,0.000
1606132225.877,-362.793,-48.340,-46.387,-866.699,0.000
1606132225.881,-207.520,-38.086,-34.668,-573.242,0.000
1606132225.885,180.664,-10.742,-8.789,436.523,0.000
1606132225.889,295.898,0.977,3.906,827.637,0.000
1606132225.893,-33.203,-21.484,-17.090,48.828,0.000
1606132225.896,-346.680,-38.086,-43.457,-813.965,0.000
1606132225.900,-253.906,-31.738,-33.203,-663.086,0.000
1606132225.904,139.648,-10.254,-4.883,337.402,0.000
1606132225.908,309.570,0.000,-7.324,839.355,0.000
1606132225.912,16.113,-24.902,-35.156,166.504,0.000
1606132225.916,-335.938,-49.316,-47.363,-756.348,0.000
1606132225.920,-305.664,-52.246,-41.992,-763.672,0.000
1606132225.924,86.426,-30.762,-20.996,210.449,0.000
1606132225.928,300.293,-6.836,-2.930,841.309,0.000
1606132225.932,65.430,-17.578,-15.625,310.547,0.000
1606132225.935,-302.246,-46.387,-37.598,-663.574,0.000
1606132225.939,-327.637,-51.270,-41.016,-832.031,0.000
1606132225.943,41.992,-24.414,-25.879,89.355,0.000
1606132225.947,298.340,14.160,-2.930,830.566,0.000
1606132225.951,116.699,1.953,-12.695,453.125,0.000
1606132225.955,-278.809,-42.480,-42.480,-558.105,0.000
1606132225.959,-353.027,-50.293,-40.039,-872.559,0.000
1606132225.963,5.371,-28.809,-25.391,-26.855,0.000
1606132225.967,296.875,-15.137,-16.113,783.691,0.000
1606132225.971,163.574,-21.973,-17.090,538.086,0.000
1606132225.975,-229.492,-45.410,-36.621,-469.238,0.000
1606132225.978,-360.840,-49.805,-44.434,-899.902,0.000
1606132225.982,-42.480,-24.414,-26.367,-155.762,0.000
1606132225.986,282.227,-3.418,-12.207,733.887,0.000
1606132225.990,203.613,-8.789,-20.508,640.625,0.000
1606132225.994,-188.965,-27.832,-40.039,-349.609,0.000
1606132225.998,-366.211,-41.992,-47.852,-906.738,0.000
1606132226.002,-91.797,-28.809,-25.391,-289.062,0.000
1606132226.006,270.996,-0.488,3.418,665.527,0.000
1606132226.010,254.883,-0.977,-3.418,727.051,0.000
1606132226.014,-139.648,-30.273,-36.621,-238.281,0.000
1606132226.018,-369.629,-50.293,-47.363,-899.902,0.000
1606132226.021,-147.949,-39.062,-26.855,-416.992,0.000
1606132226.025,227.539,-5.371,-9.277,565.918,0.000
1606132226.029,266.113,-0.488,-12.207,778.320,0.000
1606132226.033,-110.840,-27.832,-35.645,-122.559,0.000
1606132226.037,-377.441,-38.574,-46.875,-876.953,0.000
1606132226.041,-202.637,-26.367,-32.227,-528.809,0.000
1606132226.045,188.965,-6.836,-5.371,474.609,0.000
1606132226.049,285.645,-2.441,1.953,814.453,0.000
1606132226.053,-62.988,-22.949,-20.020,-1.953,0.000
1606132226.057,-365.234,-35.645,-32.715,-833.984,0.000
1606132226.060,-244.629,-28.809,-25.391,-640.625,0.000
1606132226.064,147.461,-12.207,-15.137,360.352,0.000
1606132226.068,290.527,-9.277,-13.672,831.055,0.000
1606132226.072,-10.742,-28.809,-28.809,135.254,0.000
1606132226.076,-342.773,-47.852,-41.504,-768.066,0.000
1606132226.080,-286.133,-45.898,-35.645,-733.887,0.000
1606132226.084,112.793,-14.160,-9.766,257.324,0.000
1606132226.088,305.664,0.488,-0.977,848.145,0.000
1606132226.092,39.062,-19.531,-19.531,272.461,0.000
1606132226.096,-325.684,-37.598,-37.109,-682.617,0.000
1606132226.100,-325.684,-39.062,-43.457,-806.641,0.000
1606132226.103,57.617,-15.137,-24.902,134.277,0.000
1606132226.107,294.922,-0.488,-10.742,831.055,0.000
1606132226.111,90.332,-19.043,-21.484,390.137,0.000
1606132226.115,-284.668,-44.434,-41.016,-604.004,0.000
1606132226.119,-335.938,-48.828,-35.645,-858.887,0.000
1606132226.123,18.066,-25.391,-17.090,12.207,0.000
1606132226.127,304.199,-9.766,-5.859,812.988,0.000
1606132226.131,146.484,-18.555,-9.766,487.305,0.000
1606132226.135,-250.488,-37.109,-36.133,-529.297,0.000
1606132226.139,-347.168,-43.945,-42.969,-874.023,0.000
1606132226.143,-20.020,-24.902,-16.602,-106.445,0.000
1606132226.146,294.434,9.766,-9.277,751.465,0.000
1606132226.150,200.195,1.953,-19.531,609.375,0.000
1606132226.154,-197.754,-38.574,-30.273,-385.742,0.000
1606132226.158,-368.652,-50.293,-44.922,-908.203,0.000
1606132226.162,-77.637,-29.785,-29.785,-243.652,0.000
1606132226.166,272.461,-7.812,-4.395,688.477,0.000
1606132226.170,238.281,-9.766,-11.719,693.848,0.000
1606132226.174,-152.344,-34.180,-36.133,-286.133,0.000
1606132226.178,-364.746,-44.922,-42.480,-917.969,0.000
1606132226.182,-122.070,-23.926,-24.414,-382.324,0.000
1606132226.185,250.977,-4.395,-5.371,591.309,0.000
1606132226.189,272.949,-5.371,-2.930,759.277,0.000
1606132226.193,-104.980,-22.949,-26.367,-153.809,0.000
1606132226.197,-369.629,-38.574,-47.852,-894.531,0.000
1606132226.201,-181.152,-34.180,-40.527,-510.742,0.000
1606132226.205,213.867,-7.812,-15.137,500.488,0.000
1606132226.209,286.621,-4.883,-7.812,810.059,0.000
1606132226.213,-57.129,-24.414,-26.855,-25.391,0.000
1606132226.217,-346.191,-43.945,-41.504,-841.797,0.000
1606132226.221,-226.074,-35.156,-31.738,-605.469,0.000
1606132226.225,166.504,-6.836,-12.695,402.344,0.000
1606132226.228,304.199,0.000,-9.277,845.703,0.000
1606132226.232,-14.160,-24.902,-21.484,105.957,0.000
1606132226.236,-347.168,-49.805,-36.621,-793.457,0.000
1606132226.240,-270.020,-45.410,-40.527,-712.402,0.000
1606132226.244,124.023,-20.508,-20.996,290.039,0.000
1606132226.248,306.641,-3.906,-8.789,855.469,0.000
1606132226.252,38.086,-23.438,-25.879,237.793,0.000
1606132226.256,-315.918,-15.625,-45.410,-708.008,0.000
1606132226.260,-300.781,-3.906,-41.504,-769.531,0.000
1606132226.264,83.008,-9.766,-16.602,182.129,0.000
1606132226.268,302.734,-2.930,-13.184,839.355,0.000
1606132226.271,82.520,-22.949,-30.762,365.234,0.000
1606132226.275,-287.598,-24.902,-47.363,-618.652,0.000
1606132226.279,-331.543,-27.832,-43.945,-839.844,0.000
1606132226.283,35.645,-24.902,-21.484,54.688,0.000
1606132226.287,302.734,-7.812,-13.184,818.848,0.000
1606132226.291,135.742,-20.020,-29.297,487.793,0.000
1606132226.295,-252.441,-44.922,-51.758,-520.508,0.000
1606132226.299,-354.004,-53.223,-51.758,-877.930,0.000
1606132226.303,-12.207,-26.367,-29.785,-65.918,0.000
1606132226.307,293.457,-1.953,-15.137,783.203,0.000
1606132226.310,174.805,-13.672,-20.508,590.332,0.000
1606132226.314,-227.051,-44.922,-40.039,-424.316,0.000
1606132226.318,-377.441,-54.688,-43.457,-906.250,0.000
1606132226.322,-68.359,-34.668,-26.855,-206.055,0.000
1606132226.326,270.020,-12.207,-23.438,705.078,0.000
1606132226.330,209.473,-25.391,-30.273,661.133,0.000
1606132226.334,-180.176,-37.109,-43.945,-321.289,0.000
1606132226.338,-375.488,-25.879,-49.316,-913.086,0.000
1606132226.342,-111.328,-26.367,-28.809,-333.984,0.000
1606132226.346,265.137,-6.836,-14.160,640.137,0.000
1606132226.350,271.973,-7.812,-20.508,757.812,0.000
1606132226.353,-116.699,-37.109,-37.109,-188.965,0.000
1606132226.357,-361.816,-52.246,-47.363,-898.926,0.000
1606132226.361,-154.297,-42.969,-31.738,-465.332,0.000
1606132226.365,229.980,-9.766,-8.301,538.086,0.000
1606132226.369,295.898,-8.301,-11.230,806.641,0.000
1606132226.373,-70.312,-49.316,-34.180,-67.871,0.000
1606132226.377,-352.051,-64.453,-48.340,-865.723,0.000
1606132226.381,-197.266,-45.410,-39.551,-576.660,0.000
1606132226.385,179.688,-16.113,-15.625,428.711,0.000
1606132226.389,291.016,-9.766,-9.766,827.637,0.000
1606132226.393,-36.133,-32.227,-38.086,60.547,0.000
1606132226.396,-361.816,-56.641,-62.012,-819.336,0.000
1606132226.400,-262.695,-49.805,-48.340,-678.711,0.000
1606132226.404,139.648,-19.043,-19.043,330.566,0.000
1606132226.408,309.082,-7.812,-12.207,858.398,0.000
1606132226.412,31.738,-24.414,-28.320,213.867,0.000
1606132226.416,-312.500,-27.344,-44.434,-714.355,0.000
1606132226.420,-288.086,-32.715,-37.109,-739.258,0.000
1606132226.424,102.539,-27.832,-13.672,223.145,0.000
1606132226.428,318.848,-12.207,-5.371,850.586,0.000
1606132226.432,80.078,-21.973,-19.043,338.379,0.000
1606132226.435,-290.039,-31.738,-36.133,-632.324,0.000
1606132226.439,-320.801,-40.527,-41.504,-815.430,0.000
1606132226.443,58.105,-25.879,-22.461,109.375,0.000
1606132226.447,321.777,-2.930,-4.883,850.586,0.000
1606132226.451,137.207,-18.555,-22.461,460.938,0.000
1606132226.455,-251.465,-46.387,-40.039,-543.945,0.000
1606132226.459,-339.355,-51.758,-34.180,-859.863,0.000
1606132226.463,12.695,-34.180,-19.043,-18.066,0.000
1606132226.467,316.895,-13.184,-15.137,801.758,0.000
1606132226.471,179.688,-26.855,-24.414,554.688,0.000
1606132226.475,-236.816,-44.922,-37.598,-464.844,0.000
1606132226.478,-370.605,-42.480,-42.969,-907.227,0.000
1606132226.482,-52.246,-33.691,-27.832,-173.340,0.000
1606132226.486,281.250,-16.602,-13.184,718.262,0.000
1606132226.490,217.285,-19.043,-18.066,637.695,0.000
1606132226.494,-183.105,-42.969,-36.621,-354.004,0.000
1606132226.498,-371.582,-53.223,-41.992,-910.156,0.000
1606132226.502,-103.516,-41.504,-24.414,-305.176,0.000
1606132226.506,259.766,-15.137,-7.324,648.438,0.000
1606132226.510,254.883,-8.301,-15.625,735.352,0.000
1606132226.514,-134.277,-25.879,-38.574,-232.910,0.000
1606132226.518,-358.398,-24.414,-41.504,-911.133,0.000
1606132226.521,-139.160,-23.438,-26.367,-428.223,0.000
1606132226.525,231.934,-11.719,-9.766,562.988,0.000
1606132226.529,281.738,-10.742,-3.418,783.203,0.000
1606132226.533,-90.820,-38.574,-30.273,-118.164,0.000
1606132226.537,-372.559,-60.547,-54.199,-894.043,0.000
1606132226.541,-198.242,-47.363,-41.504,-549.316,0.000
1606132226.545,196.777,-14.648,-21.484,461.426,0.000
1606132226.549,290.039,-10.254,-17.090,817.871,0.000
1606132226.553,-53.223,-26.367,-30.762,26.367,0.000
1606132226.557,-367.188,-36.621,-50.293,-833.984,0.000
1606132226.560,-259.766,-37.109,-38.574,-670.898,0.000
1606132226.564,138.184,-16.602,-12.207,342.285,0.000
1606132226.568,280.762,-17.090,-19.043,823.242,0.000
1606132226.572,-14.648,-34.668,-37.109,139.648,0.000
1606132226.576,-350.098,-51.758,-49.805,-771.484,0.000
1606132226.580,-309.570,-56.152,-46.875,-751.953,0.000
1606132226.584,87.402,-32.715,-22.461,237.793,0.000
1606132226.588,295.410,-13.672,-11.719,842.285,0.000
1606132226.592,42.480,-34.180,-26.367,282.227,0.000
1606132226.596,-323.730,-58.105,-45.898,-674.805,0.000
1606132226.600,-330.566,-50.781,-45.410,-804.199,0.000
1606132226.603,56.152,-26.855,-21.973,137.207,0.000
1606132226.607,301.758,-11.230,-10.742,842.285,0.000
1606132226.611,96.191,-27.344,-18.555,409.668,0.000
1606132226.615,-286.133,-35.156,-39.551,-587.891,0.000
1606132226.619,-352.539,-34.668,-54.688,-864.258,0.000
1606132226.623,7.812,-38.086,-31.738,0.977,0.000
1606132226.627,296.875,-20.020,-10.254,807.129,0.000
1606132226.631,154.297,-30.273,-20.020,525.391,0.000
1606132226.635,-246.582,-47.852,-41.016,-486.816,0.000
1606132226.639,-366.211,-46.875,-45.410,-893.555,0.000
1606132226.643,-33.691,-30.273,-21.973,-120.117,0.000
1606132226.646,289.062,-10.254,-1.465,760.254,0.000
1606132226.650,201.172,-19.531,-5.859,637.207,0.000
1606132226.654,-198.730,-25.879,-27.832,-369.141,0.000
1606132226.658,-371.094,-27.344,-33.203,-913.086,0.000
1606132226.662,-83.984,-33.691,-24.902,-267.578,0.000
1606132226.666,269.531,-11.230,-13.184,680.176,0.000
1606132226.670,241.699,-9.277,-19.531,711.426,0.000
1606132226.674,-149.902,-38.574,-43.945,-266.113,0.000
1606132226.678,-371.094,-57.129,-51.758,-910.156,0.000
1606132226.682,-134.277,-38.086,-34.180,-393.066,0.000
1606132226.685,244.141,-7.812,-17.090,591.309,0.000
1606132226.689,278.320,-13.672,-15.137,764.160,0.000
1606132226.693,-94.727,-23.438,-34.668,-156.250,0.000
1606132226.697,-358.398,-20.996,-48.828,-897.949,0.000
1606132226.701,-168.457,-31.738,-33.691,-522.461,0.000
1606132226.705,220.703,-15.625,-15.137,487.305,0.000
1606132226.709,303.711,-9.277,-13.184,808.594,0.000
1606132226.713,-41.016,-27.832,-32.227,-21.973,0.000
1606132226.717,-351.562,-43.457,-52.246,-851.074,0.000
1606132226.721,-229.492,-41.504,-40.527,-631.348,0.000
1606132226.725,171.875,-9.766,-8.789,388.184,0.000
1606132226.728,302.246,-2.441,-1.465,843.750,0.000
1606132226.732,-14.648,-34.180,-27.832,103.027,0.000
1606132226.736,-351.562,-56.641,-50.781,-804.199,0.000
1606132226.740,-278.809,-43.945,-37.109,-719.727,0.000
1606132226.744,131.348,-16.113,-15.625,285.645,0.000
1606132226.748,320.312,-8.789,-10.254,848.145,0.000
1606132226.752,51.270,-31.738,-29.297,246.094,0.000
1606132226.756,-311.035,-45.410,-55.176,-706.055,0.000
1606132226.760,-307.129,-34.668,-54.199,-788.086,0.000
1606132226.764,83.496,-15.625,-29.785,167.480,0.000
1606132226.768,320.312,-2.441,-13.672,842.773,0.000
1606132226.771,101.074,-16.113,-21.973,373.535,0.000
1606132226.775,-280.273,-42.480,-39.551,-613.281,0.000
1606132226.779,-329.590,-45.898,-43.945,-837.891,0.000
1606132226.783,49.316,-20.996,-21.973,53.223,0.000
1606132226.787,318.359,-7.324,-8.789,832.520,0.000
1606132226.791,140.625,-22.949,-20.996,499.512,0.000
1606132226.795,-251.465,-42.480,-38.574,-522.461,0.000
1606132226.799,-357.910,-38.574,-46.875,-893.555,0.000
1606132226.803,-16.602,-27.832,-32.227,-96.191,0.000
1606132226.807,302.734,-15.137,-15.137,769.043,0.000
1606132226.810,191.406,-23.438,-20.020,591.309,0.000
1606132226.814,-216.309,-47.852,-40.039,-428.711,0.000
1606132226.818,-371.582,-49.316,-45.898,-927.734,0.000
1606132226.822,-68.359,-26.367,-26.367,-241.211,0.000
1606132226.826,279.297,-9.766,-11.230,687.500,0.000
1606132226.830,234.863,-13.672,-21.973,676.758,0.000
1606132226.834,-167.969,-37.109,-42.480,-307.129,0.000
1606132226.838,-374.023,-51.758,-48.340,-916.016,0.000
1606132226.842,-116.699,-37.598,-30.273,-354.004,0.000
1606132226.846,245.605,-15.137,-7.812,618.652,0.000
1606132226.850,248.535,-14.648,-10.742,737.305,0.000
1606132226.853,-132.812,-32.715,-35.645,-202.148,0.000
1606132226.857,-377.930,-49.805,-50.293,-911.133,0.000
1606132226.861,-184.082,-42.480,-36.621,-500.488,0.000
1606132226.865,194.824,-13.672,-16.602,502.441,0.000
1606132226.869,270.996,-6.348,-16.113,791.992,0.000
1606132226.873,-80.078,-28.809,-31.738,-69.824,0.000
1606132226.877,-365.234,-48.340,-43.457,-875.977,0.000
1606132226.881,-217.285,-39.062,-40.039,-601.074,0.000
1606132226.885,178.711,-6.348,-16.602,419.434,0.000
1606132226.889,306.641,0.000,-10.254,834.961,0.000
1606132226.893,-22.949,-31.738,-37.598,66.406,0.000
1606132226.896,-341.797,-23.926,-46.387,-804.199,0.000
1606132226.900,-245.117,-9.277,-30.762,-674.805,0.000
1606132226.904,150.879,-4.395,-16.602,319.824,0.000
1606132226.908,322.266,0.000,-15.137,849.609,0.000
1606132226.912,33.203,-23.926,-30.273,207.031,0.000
1606132226.916,-324.219,-43.457,-52.734,-736.328,0.000
1606132226.920,-299.805,-42.480,-52.246,-773.438,0.000
1606132226.924,97.656,-20.020,-26.367,200.684,0.000
1606132226.928,326.172,-1.465,-5.859,851.074,0.000
1606132226.932,88.867,-16.602,-19.531,343.262,0.000
1606132226.935,-291.504,-35.156,-47.852,-643.555,0.000
1606132226.939,-325.684,-41.016,-44.434,-837.891,0.000
1606132226.943,52.734,-28.809,-14.648,79.590,0.000
1606132226.947,315.918,-7.812,-4.883,831.055,0.000
1606132226.951,129.395,-19.043,-18.066,456.055,0.000
1606132226.955,-254.883,-43.457,-37.109,-557.617,0.000
1606132226.959,-347.168,-45.410,-45.898,-889.160,0.000
1606132226.963,-0.977,-21.973,-33.203,-55.664,0.000
1606132226.967,307.129,-9.766,-21.484,779.297,0.000
1606132226.971,180.176,-21.484,-28.320,557.617,0.000
1606132226.975,-221.191,-43.945,-43.945,-444.824,0.000
1606132226.978,-367.676,-50.781,-49.805,-901.367,0.000
1606132226.982,-57.617,-37.598,-32.715,-184.082,0.000
1606132226.986,286.621,-14.160,-12.207,724.609,0.000
1606132226.990,219.238,-19.043,-15.625,658.691,0.000
1606132226.994,-184.570,-35.156,-37.598,-333.984,0.000
1606132226.998,-377.441,-28.809,-44.434,-910.156,0.000
1606132227.002,-115.723,-30.762,-21.973,-316.406,0.000
1606132227.006,251.953,-18.555,-3.418,643.555,0.000
1606132227.010,257.324,-16.602,-9.277,739.258,0.000
1606132227.014,-136.719,-41.016,-30.762,-209.473,0.000
1606132227.018,-379.395,-54.199,-42.969,-900.879,0.000
1606132227.021,-157.715,-39.551,-26.855,-442.871,0.000
1606132227.025,230.469,-18.555,-4.395,551.270,0.000
1606132227.029,274.902,-24.414,-5.371,787.598,0.000
1606132227.033,-102.051,-40.039,-27.344,-99.121,0.000
1606132227.037,-378.418,-40.039,-46.387,-877.930,0.000
1606132227.041,-217.285,-39.062,-41.504,-566.895,0.000
1606132227.045,180.176,-19.043,-16.113,446.777,0.000
1606132227.049,292.480,-11.719,-10.254,827.637,0.000
1606132227.053,-46.875,-34.668,-31.738,31.250,0.000
1606132227.057,-363.281,-50.293,-42.969,-824.219,0.000
1606132227.060,-254.883,-44.922,-29.297,-653.320,0.000
1606132227.064,142.090,-27.832,-13.672,346.191,0.000
1606132227.068,300.781,-16.113,-7.812,845.215,0.000
1606132227.072,8.301,-30.762,-21.484,179.688,0.000
1606132227.076,-338.867,-19.531,-45.410,-745.605,0.000
1606132227.080,-297.363,-14.160,-45.410,-745.117,0.000
1606132227.084,97.656,-25.391,-23.438,230.469,0.000
1606132227.088,312.500,-10.742,-9.277,848.633,0.000
1606132227.092,62.500,-28.320,-25.879,294.922,0.000
1606132227.096,-315.918,-56.641,-45.898,-678.223,0.000
1606132227.100,-337.891,-58.105,-42.969,-821.289,0.000
1606132227.103,48.828,-37.109,-25.879,104.492,0.000
1606132227.107,312.988,-13.672,-12.207,819.824,0.000
1606132227.111,113.770,-20.020,-17.578,414.551,0.000
1606132227.115,-274.414,-41.504,-35.645,-569.824,0.000
1606132227.119,-346.191,-47.852,-41.504,-860.352,0.000
1606132227.123,9.277,-37.109,-31.738,-20.508,0.000
1606132227.127,305.176,-18.066,-19.043,786.621,0.000
1606132227.131,161.621,-23.926,-23.926,529.297,0.000
1606132227.135,-242.188,-42.969,-41.504,-468.750,0.000
1606132227.139,-368.164,-44.434,-46.387,-884.766,0.000
1606132227.143,-42.480,-30.273,-27.832,-141.602,0.000
1606132227.146,285.645,-13.184,-8.301,738.281,0.000
1606132227.150,197.754,-19.043,-13.184,629.395,0.000
1606132227.154,-203.613,-41.016,-38.574,-362.305,0.000
1606132227.158,-381.836,-53.223,-49.805,-901.367,0.000
1606132227.162,-101.074,-35.645,-30.273,-276.855,0.000
1606132227.166,259.277,-8.789,-8.789,665.039,0.000
1606132227.170,239.258,-13.184,-5.859,714.844,0.000
1606132227.174,-157.715,-29.785,-27.832,-252.930,0.000
1606132227.178,-386.230,-24.414,-48.340,-916.992,0.000
1606132227.182,-155.762,-24.414,-36.621,-425.293,0.000
1606132227.185,228.027,-9.277,-13.184,562.500,0.000
1606132227.189,266.113,-2.930,-14.648,763.184,0.000
1606132227.193,-120.605,-29.297,-38.574,-137.695,0.000
1606132227.197,-390.625,-51.270,-50.781,-877.441,0.000
1606132227.201,-202.148,-49.805,-39.551,-521.484,0.000
1606132227.205,198.730,-28.320,-15.137,480.957,0.000
1606132227.209,298.828,-15.137,-7.324,825.195,0.000
1606132227.213,-42.480,-24.902,-28.809,16.113,0.000
1606132227.217,-350.586,-36.133,-45.898,-816.406,0.000
1606132227.221,-231.445,-37.109,-37.109,-616.699,0.000
1606132227.225,188.965,-13.184,-12.695,392.578,0.000
1606132227.228,346.191,8.301,-1.465,867.188,0.000
1606132227.232,15.625,-17.090,-15.625,156.250,0.000
1606132227.236,-325.195,-45.410,-38.574,-744.141,0.000
1606132227.240,-254.395,-40.039,-34.668,-695.312,0.000
1606132227.244,144.531,-19.043,-11.719,287.598,0.000
1606132227.248,337.402,-5.371,-2.930,864.746,0.000
1606132227.252,69.824,-18.066,-18.066,280.762,0.000
1606132227.256,-299.805,-44.434,-38.574,-666.504,0.000
1606132227.260,-300.781,-45.898,-36.133,-772.461,0.000
1606132227.264,89.355,-17.090,-15.625,160.156,0.000
1606132227.268,331.055,-6.836,-7.324,833.984,0.000
1606132227.271,117.676,-27.344,-16.602,383.301,0.000
1606132227.275,-260.254,-50.781,-30.273,-591.309,0.000
1606132227.279,-312.012,-48.828,-30.273,-830.566,0.000
1606132227.283,54.688,-21.484,-7.812,40.039,0.000
1606132227.287,334.961,-7.812,-2.441,798.340,0.000
1606132227.291,173.340,-17.578,-20.508,493.164,0.000
1606132227.295,-227.051,-44.922,-38.574,-496.582,0.000
1606132227.299,-343.262,-53.223,-37.109,-877.930,0.000
1606132227.303,-5.859,-26.855,-18.555,-97.656,0.000
1606132227.307,314.453,-0.488,-12.695,756.836,0.000
1606132227.310,209.961,-9.766,-25.879,593.262,0.000
1606132227.314,-189.941,-30.273,-35.156,-396.484,0.000
1606132227.318,-349.121,-38.086,-40.039,-897.461,0.000
1606132227.322,-52.246,-27.344,-26.855,-232.910,0.000
1606132227.326,290.527,-5.859,-9.766,687.988,0.000
1606132227.330,243.652,-11.719,-15.137,680.176,0.000
1606132227.334,-152.832,-41.504,-35.645,-287.109,0.000
1606132227.338,-370.117,-58.105,-46.387,-900.391,0.000
1606132227.342,-121.582,-30.762,-23.926,-363.281,0.000
1606132227.346,244.629,-5.859,-10.254,599.609,0.000
1606132227.350,260.742,-17.578,-16.602,748.535,0.000
1606132227.353,-109.375,-32.715,-29.297,-158.203,0.000
1606132227.357,-363.281,-34.180,-43.457,-868.164,0.000
1606132227.361,-169.922,-29.297,-32.715,-479.492,0.000
1606132227.365,217.773,-16.113,-11.719,501.953,0.000
1606132227.369,297.363,-9.277,-15.137,796.875,0.000
1606132227.373,-55.176,-26.855,-29.297,-28.809,0.000
1606132227.377,-357.910,-54.688,-37.598,-834.961,0.000
1606132227.381,-223.633,-54.199,-37.598,-594.727,0.000
1606132227.385,176.758,-22.949,-20.508,407.227,0.000
1606132227.389,306.641,-8.789,-3.418,826.172,0.000
1606132227.393,-8.301,-28.809,-21.973,86.914,0.000
1606132227.396,-332.031,-51.758,-47.363,-776.367,0.000
1606132227.400,-245.117,-40.039,-41.992,-672.852,0.000
1606132227.404,143.066,-13.184,-16.602,297.852,0.000
1606132227.408,308.105,-4.883,-6.348,826.172,0.000
1606132227.412,36.133,-25.879,-22.461,220.215,0.000
1606132227.416,-318.848,-51.758,-29.297,-702.637,0.000
1606132227.420,-312.988,-51.758,-26.855,-765.625,0.000
1606132227.424,76.660,-21.484,-16.602,180.176,0.000
1606132227.428,312.500,-5.371,-7.812,826.660,0.000
1606132227.432,83.984,-25.879,-20.020,343.262,0.000
1606132227.435,-291.504,-43.945,-39.551,-619.629,0.000
1606132227.439,-326.172,-44.434,-42.969,-824.219,0.000
1606132227.443,53.711,-19.531,-22.461,72.266,0.000
1606132227.447,328.125,0.977,-2.441,828.613,0.000
1606132227.451,153.809,-15.137,-16.602,483.887,0.000
1606132227.455,-237.305,-34.668,-40.527,-502.930,0.000
1606132227.459,-337.891,-33.203,-37.598,-850.098,0.000
1606132227.463,7.812,-17.578,-22.461,-54.688,0.000
1606132227.467,320.312,-3.906,-10.254,771.973,0.000
1606132227.471,191.895,-20.996,-21.973,564.453,0.000
1606132227.475,-208.496,-44.434,-40.527,-425.293,0.000
1606132227.478,-356.445,-49.805,-32.715,-881.836,0.000
1606132227.482,-59.570,-24.902,-19.531,-190.430,0.000
1606132227.486,272.461,-5.371,-14.648,700.195,0.000
1606132227.490,205.078,-19.531,-17.578,651.367,0.000
1606132227.494,-177.246,-35.645,-30.762,-311.035,0.000
1606132227.498,-373.535,-49.805,-41.992,-895.996,0.000
1606132227.502,-119.629,-36.133,-27.344,-332.031,0.000
1606132227.506,255.371,-8.789,-9.766,617.188,0.000
1606132227.510,252.930,-16.602,-17.578,715.332,0.000
1606132227.514,-136.230,-38.086,-36.621,-216.309,0.000
1606132227.518,-377.930,-48.340,-45.410,-901.367,0.000
1606132227.521,-169.434,-36.621,-33.203,-463.379,0.000
1606132227.525,222.168,-15.137,-13.184,520.996,0.000
1606132227.529,287.109,-17.578,-14.160,770.996,0.000
1606132227.533,-87.402,-41.504,-34.668,-83.984,0.000
1606132227.537,-369.141,-60.547,-45.898,-852.051,0.000
1606132227.541,-210.449,-53.223,-37.109,-559.082,0.000
1606132227.545,182.617,-21.484,-19.531,434.082,0.000
1606132227.549,294.922,-8.789,-20.508,816.406,0.000
1606132227.553,-37.598,-38.086,-39.551,48.828,0.000
1606132227.557,-343.750,-45.898,-43.457,-793.457,0.000
1606132227.560,-248.047,-34.668,-30.762,-653.320,0.000
1606132227.564,148.438,-21.484,-11.230,325.195,0.000
1606132227.568,316.406,-9.766,-1.465,832.031,0.000
1606132227.572,19.043,-33.691,-17.090,177.734,0.000
1606132227.576,-331.055,-58.594,-38.086,-734.375,0.000
1606132227.580,-290.527,-53.223,-41.992,-738.281,0.000
1606132227.584,99.609,-25.879,-23.926,226.562,0.000
1606132227.588,308.594,-8.789,-10.254,835.938,0.000
1606132227.592,66.406,-27.832,-24.902,305.176,0.000
1606132227.596,-309.570,-47.852,-37.109,-645.508,0.000
1606132227.600,-336.426,-48.828,-30.273,-800.293,0.000
1606132227.603,41.504,-29.297,-14.648,101.562,0.000
1606132227.607,308.594,-12.695,-6.348,820.801,0.000
1606132227.611,138.672,-21.973,-15.137,449.219,0.000
1606132227.615,-257.324,-45.410,-37.598,-550.781,0.000
1606132227.619,-348.145,-46.387,-53.223,-867.676,0.000
1606132227.623,18.066,-24.414,-35.156,-29.297,0.000
1606132227.627,306.641,-8.301,-16.602,770.508,0.000
1606132227.631,153.320,-14.648,-29.297,519.043,0.000
1606132227.635,-241.211,-33.203,-46.387,-462.891,0.000
1606132227.639,-370.605,-40.527,-48.828,-884.766,0.000
1606132227.643,-56.152,-28.809,-32.715,-160.156,0.000
1606132227.646,278.809,-8.301,-9.277,715.332,0.000
1606132227.650,211.426,-11.230,-13.184,630.859,0.000
1606132227.654,-189.941,-39.551,-41.504,-346.680,0.000
1606132227.658,-376.953,-52.734,-52.246,-895.020,0.000
1606132227.662,-96.191,-35.156,-30.762,-281.738,0.000
1606132227.666,264.648,-9.277,-5.859,654.297,0.000
1606132227.670,236.328,-17.578,-15.625,709.473,0.000
1606132227.674,-163.574,-52.246,-40.039,-240.234,0.000
1606132227.678,-386.230,-67.383,-45.898,-885.254,0.000
1606132227.682,-148.926,-43.945,-34.180,-401.855,0.000
1606132227.685,232.422,-17.090,-16.602,562.012,0.000
1606132227.689,273.926,-20.508,-11.230,766.602,0.000
1606132227.693,-89.844,-34.180,-31.738,-112.793,0.000
1606132227.697,-363.281,-48.828,-42.480,-858.398,0.000
1606132227.701,-194.336,-46.875,-30.273,-522.949,0.000
1606132227.705,201.172,-17.578,-8.789,461.914,0.000
1606132227.709,291.992,-14.160,-11.230,788.574,0.000
1606132227.713,-43.945,-41.992,-28.320,-4.883,0.000
1606132227.717,-354.980,-60.059,-40.039,-827.148,0.000
1606132227.721,-247.070,-50.781,-42.969,-646.973,0.000
1606132227.725,157.715,-25.391,-26.367,342.773,0.000
1606132227.728,314.941,-8.789,-11.230,820.312,0.000
1606132227.732,12.207,-24.902,-23.926,139.160,0.000
1606132227.736,-337.402,-43.945,-40.039,-754.395,0.000
1606132227.740,-291.504,-49.805,-38.574,-719.727,0.000
1606132227.744,108.887,-32.227,-19.043,245.605,0.000
1606132227.748,313.965,-11.230,-3.906,836.426,0.000
1606132227.752,53.223,-27.344,-20.508,280.273,0.000
1606132227.756,-316.406,-54.688,-42.969,-667.969,0.000
1606132227.760,-315.430,-53.711,-37.598,-783.203,0.000
1606132227.764,69.336,-26.855,-20.508,140.137,0.000
1606132227.768,304.688,-14.160,-12.207,812.500,0.000
1606132227.771,98.145,-23.438,-27.832,383.789,0.000
1606132227.775,-278.320,-40.039,-50.293,-579.590,0.000
1606132227.779,-343.750,-46.387,-50.293,-837.891,0.000
1606132227.783,23.438,-26.855,-27.832,20.508,0.000
1606132227.787,309.570,-7.324,-10.254,792.969,0.000
1606132227.791,153.809,-13.184,-19.531,498.535,0.000
1606132227.795,-237.305,-40.527,-47.363,-489.746,0.000
1606132227.799,-354.980,-51.758,-53.223,-884.766,0.000
1606132227.803,-27.832,-33.203,-30.273,-123.535,0.000
1606132227.807,291.016,-5.859,-13.184,736.328,0.000
1606132227.810,207.031,-2.441,-16.113,598.633,0.000
1606132227.814,-194.824,-30.762,-32.715,-387.695,0.000
1606132227.818,-371.094,-43.945,-41.992,-896.973,0.000
1606132227.822,-77.637,-30.273,-29.297,-251.465,0.000
1606132227.826,268.066,-15.137,-10.742,664.062,0.000
1606132227.830,229.004,-12.695,-12.207,678.223,0.000
1606132227.834,-164.062,-29.297,-33.691,-271.484,0.000
1606132227.838,-375.977,-33.691,-42.480,-884.766,0.000
1606132227.842,-135.254,-26.367,-26.855,-366.699,0.000
1606132227.846,237.793,-6.836,-4.395,589.355,0.000
1606132227.850,259.766,-3.906,-7.812,735.840,0.000
1606132227.853,-122.559,-32.227,-32.715,-168.945,0.000
1606132227.857,-378.906,-51.758,-44.434,-881.836,0.000
1606132227.861,-187.500,-39.062,-28.809,-494.141,0.000
1606132227.865,211.426,-3.906,0.488,506.348,0.000
1606132227.869,297.363,-5.859,6.836,805.664,0.000
1606132227.873,-66.406,-31.250,-21.973,-26.367,0.000
1606132227.877,-371.094,-39.551,-46.875,-834.473,0.000
1606132227.881,-235.840,-41.992,-35.156,-597.656,0.000
1606132227.885,169.434,-17.090,-4.883,400.391,0.000
1606132227.889,300.781,-1.465,-7.812,820.801,0.000
1606132227.893,-17.578,-24.902,-32.227,94.727,0.000
1606132227.896,-348.633,-53.711,-45.898,-781.250,0.000
1606132227.900,-271.973,-45.410,-36.133,-699.219,0.000
1606132227.904,133.789,-14.160,-13.672,277.832,0.000
1606132227.908,314.453,-8.301,-2.930,818.848,0.000
1606132227.912,41.992,-23.926,-11.230,222.656,0.000
1606132227.916,-310.547,-16.113,-32.715,-695.801,0.000
1606132227.920,-303.223,-29.297,-36.133,-775.879,0.000
1606132227.924,81.543,-36.133,-16.602,146.973,0.000
1606132227.928,311.035,-7.812,-8.789,795.410,0.000
1606132227.932,89.355,-19.531,-21.973,335.938,0.000
1606132227.935,-287.109,-51.270,-46.387,-615.723,0.000
1606132227.939,-335.938,-51.758,-50.781,-829.102,0.000
1606132227.943,37.598,-22.461,-24.902,48.828,0.000
1606132227.947,312.988,-7.324,-7.324,800.293,0.000
1606132227.951,142.578,-20.996,-18.555,468.262,0.000
1606132227.955,-249.512,-46.875,-36.133,-519.043,0.000
1606132227.959,-354.004,-56.641,-40.039,-875.000,0.000
1606132227.963,-13.184,-34.180,-22.461,-85.449,0.000
1606132227.967,300.293,-10.742,-11.230,745.605,0.000
1606132227.971,186.523,-21.484,-27.832,552.246,0.000
1606132227.975,-222.168,-43.945,-45.410,-430.176,0.000
1606132227.978,-378.906,-50.781,-42.969,-894.043,0.000
1606132227.982,-68.359,-38.574,-22.949,-210.938,0.000
1606132227.986,284.668,-8.301,-1.953,688.965,0.000
1606132227.990,233.887,-6.348,-7.324,658.691,0.000
1606132227.994,-175.293,-38.086,-40.527,-311.523,0.000
1606132227.998,-383.301,-56.641,-61.523,-902.344,0.000
1606132228.002,-124.512,-37.598,-41.992,-334.961,0.000
1606132228.006,242.188,-5.371,-14.648,613.281,0.000
1606132228.010,247.559,-6.348,-5.371,729.004,0.000
1606132228.014,-144.043,-42.969,-21.973,-199.219,0.000
1606132228.018,-393.555,-53.711,-39.551,-888.672,0.000
1606132228.021,-185.547,-40.039,-28.320,-463.379,0.000
1606132228.025,203.125,-20.508,-7.812,508.789,0.000
1606132228.029,272.949,-12.207,-2.930,772.949,0.000
1606132228.033,-94.238,-38.574,-23.926,-73.242,0.000
1606132228.037,-382.324,-55.664,-42.480,-851.562,0.000
1606132228.041,-220.703,-42.969,-34.180,-570.801,0.000
1606132228.045,176.758,-20.996,-15.625,413.574,0.000
1606132228.049,291.992,-16.113,-9.277,801.758,0.000
1606132228.053,-40.527,-34.668,-26.367,47.852,0.000
1606132228.057,-363.281,-45.410,-34.668,-810.547,0.000
1606132228.060,-259.766,-41.992,-17.578,-670.410,0.000
1606132228.064,144.531,-23.438,-9.277,319.336,0.000
1606132228.068,308.105,-9.277,-11.230,825.195,0.000
1606132228.072,16.602,-27.344,-21.973,187.988,0.000
1606132228.076,-334.961,-50.781,-40.039,-724.609,0.000
1606132228.080,-305.176,-48.340,-41.504,-742.188,0.000
1606132228.084,90.820,-24.414,-17.090,211.426,0.000
1606132228.088,314.941,-10.742,-2.930,831.055,0.000
1606132228.092,71.777,-30.273,-20.508,321.777,0.000
1606132228.096,-309.570,-56.152,-46.387,-641.602,0.000
1606132228.100,-334.961,-57.129,-42.480,-817.383,0.000
1606132228.103,50.781,-29.297,-16.113,89.355,0.000
1606132228.107,309.570,-13.184,-4.395,811.523,0.000
1606132228.111,117.188,-28.809,-7.324,435.059,0.000
1606132228.115,-272.949,-55.664,-36.621,-537.109,0.000
1606132228.119,-351.562,-60.547,-41.504,-834.961,0.000
1606132228.123,2.441,-29.785,-13.672,-19.531,0.000
1606132228.127,300.781,-1.465,-9.277,777.832,0.000
1606132228.131,166.992,-10.742,-21.484,548.340,0.000
1606132228.135,-237.793,-42.480,-37.598,-436.035,0.000
1606132228.139,-370.117,-47.852,-42.480,-865.234,0.000
1606132228.143,-46.875,-28.809,-22.461,-152.344,0.000
1606132228.146,281.250,-10.742,-8.789,716.309,0.000
1606132228.150,205.078,-11.230,-19.531,634.766,0.000
1606132228.154,-190.430,-37.109,-36.621,-347.656,0.000
1606132228.158,-375.977,-53.711,-45.898,-900.879,0.000
1606132228.162,-107.422,-35.156,-35.645,-301.758,0.000
1606132228.166,257.812,-5.859,-8.789,634.766,0.000
1606132228.170,247.070,-7.812,-6.348,712.891,0.000
1606132228.174,-141.602,-33.203,-35.156,-228.027,0.000
1606132228.178,-370.117,-45.410,-50.293,-883.301,0.000
1606132228.182,-143.555,-29.785,-39.062,-416.016,0.000
1606132228.185,245.117,-3.418,-18.555,563.477,0.000
1606132228.189,273.438,-0.977,-15.625,740.723,0.000
1606132228.193,-97.656,-28.320,-30.273,-146.973,0.000
1606132228.197,-361.816,-47.363,-40.039,-853.516,0.000
1606132228.201,-214.844,-33.691,-32.227,-542.480,0.000
1606132228.205,181.641,-9.766,-13.672,438.965,0.000
1606132228.209,285.645,-5.859,-9.766,783.203,0.000
1606132228.213,-60.547,-27.344,-23.926,0.488,0.000
1606132228.217,-373.535,-47.363,-39.062,-821.289,0.000
1606132228.221,-256.348,-39.551,-35.645,-642.090,0.000
1606132228.225,154.297,-13.184,-9.277,347.656,0.000
1606132228.228,314.941,-1.953,-4.883,824.707,0.000
1606132228.232,13.672,-27.344,-29.297,151.855,0.000
1606132228.236,-337.402,-52.734,-38.086,-736.816,0.000
1606132228.240,-290.039,-47.363,-33.203,-706.055,0.000
1606132228.244,115.234,-17.090,-10.742,263.184,0.000
1606132228.248,317.871,-2.930,-0.977,839.844,0.000
1606132228.252,59.082,-20.996,-19.043,281.250,0.000
1606132228.256,-312.500,-48.828,-34.668,-663.574,0.000
1606132228.260,-331.055,-53.711,-28.320,-792.480,0.000
1606132228.264,54.688,-28.320,-4.395,127.930,0.000
1606132228.268,305.664,-8.789,3.418,814.453,0.000
1606132228.271,93.750,-21.484,-10.254,390.137,0.000
1606132228.275,-296.875,-51.758,-34.180,-585.938,0.000
1606132228.279,-356.934,-58.594,-34.668,-847.168,0.000
1606132228.283,14.160,-30.273,-7.324,6.348,0.000
1606132228.287,310.059,-7.324,0.977,786.133,0.000
1606132228.291,163.086,-14.648,-12.207,514.160,0.000
1606132228.295,-237.305,-44.434,-28.809,-469.238,0.000
1606132228.299,-360.352,-59.570,-33.691,-876.465,0.000
1606132228.303,-34.668,-35.156,-20.996,-135.254,0.000
1606132228.307,288.086,-13.672,-13.672,722.168,0.000
1606132228.310,199.219,-22.461,-25.391,595.703,0.000
1606132228.314,-203.613,-48.828,-41.504,-380.859,0.000
1606132228.318,-380.371,-63.965,-44.434,-896.484,0.000
1606132228.322,-84.961,-40.527,-26.855,-257.812,0.000
1606132228.326,275.879,-5.371,-8.789,661.133,0.000
1606132228.330,244.629,-7.812,-13.184,679.199,0.000
1606132228.334,-151.855,-47.852,-30.273,-268.066,0.000
1606132228.338,-369.629,-64.453,-26.855,-879.883,0.000
1606132228.342,-135.742,-37.598,-20.020,-377.930,0.000
1606132228.346,233.887,-14.160,-16.113,572.754,0.000
1606132228.350,257.324,-16.602,-20.996,745.117,0.000
1606132228.353,-123.047,-39.551,-39.551,-143.555,0.000
1606132228.357,-375.977,-52.246,-43.457,-858.887,0.000
1606132228.361,-185.547,-38.574,-26.367,-488.770,0.000
1606132228.365,204.590,-18.066,-3.418,487.793,0.000
1606132228.369,288.086,-12.695,-4.395,794.922,0.000
1606132228.373,-67.383,-32.715,-28.809,-18.066,0.000
1606132228.377,-370.605,-51.270,-44.922,-819.824,0.000
1606132228.381,-237.305,-36.621,-27.344,-594.238,0.000
1606132228.385,171.875,-5.859,-7.812,389.648,0.000
1606132228.389,313.965,0.488,-11.719,818.848,0.000
1606132228.393,-5.859,-24.902,-33.691,102.539,0.000
1606132228.396,-343.750,-55.664,-42.480,-772.461,0.000
1606132228.400,-271.484,-44.434,-37.598,-701.172,0.000
1606132228.404,131.836,-11.230,-21.484,271.973,0.000
1606132228.408,323.730,-1.465,-5.859,827.148,0.000
1606132228.412,47.363,-25.879,-21.973,236.816,0.000
1606132228.416,-315.918,-50.781,-42.969,-685.059,0.000
1606132228.420,-292.969,-41.016,-38.086,-753.418,0.000
1606132228.424,98.633,-16.602,-10.254,178.223,0.000
1606132228.428,324.707,-7.812,-8.301,825.684,0.000
1606132228.432,107.422,-21.484,-24.902,364.746,0.000
1606132228.435,-270.996,-45.898,-39.551,-594.727,0.000
1606132228.439,-324.219,-49.316,-44.922,-825.195,0.000
1606132228.443,46.875,-21.484,-27.344,34.180,0.000
1606132228.447,322.754,0.488,-14.648,783.203,0.000
1606132228.451,150.391,-10.254,-21.484,464.844,0.000
1606132228.455,-249.023,-44.434,-44.434,-517.090,0.000
1606132228.459,-354.492,-50.781,-43.457,-867.676,0.000
1606132228.463,-17.578,-24.902,-20.996,-84.961,0.000
1606132228.467,293.945,-4.395,-7.324,737.305,0.000
1606132228.471,187.012,-15.625,-11.719,566.895,0.000
1606132228.475,-212.891,-52.734,-37.109,-399.414,0.000
1606132228.478,-363.770,-56.152,-51.758,-875.488,0.000
1606132228.482,-69.336,-22.461,-37.598,-216.309,0.000
1606132228.486,266.113,-0.488,-15.625,662.109,0.000
1606132228.490,215.332,-7.324,-26.855,629.883,0.000
1606132228.494,-178.711,-31.250,-52.246,-317.383,0.000
1606132228.498,-383.789,-45.410,-55.176,-903.320,0.000
1606132228.502,-143.555,-36.133,-39.551,-372.559,0.000
1606132228.506,228.516,-13.672,-18.066,567.871,0.000
1606132228.510,251.465,-9.766,-13.672,704.590,0.000
1606132228.514,-131.348,-35.156,-36.133,-202.637,0.000
1606132228.518,-388.184,-56.641,-52.734,-896.484,0.000
1606132228.521,-181.641,-49.805,-40.039,-481.934,0.000
1606132228.525,218.750,-23.438,-18.066,495.605,0.000
1606132228.529,278.809,-16.602,-10.742,759.766,0.000
1606132228.533,-83.496,-47.852,-28.809,-72.754,0.000
1606132228.537,-366.211,-67.871,-49.316,-843.262,0.000
1606132228.541,-216.797,-46.875,-42.969,-576.172,0.000
1606132228.545,182.617,-15.137,-19.043,405.273,0.000
1606132228.549,302.734,-3.418,-11.719,803.711,0.000
1606132228.553,-29.785,-22.461,-32.227,57.617,0.000
1606132228.557,-349.609,-51.270,-43.945,-789.062,0.000
1606132228.560,-262.695,-49.805,-36.621,-665.039,0.000
1606132228.564,130.371,-15.137,-23.438,297.363,0.000
1606132228.568,315.430,1.953,-5.859,817.871,0.000
1606132228.572,40.039,-17.090,-15.137,205.566,0.000
1606132228.576,-317.871,-44.922,-38.574,-708.008,0.000
1606132228.580,-292.480,-46.387,-46.875,-749.512,0.000
1606132228.584,90.820,-17.090,-26.367,189.453,0.000
1606132228.588,305.664,-4.883,-14.160,809.570,0.000
1606132228.592,73.242,-29.297,-23.438,310.059,0.000
1606132228.596,-303.223,-54.688,-38.086,-636.230,0.000
1606132228.600,-334.961,-49.316,-48.340,-812.012,0.000
1606132228.603,42.480,-22.949,-27.832,67.871,0.000
1606132228.607,307.129,-3.906,-12.207,788.574,0.000
1606132228.611,127.441,-13.184,-20.996,435.547,0.000
1606132228.615,-261.719,-34.668,-40.527,-533.203,0.000
1606132228.619,-346.191,-40.039,-50.781,-841.309,0.000
1606132228.623,6.348,-15.625,-32.715,-33.203,0.000
1606132228.627,310.059,0.000,-17.090,765.137,0.000
1606132228.631,185.059,-13.672,-20.508,543.945,0.000
1606132228.635,-209.961,-40.039,-42.969,-425.293,0.000
1606132228.639,-350.586,-48.828,-56.641,-862.305,0.000
1606132228.643,-39.551,-20.508,-28.320,-164.062,0.000
1606132228.646,292.969,5.859,-0.977,706.055,0.000
1606132228.650,225.098,-0.977,-10.254,633.789,0.000
1606132228.654,-172.363,-31.250,-38.574,-327.148,0.000
1606132228.658,-365.723,-49.805,-43.945,-876.953,0.000
1606132228.662,-94.727,-33.691,-21.973,-288.574,0.000
1606132228.666,266.113,-5.371,-11.719,638.672,0.000
1606132228.670,251.953,-4.883,-17.090,720.703,0.000
1606132228.674,-139.160,-48.828,-34.180,-204.102,0.000
1606132228.678,-375.977,-84.961,-44.922,-865.234,0.000
1606132228.682,-156.250,-45.410,-29.785,-412.109,0.000
1606132228.685,224.609,-4.883,-13.184,538.574,0.000
1606132228.689,272.949,-8.789,-19.531,750.977,0.000
1606132228.693,-98.145,-34.180,-41.016,-105.957,0.000
1606132228.697,-376.953,-55.664,-49.805,-852.051,0.000
1606132228.701,-213.867,-38.086,-31.250,-538.086,0.000
1606132228.705,181.641,-7.324,-10.254,441.406,0.000
1606132228.709,285.645,-1.465,-9.766,791.016,0.000
1606132228.713,-54.199,-27.344,-31.250,20.020,0.000
1606132228.717,-361.328,-59.082,-45.898,-804.688,0.000
1606132228.721,-254.395,-50.293,-35.156,-641.113,0.000
1606132228.725,145.020,-15.137,-16.113,340.820,0.000
1606132228.728,308.105,2.930,-5.371,817.871,0.000
1606132228.732,14.160,-15.137,-21.973,150.879,0.000
1606132228.736,-332.031,-47.363,-44.434,-734.375,0.000
1606132228.740,-294.922,-49.316,-43.457,-722.168,0.000
1606132228.744,99.121,-15.625,-17.090,225.586,0.000
1606132228.748,299.805,-9.766,-8.301,809.082,0.000
1606132228.752,44.434,-34.180,-27.344,270.020,0.000
1606132228.756,-313.965,-50.781,-49.316,-656.738,0.000
1606132228.760,-315.918,-48.340,-49.805,-781.250,0.000
1606132228.764,70.801,-19.531,-22.461,123.535,0.000
1606132228.768,318.848,-1.953,-11.719,799.316,0.000
1606132228.771,118.164,-18.555,-27.832,387.207,0.000
1606132228.775,-264.648,-57.617,-39.551,-562.988,0.000
1606132228.779,-330.566,-62.500,-36.621,-827.148,0.000
1606132228.783,23.438,-20.508,-22.949,-0.488,0.000
1606132228.787,308.594,5.859,-5.859,774.414,0.000
1606132228.791,158.203,-5.859,-15.137,513.184,0.000
1606132228.795,-240.234,-39.551,-36.621,-457.031,0.000
1606132228.799,-365.723,-52.246,-46.387,-862.793,0.000
1606132228.803,-40.039,-24.414,-34.668,-129.395,0.000
1606132228.807,286.621,0.488,-20.020,721.191,0.000
1606132228.810,201.660,-7.812,-15.137,601.074,0.000
1606132228.814,-191.406,-34.180,-27.344,-358.887,0.000
1606132228.818,-366.211,-42.480,-41.992,-877.930,0.000
1606132228.822,-92.285,-24.414,-32.715,-263.672,0.000
1606132228.826,256.348,-8.301,-21.973,642.090,0.000
1606132228.830,232.422,-18.066,-13.184,682.617,0.000
1606132228.834,-153.809,-47.363,-36.133,-244.141,0.000
1606132228.838,-375.977,-53.223,-62.988,-874.023,0.000
1606132228.842,-147.949,-29.297,-38.574,-394.531,0.000
1606132228.846,231.445,-2.441,-19.531,549.316,0.000
1606132228.850,258.789,-3.418,-26.367,724.609,0.000
1606132228.853,-125.488,-30.762,-37.109,-159.180,0.000
1606132228.857,-382.324,-46.875,-45.898,-868.164,0.000
1606132228.861,-198.730,-36.621,-38.574,-508.789,0.000
1606132228.865,192.383,-13.672,-17.578,463.867,0.000
1606132228.869,286.621,-7.324,-10.254,786.621,0.000
1606132228.873,-54.199,-28.320,-28.320,-13.672,0.000
1606132228.877,-353.027,-48.828,-44.922,-813.965,0.000
1606132228.881,-233.887,-43.457,-41.992,-601.562,0.000
1606132228.885,163.086,-15.625,-20.996,370.605,0.000
1606132228.889,309.082,-6.836,-6.348,812.012,0.000
1606132228.893,2.930,-29.297,-18.066,120.605,0.000
1606132228.896,-331.543,-44.434,-38.086,-743.652,0.000
1606132228.900,-269.531,-41.016,-33.203,-682.617,0.000
1606132228.904,123.047,-22.461,-9.277,273.438,0.000
1606132228.908,313.477,-12.695,-6.836,825.195,0.000
1606132228.912,48.828,-33.203,-28.809,248.047,0.000
1606132228.916,-310.547,-62.012,-40.039,-666.016,0.000
1606132228.920,-305.176,-55.664,-36.621,-751.465,0.000
1606132228.924,83.008,-22.461,-20.508,167.969,0.000
1606132228.928,317.383,-12.207,-10.254,817.871,0.000
1606132228.932,97.656,-27.832,-21.973,368.652,0.000
1606132228.935,-274.414,-43.945,-32.227,-578.125,0.000
1606132228.939,-323.730,-44.922,-31.738,-808.105,0.000
1606132228.943,44.922,-22.461,-13.184,48.828,0.000
1606132228.947,318.848,-8.301,-4.883,802.246,0.000
1606132228.951,150.879,-24.414,-21.973,490.723,0.000
1606132228.955,-239.258,-52.734,-36.133,-481.445,0.000
1606132228.959,-344.238,-51.758,-37.109,-838.379,0.000
1606132228.963,-13.184,-23.926,-19.531,-80.078,0.000
1606132228.967,298.340,-5.371,-5.371,740.723,0.000
1606132228.971,196.777,-8.301,-11.719,579.102,0.000
1606132228.975,-196.777,-34.180,-32.715,-385.254,0.000
1606132228.978,-350.098,-45.898,-43.457,-861.816,0.000
1606132228.982,-54.199,-23.926,-20.508,-212.402,0.000
1606132228.986,279.297,-4.883,-10.254,661.133,0.000
1606132228.990,220.703,-17.090,-28.320,639.160,0.000
1606132228.994,-170.410,-46.875,-46.875,-303.223,0.000
1606132228.998,-376.465,-62.012,-49.805,-895.020,0.000
1606132229.002,-130.859,-41.504,-38.086,-360.352,0.000
1606132229.006,239.258,-9.277,-20.508,575.684,0.000
1606132229.010,259.277,-5.371,-16.602,711.426,0.000
1606132229.014,-115.723,-35.156,-38.574,-179.688,0.000
1606132229.018,-364.746,-53.223,-47.852,-864.746,0.000
1606132229.021,-167.480,-35.645,-34.180,-465.820,0.000
1606132229.025,216.797,-9.277,-18.555,499.023,0.000
1606132229.029,280.273,-11.719,-16.113,765.625,0.000
1606132229.033,-77.148,-40.527,-40.527,-68.848,0.000
1606132229.037,-365.723,-54.199,-52.246,-833.984,0.000
1606132229.041,-223.633,-43.457,-39.062,-569.336,0.000
1606132229.045,168.945,-24.902,-29.297,389.648,0.000
1606132229.049,290.527,-18.066,-26.367,784.180,0.000
1606132229.053,-25.391,-36.133,-36.621,66.406,0.000
1606132229.057,-340.332,-53.223,-52.246,-770.508,0.000
1606132229.060,-251.465,-45.898,-48.340,-657.227,0.000
1606132229.064,147.949,-20.996,-22.461,310.547,0.000
1606132229.068,325.195,-8.301,-16.602,829.590,0.000
1606132229.072,45.410,-19.043,-34.668,208.496,0.000
1606132229.076,-318.359,-41.016,-46.387,-700.195,0.000
1606132229.080,-306.152,-43.457,-42.969,-747.070,0.000
1606132229.084,86.914,-16.113,-16.113,191.895,0.000
1606132229.088,309.082,-1.953,1.953,822.266,0.000
1606132229.092,81.055,-24.902,-17.090,324.707,0.000
1606132229.096,-291.504,-42.480,-37.598,-614.258,0.000
1606132229.100,-330.566,-44.922,-48.828,-796.875,0.000
1606132229.103,50.293,-30.273,-32.715,79.102,0.000
1606132229.107,314.941,-8.301,-8.301,806.641,0.000
1606132229.111,133.301,-18.555,-23.926,454.590,0.000
1606132229.115,-252.441,-46.387,-47.363,-519.531,0.000
1606132229.119,-348.633,-49.316,-46.387,-842.285,0.000
1606132229.123,-3.418,-16.113,-21.484,-38.086,0.000
1606132229.127,302.246,2.930,-1.465,759.766,0.000
1606132229.131,171.387,-12.695,-18.066,540.527,0.000
1606132229.135,-222.168,-35.645,-42.480,-420.410,0.000
1606132229.139,-358.398,-52.246,-38.086,-861.816,0.000
1606132229.143,-58.594,-33.203,-21.973,-181.152,0.000
1606132229.146,272.461,-5.371,-11.719,687.012,0.000
1606132229.150,216.309,-13.672,-15.137,628.418,0.000
1606132229.154,-184.082,-44.922,-36.133,-331.055,0.000
1606132229.158,-380.371,-57.129,-50.293,-892.578,0.000
1606132229.162,-111.328,-35.645,-30.273,-313.477,0.000
1606132229.166,258.789,-4.883,-6.836,618.652,0.000
1606132229.170,256.836,-6.348,-8.301,707.520,0.000
1606132229.174,-132.812,-30.273,-24.902,-209.961,0.000
1606132229.178,-366.211,-42.480,-40.039,-868.164,0.000
1606132229.182,-147.949,-34.668,-34.180,-423.828,0.000
1606132229.185,222.656,-21.484,-18.555,530.762,0.000
1606132229.189,277.832,-15.625,-13.184,757.324,0.000
1606132229.193,-83.496,-41.016,-27.832,-92.285,0.000
1606132229.197,-372.559,-60.547,-49.316,-834.473,0.000
1606132229.201,-211.914,-41.016,-42.969,-532.715,0.000
1606132229.205,182.129,-14.648,-11.230,437.988,0.000
1606132229.209,292.969,-1.465,-7.324,800.293,0.000
1606132229.213,-46.387,-25.391,-30.273,37.109,0.000
1606132229.217,-366.699,-54.199,-44.434,-791.016,0.000
1606132229.221,-270.020,-51.270,-42.969,-639.160,0.000
1606132229.225,132.812,-21.973,-25.391,336.914,0.000
1606132229.228,299.805,-5.371,-12.207,824.219,0.000
1606132229.232,3.906,-21.484,-26.367,161.133,0.000
1606132229.236,-337.402,-55.664,-43.457,-732.910,0.000
1606132229.240,-295.410,-59.570,-37.598,-732.910,0.000
1606132229.244,91.309,-23.926,-23.926,207.520,0.000
1606132229.248,293.945,-13.672,-12.695,802.734,0.000
1606132229.252,55.664,-27.344,-18.066,279.785,0.000
1606132229.256,-306.641,-47.363,-37.598,-648.438,0.000
1606132229.260,-331.543,-55.664,-39.062,-788.574,0.000
1606132229.264,51.758,-26.367,-14.648,115.234,0.000
1606132229.268,306.641,-7.812,-3.906,807.617,0.000
1606132229.271,114.258,-17.090,-20.996,414.062,0.000
1606132229.275,-266.602,-53.223,-38.574,-543.457,0.000
1606132229.279,-347.168,-61.035,-40.527,-831.543,0.000
1606132229.283,10.742,-26.367,-26.855,-8.789,0.000
1606132229.287,309.082,-10.254,-12.207,770.020,0.000
1606132229.291,169.922,-21.484,-18.555,510.742,0.000
1606132229.295,-228.027,-45.898,-40.527,-464.844,0.000
1606132229.299,-371.094,-56.152,-46.875,-874.512,0.000
1606132229.303,-53.223,-37.109,-24.902,-141.113,0.000
1606132229.307,276.855,-14.648,-9.766,679.199,0.000
1606132229.310,196.777,-14.160,-12.207,569.336,0.000
1606132229.314,-191.895,-34.180,-25.391,-349.121,0.000
1606132229.318,-365.234,-45.410,-35.156,-874.023,0.000
1606132229.322,-88.379,-27.832,-31.738,-262.695,0.000
1606132229.326,266.602,-9.766,-15.625,637.207,0.000
1606132229.330,244.141,-12.695,-19.043,671.875,0.000
1606132229.334,-147.461,-34.180,-43.945,-256.836,0.000
1606132229.338,-369.141,-55.176,-54.688,-879.395,0.000
1606132229.342,-141.113,-39.551,-43.457,-397.949,0.000
1606132229.346,231.445,-5.859,-17.090,549.316,0.000
1606132229.350,260.742,-9.277,-20.996,726.562,0.000
1606132229.353,-120.605,-38.574,-48.340,-154.297,0.000
1606132229.357,-381.348,-54.688,-52.246,-869.141,0.000
1606132229.361,-198.242,-45.410,-40.039,-523.438,0.000
1606132229.365,189.453,-11.230,-21.973,449.219,0.000
1606132229.369,283.691,1.953,-18.555,774.902,0.000
1606132229.373,-61.035,-31.738,-39.551,-20.996,0.000
1606132229.377,-366.699,-54.199,-45.410,-824.707,0.000
1606132229.381,-250.000,-43.457,-37.109,-622.559,0.000
1606132229.385,148.926,-19.531,-17.578,359.375,0.000
1606132229.389,296.875,-3.418,-3.906,813.477,0.000
1606132229.393,-16.602,-18.555,-26.367,121.582,0.000
1606132229.396,-351.074,-42.969,-42.480,-749.512,0.000
1606132229.400,-281.738,-41.504,-33.691,-691.895,0.000
1606132229.404,107.910,-18.555,-10.742,262.207,0.000
1606132229.408,301.270,-6.836,-0.488,817.871,0.000
1606132229.412,41.992,-31.738,-21.973,248.047,0.000
1606132229.416,-309.570,-30.273,-37.598,-667.480,0.000
1606132229.420,-298.828,-16.602,-34.180,-766.602,0.000
1606132229.424,68.848,-21.484,-11.719,138.672,0.000
1606132229.428,301.270,-10.742,1.465,798.828,0.000
1606132229.432,92.773,-25.391,-17.578,364.258,0.000
1606132229.435,-278.320,-47.852,-35.645,-588.867,0.000
1606132229.439,-330.566,-48.340,-35.645,-820.801,0.000
1606132229.443,32.715,-27.832,-20.020,36.621,0.000
1606132229.447,312.500,-6.348,-5.859,791.504,0.000
1606132229.451,145.020,-16.113,-17.578,484.863,0.000
1606132229.455,-249.512,-44.434,-41.016,-488.770,0.000
1606132229.459,-348.633,-45.410,-38.574,-843.262,0.000
1606132229.463,-12.207,-21.484,-14.648,-75.195,0.000
1606132229.467,299.805,-4.883,-0.977,744.629,0.000
1606132229.471,193.359,-10.742,-14.160,579.102,0.000
1606132229.475,-214.844,-33.203,-38.086,-385.254,0.000
1606132229.478,-378.418,-38.574,-50.781,-871.094,0.000
1606132229.482,-84.473,-24.414,-32.227,-225.098,0.000
1606132229.486,256.348,-4.395,-3.418,662.109,0.000
1606132229.490,214.355,-9.277,-11.719,653.320,0.000
1606132229.494,-170.410,-40.039,-41.992,-293.945,0.000
1606132229.498,-386.719,-54.688,-46.387,-896.484,0.000
1606132229.502,-145.020,-37.109,-30.273,-359.375,0.000
1606132229.506,230.957,-12.207,-12.207,589.355,0.000
1606132229.510,250.000,-10.254,-14.648,727.051,0.000
1606132229.514,-122.559,-40.527,-32.227,-169.922,0.000
1606132229.518,-371.582,-64.941,-45.410,-862.793,0.000
1606132229.521,-180.664,-49.805,-34.668,-472.656,0.000
1606132229.525,206.055,-23.438,-16.113,491.699,0.000
1606132229.529,280.273,-20.020,-21.484,769.043,0.000
1606132229.533,-72.266,-37.109,-38.574,-49.316,0.000
1606132229.537,-364.258,-50.293,-47.363,-824.707,0.000
1606132229.541,-223.145,-37.598,-41.504,-578.125,0.000
1606132229.545,175.293,-13.184,-19.043,397.949,0.000
1606132229.549,300.293,-9.277,-13.184,809.570,0.000
1606132229.553,-21.973,-28.320,-30.273,79.590,0.000
1606132229.557,-344.238,-45.898,-36.621,-765.625,0.000
1606132229.560,-265.137,-42.969,-28.809,-666.504,0.000
1606132229.564,132.812,-17.090,-16.113,293.457,0.000
1606132229.568,306.641,-7.324,-17.578,816.895,0.000
1606132229.572,29.785,-20.020,-34.180,208.984,0.000
1606132229.576,-320.312,-40.527,-45.410,-691.895,0.000
1606132229.580,-301.270,-43.945,-44.922,-747.070,0.000
1606132229.584,94.238,-20.020,-21.484,185.547,0.000
1606132229.588,316.406,-4.883,-0.977,819.336,0.000
1606132229.592,93.262,-16.602,-9.766,335.938,0.000
1606132229.596,-270.020,-41.992,-41.016,-611.328,0.000
1606132229.600,-315.918,-44.922,-48.340,-801.270,0.000
1606132229.603,50.781,-21.484,-24.414,85.938,0.000
1606132229.607,313.477,-3.418,-11.230,812.988,0.000
1606132229.611,130.371,-13.184,-27.344,448.730,0.000
1606132229.615,-264.160,-42.480,-50.293,-532.715,0.000
1606132229.619,-363.281,-45.898,-52.734,-854.980,0.000
1606132229.623,-19.531,-20.508,-28.809,-62.500,0.000
1606132229.627,293.457,2.441,-10.742,743.164,0.000
1606132229.631,176.758,-8.789,-20.996,537.109,0.000
1606132229.635,-223.145,-39.551,-37.598,-427.734,0.000
1606132229.639,-371.582,-50.781,-47.852,-873.047,0.000
1606132229.643,-73.730,-33.691,-37.109,-187.012,0.000
1606132229.646,260.742,-9.277,-11.719,692.871,0.000
1606132229.650,206.543,-7.324,-12.207,642.090,0.000
1606132229.654,-188.477,-43.457,-34.668,-312.012,0.000
1606132229.658,-384.766,-64.941,-43.945,-879.395,0.000
1606132229.662,-128.906,-37.109,-34.180,-317.383,0.000
1606132229.666,236.816,-7.812,-12.695,608.887,0.000
1606132229.670,239.746,-12.695,-12.695,701.660,0.000
1606132229.674,-158.691,-47.363,-34.180,-220.215,0.000
1606132229.678,-399.902,-62.012,-46.387,-888.184,0.000
1606132229.682,-175.781,-45.410,-38.086,-441.406,0.000
1606132229.685,218.262,-16.113,-12.207,526.855,0.000
1606132229.689,273.926,-9.277,-9.277,762.207,0.000
1606132229.693,-89.355,-35.645,-31.250,-78.613,0.000
1606132229.697,-359.375,-50.293,-38.086,-826.172,0.000
1606132229.701,-206.543,-37.598,-32.227,-536.621,0.000
1606132229.705,179.199,-15.137,-25.391,430.176,0.000
1606132229.709,282.715,-7.324,-25.391,792.480,0.000
1606132229.713,-51.758,-31.250,-40.039,29.785,0.000
1606132229.717,-364.746,-58.105,-52.246,-800.293,0.000
1606132229.721,-262.695,-45.898,-43.457,-648.438,0.000
1606132229.725,139.648,-18.555,-19.043,325.195,0.000
1606132229.728,305.664,-7.812,-12.207,814.453,0.000
1606132229.732,15.137,-26.367,-24.902,170.410,0.000
1606132229.736,-327.148,-49.316,-34.668,-720.215,0.000
1606132229.740,-279.297,-42.969,-29.297,-717.285,0.000
1606132229.744,117.676,-18.555,-14.648,235.352,0.000
1606132229.748,323.730,-11.230,-7.324,828.125,0.000
1606132229.752,75.195,-23.438,-18.555,303.711,0.000
1606132229.756,-302.734,-43.945,-40.527,-630.371,0.000
1606132229.760,-325.684,-47.852,-40.527,-778.809,0.000
1606132229.764,61.523,-21.484,-16.113,117.676,0.000
1606132229.768,311.035,-4.883,-4.883,809.082,0.000
1606132229.771,108.887,-21.973,-20.996,407.715,0.000
1606132229.775,-270.020,-50.293,-41.016,-558.594,0.000
1606132229.779,-347.656,-56.152,-37.598,-844.238,0.000
1606132229.783,6.348,-30.762,-16.113,-17.578,0.000
1606132229.787,303.711,-12.207,-12.695,769.043,0.000
1606132229.791,170.410,-16.113,-23.926,517.090,0.000
1606132229.795,-218.262,-36.621,-41.016,-454.102,0.000
1606132229.799,-354.492,-47.852,-48.340,-871.582,0.000
1606132229.803,-39.062,-23.926,-28.809,-155.762,0.000
1606132229.807,284.180,-3.418,-10.254,702.148,0.000
1606132229.810,201.660,-12.695,-10.254,607.422,0.000
1606132229.814,-190.918,-40.039,-36.621,-352.539,0.000
1606132229.818,-368.652,-53.711,-52.734,-881.348,0.000
1606132229.822,-90.820,-32.227,-34.180,-268.066,0.000
1606132229.826,263.184,-10.742,-13.184,638.184,0.000
1606132229.830,243.164,-15.625,-20.020,668.945,0.000
1606132229.834,-143.066,-39.062,-41.504,-261.230,0.000
1606132229.838,-365.723,-50.293,-46.875,-881.836,0.000
1606132229.842,-134.766,-25.879,-27.344,-394.531,0.000
1606132229.846,240.234,0.000,-4.395,559.082,0.000
1606132229.850,268.066,-8.301,-5.371,743.652,0.000
1606132229.853,-104.980,-33.691,-25.879,-125.000,0.000
1606132229.857,-366.211,-46.387,-38.086,-843.750,0.000
1606132229.861,-194.336,-37.109,-32.227,-507.324,0.000
1606132229.865,191.406,-19.043,-12.695,459.473,0.000
1606132229.869,284.668,-11.719,-4.883,789.551,0.000
1606132229.873,-61.523,-24.902,-19.043,-2.930,0.000
1606132229.877,-371.582,-51.270,-37.598,-817.383,0.000
1606132229.881,-250.977,-47.852,-39.551,-621.582,0.000
1606132229.885,151.367,-13.184,-16.602,367.188,0.000
1606132229.889,302.246,-3.906,-8.301,819.336,0.000
1606132229.893,10.742,-27.344,-29.297,130.859,0.000
1606132229.896,-324.707,-50.781,-47.852,-745.117,0.000
1606132229.900,-269.531,-39.062,-37.109,-696.289,0.000
1606132229.904,125.000,-16.113,-15.137,267.578,0.000
1606132229.908,315.918,-5.859,-3.906,830.078,0.000
1606132229.912,57.617,-17.090,-18.555,260.742,0.000
1606132229.916,-305.176,-42.969,-41.504,-664.062,0.000
1606132229.920,-307.129,-46.387,-41.016,-764.648,0.000
1606132229.924,75.195,-18.555,-18.066,149.902,0.000
1606132229.928,310.059,0.000,-3.906,817.383,0.000
1606132229.932,102.051,-17.578,-18.066,381.836,0.000
1606132229.935,-274.902,-37.598,-38.086,-573.730,0.000
1606132229.939,-337.402,-40.039,-42.480,-809.082,0.000
1606132229.943,25.391,-23.926,-27.832,37.109,0.000
1606132229.947,310.547,-5.371,-7.812,788.086,0.000
1606132229.951,150.391,-15.137,-15.137,491.699,0.000
1606132229.955,-243.652,-37.598,-36.133,-484.375,0.000
1606132229.959,-356.934,-42.480,-40.527,-857.910,0.000
1606132229.963,-25.391,-22.949,-23.438,-92.773,0.000
1606132229.967,289.551,-3.906,-2.441,740.723,0.000
1606132229.971,185.547,-17.578,-13.184,579.102,0.000
1606132229.975,-205.078,-41.992,-35.156,-383.301,0.000
1606132229.978,-364.258,-42.480,-43.457,-857.910,0.000
1606132229.982,-73.242,-24.902,-29.785,-212.402,0.000
1606132229.986,273.926,-5.859,-6.836,672.363,0.000
1606132229.990,228.027,-11.230,-10.742,660.645,0.000
1606132229.994,-163.574,-33.203,-33.691,-276.855,0.000
1606132229.998,-369.629,-45.410,-38.574,-868.652,0.000
1606132230.002,-129.883,-32.715,-22.949,-346.191,0.000
1606132230.006,238.770,-6.836,-13.672,589.844,0.000
1606132230.010,255.859,-9.766,-25.391,727.539,0.000
1606132230.014,-119.629,-22.461,-42.480,-162.109,0.000
1606132230.018,-365.234,-31.250,-49.805,-854.004,0.000
1606132230.021,-170.898,-33.691,-30.273,-462.891,0.000
1606132230.025,210.449,-19.043,-8.301,500.977,0.000
1606132230.029,273.926,-24.414,-17.090,771.973,0.000
1606132230.033,-62.500,-41.504,-36.621,-44.922,0.000
1606132230.037,-338.379,-39.551,-47.852,-825.684,0.000
1606132230.041,-225.586,-35.156,-34.668,-590.332,0.000
1606132230.045,171.387,-17.090,-7.812,388.184,0.000
1606132230.049,306.641,-7.812,-2.441,801.758,0.000
1606132230.053,-27.832,-33.691,-28.809,72.754,0.000
1606132230.057,-353.027,-51.270,-46.875,-776.855,0.000
1606132230.060,-267.090,-46.875,-42.480,-672.363,0.000
1606132230.064,125.488,-27.344,-27.344,287.109,0.000
1606132230.068,308.105,-13.672,-14.648,819.824,0.000
1606132230.072,41.992,-28.320,-29.297,221.191,0.000
1606132230.076,-306.641,-26.855,-41.992,-687.500,0.000
1606132230.080,-283.691,-27.344,-34.668,-738.281,0.000
1606132230.084,102.051,-23.438,-19.531,188.477,0.000
1606132230.088,321.777,-8.789,-10.254,818.848,0.000
1606132230.092,87.891,-23.926,-25.879,335.449,0.000
1606132230.096,-290.527,-49.316,-49.316,-617.188,0.000
1606132230.100,-326.660,-62.988,-44.434,-808.594,0.000
1606132230.103,54.199,-35.156,-18.555,75.684,0.000
1606132230.107,330.078,-7.324,-2.930,808.594,0.000
1606132230.111,150.391,-21.973,-20.020,458.008,0.000
1606132230.115,-249.512,-40.039,-48.340,-514.160,0.000
1606132230.119,-343.262,-44.434,-52.246,-837.891,0.000
1606132230.123,-0.977,-35.645,-36.621,-45.410,0.000
1606132230.127,289.062,-13.672,-26.367,758.789,0.000
1606132230.131,169.434,-18.555,-30.273,559.570,0.000
1606132230.135,-218.750,-38.574,-43.457,-407.227,0.000
1606132230.139,-370.117,-49.316,-53.223,-865.234,0.000
1606132230.143,-60.059,-35.156,-34.180,-177.734,0.000
1606132230.146,282.227,-12.695,-11.230,703.613,0.000
1606132230.150,219.238,-18.066,-18.555,645.996,0.000
1606132230.154,-179.199,-43.457,-40.527,-316.895,0.000
1606132230.158,-381.836,-56.152,-49.316,-884.766,0.000
1606132230.162,-123.047,-39.551,-32.715,-315.430,0.000
1606132230.166,249.023,-12.207,-10.742,621.582,0.000
1606132230.170,245.117,-14.160,-18.066,713.379,0.000
1606132230.174,-147.461,-40.527,-41.016,-206.543,0.000
1606132230.178,-387.207,-43.945,-51.270,-873.047,0.000
1606132230.182,-173.340,-30.273,-43.457,-435.547,0.000
1606132230.185,208.008,-14.160,-21.484,531.250,0.000
1606132230.189,263.184,-14.160,-13.672,770.020,0.000
1606132230.193,-96.191,-35.645,-28.809,-79.590,0.000
1606132230.197,-377.930,-56.152,-43.945,-840.820,0.000
1606132230.201,-222.168,-48.340,-41.992,-555.664,0.000
1606132230.205,177.246,-16.113,-14.160,425.293,0.000
1606132230.209,293.945,-4.395,-3.418,803.711,0.000
1606132230.213,-34.668,-27.832,-24.414,42.480,0.000
1606132230.217,-355.957,-53.223,-41.016,-796.387,0.000
1606132230.221,-260.742,-50.781,-41.992,-649.902,0.000
1606132230.225,133.789,-27.344,-20.508,323.242,0.000
1606132230.228,293.457,-13.672,-3.906,816.895,0.000
1606132230.232,-1.953,-29.297,-20.020,166.504,0.000
1606132230.236,-348.145,-52.246,-40.039,-731.934,0.000
1606132230.240,-298.828,-52.734,-37.109,-729.004,0.000
1606132230.244,102.051,-22.949,-15.625,229.980,0.000
1606132230.248,308.594,-9.277,-2.930,828.125,0.000
1606132230.252,62.012,-26.855,-20.020,306.641,0.000
1606132230.256,-299.805,-45.410,-40.039,-621.094,0.000
1606132230.260,-317.383,-42.480,-41.992,-774.902,0.000
1606132230.264,56.641,-20.508,-20.996,122.559,0.000
1606132230.268,307.617,-7.812,-7.812,819.824,0.000
1606132230.271,116.211,-15.137,-13.672,423.828,0.000
1606132230.275,-264.648,-49.805,-21.973,-536.621,0.000
1606132230.279,-339.844,-67.871,-32.227,-824.707,0.000
1606132230.283,14.648,-33.691,-12.207,-2.930,0.000
1606132230.287,307.129,-5.859,5.859,778.809,0.000
1606132230.291,163.086,-11.719,-13.184,520.996,0.000
1606132230.295,-243.652,-43.945,-44.434,-460.449,0.000
1606132230.299,-373.535,-56.641,-46.387,-876.465,0.000
1606132230.303,-51.758,-28.809,-21.973,-149.414,0.000
1606132230.307,276.367,-6.348,-15.625,712.402,0.000
1606132230.310,198.242,-14.160,-21.484,613.281,0.000
1606132230.314,-199.219,-42.969,-35.156,-352.539,0.000
1606132230.318,-373.047,-55.664,-39.062,-877.441,0.000
1606132230.322,-86.914,-29.297,-21.973,-257.324,0.000
1606132230.326,271.973,-7.324,-4.395,659.180,0.000
1606132230.330,248.047,-12.695,-6.348,695.801,0.000
1606132230.334,-143.066,-36.621,-30.273,-236.816,0.000
1606132230.338,-367.676,-52.246,-41.992,-865.234,0.000
1606132230.342,-137.695,-33.203,-25.391,-380.371,0.000
1606132230.346,232.422,-11.719,-12.695,570.312,0.000
1606132230.350,267.578,-3.906,-17.578,759.277,0.000
1606132230.353,-104.492,-23.438,-33.203,-118.652,0.000
1606132230.357,-371.094,-51.270,-41.016,-850.098,0.000
1606132230.361,-191.406,-44.434,-34.180,-508.301,0.000
1606132230.365,188.965,-18.066,-18.066,438.965,0.000
1606132230.369,278.809,-9.766,-11.719,759.277,0.000
1606132230.373,-59.570,-28.809,-28.320,-10.742,0.000
1606132230.377,-369.141,-47.852,-41.992,-825.684,0.000
1606132230.381,-252.441,-40.527,-37.598,-628.418,0.000
1606132230.385,146.484,-17.578,-17.578,352.051,0.000
1606132230.389,292.480,-4.883,-11.719,797.852,0.000
1606132230.393,-14.160,-23.438,-27.832,104.004,0.000
1606132230.396,-352.051,-47.363,-46.875,-768.066,0.000
1606132230.400,-288.574,-38.574,-42.480,-713.867,0.000
1606132230.404,111.816,-16.602,-25.391,244.141,0.000
1606132230.408,303.711,-7.812,-22.461,807.617,0.000
1606132230.412,40.527,-20.020,-29.297,241.211,0.000
1606132230.416,-318.359,-44.434,-47.852,-671.875,0.000
1606132230.420,-312.988,-45.410,-52.246,-761.719,0.000
1606132230.424,78.613,-18.066,-24.902,157.715,0.000
1606132230.428,317.383,-1.465,-11.230,819.824,0.000
1606132230.432,101.562,-24.414,-20.508,381.836,0.000
1606132230.435,-277.344,-53.223,-41.992,-574.707,0.000
1606132230.439,-341.797,-54.199,-46.387,-823.730,0.000
1606132230.443,19.531,-30.762,-20.020,35.156,0.000
1606132230.447,300.293,-9.766,-4.883,795.410,0.000
1606132230.451,138.184,-29.297,-21.484,479.980,0.000
1606132230.455,-256.836,-54.688,-39.551,-501.465,0.000
1606132230.459,-369.629,-47.852,-32.227,-870.605,0.000
1606132230.463,-31.738,-29.785,-22.461,-108.887,0.000
1606132230.467,289.551,-11.230,-13.672,729.980,0.000
1606132230.471,189.453,-22.949,-21.484,581.055,0.000
1606132230.475,-212.891,-56.152,-41.992,-395.996,0.000
1606132230.478,-375.977,-57.617,-44.922,-898.926,0.000
1606132230.482,-70.312,-37.598,-26.367,-220.703,0.000
1606132230.486,275.879,-21.484,-13.672,691.895,0.000
1606132230.490,228.516,-23.926,-19.043,660.156,0.000
1606132230.494,-161.133,-44.434,-39.551,-284.668,0.000
1606132230.498,-376.465,-57.129,-49.316,-894.043,0.000
1606132230.502,-134.766,-44.434,-32.227,-370.605,0.000
1606132230.506,236.816,-22.949,-16.113,581.543,0.000
1606132230.510,257.812,-25.879,-13.672,729.004,0.000
1606132230.514,-121.094,-50.293,-34.180,-168.457,0.000
1606132230.518,-375.488,-63.965,-52.246,-869.629,0.000
1606132230.521,-180.176,-48.828,-37.598,-474.609,0.000
1606132230.525,214.355,-15.625,-17.578,503.906,0.000
1606132230.529,294.922,-2.441,-10.254,788.086,0.000
1606132230.533,-68.359,-31.738,-32.227,-38.574,0.000
1606132230.537,-368.164,-50.293,-46.875,-827.148,0.000
1606132230.541,-229.980,-37.598,-32.715,-581.543,0.000
1606132230.545,166.504,-9.277,-14.648,391.113,0.000
1606132230.549,297.852,-1.465,-7.324,799.805,0.000
1606132230.553,-20.020,-18.066,-26.367,76.660,0.000
1606132230.557,-341.797,-45.898,-41.504,-775.391,0.000
1606132230.560,-257.324,-45.898,-33.203,-673.340,0.000
1606132230.564,135.742,-6.836,-22.949,288.086,0.000
1606132230.568,306.641,2.930,-19.043,811.035,0.000
1606132230.572,29.297,-23.438,-36.133,204.102,0.000
1606132230.576,-326.660,-49.316,-51.758,-707.520,0.000
1606132230.580,-309.570,-47.363,-46.875,-754.883,0.000
1606132230.584,89.355,-18.555,-22.461,182.617,0.000
1606132230.588,315.430,-6.836,-15.625,813.477,0.000
1606132230.592,73.242,-25.391,-39.551,325.684,0.000
1606132230.596,-299.316,-32.227,-47.852,-627.441,0.000
1606132230.600,-330.078,-37.109,-42.969,-820.801,0.000
1606132230.603,47.363,-20.508,-28.320,59.570,0.000
1606132230.607,326.172,6.836,-13.672,795.898,0.000
1606132230.611,150.391,-7.324,-18.555,457.520,0.000
1606132230.615,-244.141,-36.133,-40.527,-512.207,0.000
1606132230.619,-330.078,-39.551,-47.363,-836.914,0.000
1606132230.623,16.113,-19.531,-24.902,-44.434,0.000
1606132230.627,313.965,-3.906,-6.836,763.672,0.000
1606132230.631,189.453,-15.625,-20.508,563.965,0.000
1606132230.635,-211.426,-30.273,-49.805,-399.902,0.000
1606132230.639,-357.422,-27.832,-48.340,-850.098,0.000
1606132230.643,-47.852,-18.555,-21.973,-170.898,0.000
1606132230.646,286.621,-8.789,-7.812,705.078,0.000
1606132230.650,221.191,-18.066,-19.043,647.949,0.000
1606132230.654,-168.945,-38.086,-37.598,-304.688,0.000
1606132230.658,-363.281,-47.363,-39.551,-864.258,0.000
1606132230.662,-108.398,-35.156,-23.438,-301.758,0.000
1606132230.666,254.883,-13.184,-7.812,624.512,0.000
1606132230.670,254.883,-14.160,-18.066,719.727,0.000
1606132230.674,-128.906,-33.691,-40.039,-198.242,0.000
1606132230.678,-366.699,-48.828,-49.316,-858.398,0.000
1606132230.682,-162.109,-40.527,-36.133,-425.293,0.000
1606132230.685,213.867,-17.578,-20.020,521.973,0.000
1606132230.689,277.344,-17.090,-19.043,765.625,0.000
1606132230.693,-79.590,-37.109,-26.367,-69.824,0.000
1606132230.697,-365.234,-48.340,-41.504,-828.125,0.000
1606132230.701,-217.285,-44.922,-40.039,-542.480,0.000
1606132230.705,180.176,-23.438,-20.508,432.129,0.000
1606132230.709,295.410,-11.230,-18.555,797.852,0.000
1606132230.713,-40.527,-27.832,-32.227,40.527,0.000
1606132230.717,-363.281,-51.758,-46.875,-798.828,0.000
1606132230.721,-260.742,-43.457,-39.062,-660.156,0.000
1606132230.725,144.043,-12.207,-18.066,324.219,0.000
1606132230.728,301.270,0.977,-14.648,821.777,0.000
1606132230.732,9.766,-16.113,-24.414,171.387,0.000
1606132230.736,-325.195,-30.762,-25.391,-720.703,0.000
1606132230.740,-287.109,-29.785,-28.809,-725.586,0.000
1606132230.744,99.121,-16.113,-24.902,215.820,0.000
1606132230.748,317.383,-8.789,-15.625,817.871,0.000
1606132230.752,80.566,-22.949,-28.320,296.387,0.000
1606132230.756,-291.992,-38.574,-45.898,-642.578,0.000
1606132230.760,-319.336,-41.504,-45.898,-793.945,0.000
1606132230.764,64.453,-18.555,-22.461,113.770,0.000
1606132230.768,320.801,1.465,-8.301,815.918,0.000
1606132230.771,119.141,-15.137,-20.508,418.945,0.000
1606132230.775,-273.926,-33.691,-41.016,-546.875,0.000
1606132230.779,-348.633,-40.039,-40.039,-839.844,0.000
1606132230.783,8.301,-33.203,-24.414,-20.020,0.000
1606132230.787,306.152,-12.207,-12.207,764.160,0.000
1606132230.791,174.316,-22.461,-15.625,510.742,0.000
1606132230.795,-241.699,-51.758,-45.410,-472.168,0.000
1606132230.799,-376.953,-55.664,-53.711,-888.184,0.000
1606132230.803,-40.039,-25.879,-25.879,-151.855,0.000
1606132230.807,292.480,-6.836,-4.395,716.797,0.000
1606132230.810,211.914,-15.625,-9.766,616.211,0.000
1606132230.814,-195.312,-45.898,-34.180,-354.980,0.000
1606132230.818,-379.395,-59.082,-44.922,-884.766,0.000
1606132230.822,-92.773,-38.086,-28.809,-264.160,0.000
1606132230.826,272.949,-18.066,-10.254,658.691,0.000
1606132230.830,248.047,-21.973,-13.184,698.730,0.000
1606132230.834,-144.531,-40.527,-29.785,-238.770,0.000
1606132230.838,-365.723,-42.969,-33.203,-865.234,0.000
1606132230.842,-133.789,-29.785,-20.508,-380.371,0.000
1606132230.846,242.188,-11.230,-11.719,571.289,0.000
1606132230.850,273.438,-8.301,-11.719,759.766,0.000
1606132230.853,-102.051,-34.668,-29.785,-120.605,0.000
1606132230.857,-370.605,-58.594,-45.410,-855.957,0.000
1606132230.861,-196.289,-50.781,-37.598,-515.137,0.000
1606132230.865,198.242,-17.578,-16.113,464.355,0.000
1606132230.869,296.387,-0.488,-3.906,798.340,0.000
1606132230.873,-55.176,-25.879,-27.832,-0.977,0.000
1606132230.877,-364.746,-47.852,-49.805,-816.895,0.000
1606132230.881,-246.094,-43.945,-40.039,-617.188,0.000
1606132230.885,154.297,-17.578,-18.066,367.188,0.000
1606132230.889,305.176,-4.883,-10.742,817.383,0.000
1606132230.893,-7.812,-35.645,-26.855,123.047,0.000
1606132230.896,-354.004,-55.176,-43.945,-752.441,0.000
1606132230.900,-295.410,-44.434,-45.898,-704.590,0.000
1606132230.904,105.957,-21.973,-20.996,254.883,0.000
1606132230.908,307.617,-2.930,-4.883,824.219,0.000
1606132230.912,44.922,-16.113,-21.973,260.742,0.000
1606132230.916,-315.918,-54.688,-43.457,-659.668,0.000
1606132230.920,-312.988,-60.059,-42.969,-760.742,0.000
1606132230.924,74.219,-20.996,-26.367,145.508,0.000
1606132230.928,315.918,0.488,-13.184,809.570,0.000
1606132230.932,99.609,-20.508,-28.809,364.746,0.000
1606132230.935,-280.762,-46.875,-48.828,-596.680,0.000
1606132230.939,-334.473,-50.781,-44.434,-838.379,0.000
1606132230.943,36.133,-28.320,-24.414,15.625,0.000
1606132230.947,315.918,-5.859,-14.160,784.668,0.000
1606132230.951,148.438,-15.625,-26.367,487.793,0.000
1606132230.955,-250.488,-49.805,-45.410,-486.328,0.000
1606132230.959,-366.211,-55.664,-44.922,-853.516,0.000
1606132230.963,-25.879,-23.926,-20.020,-90.820,0.000
1606132230.967,298.340,-5.859,-7.324,744.629,0.000
1606132230.971,195.312,-10.742,-15.137,583.496,0.000
1606132230.975,-197.266,-34.180,-31.250,-388.184,0.000
1606132230.978,-355.957,-50.781,-35.156,-875.977,0.000
1606132230.982,-69.824,-34.180,-22.461,-232.422,0.000
1606132230.986,277.832,-10.742,-17.578,669.434,0.000
1606132230.990,230.957,-16.113,-25.879,666.016,0.000
1606132230.994,-165.039,-38.574,-48.340,-283.691,0.000
1606132230.998,-376.953,-53.223,-60.547,-883.301,0.000
1606132231.002,-132.812,-39.062,-36.621,-352.051,0.000
1606132231.006,251.465,-6.836,-6.348,604.980,0.000
1606132231.010,272.949,1.953,-6.348,750.977,0.000
1606132231.014,-118.652,-30.762,-33.203,-163.086,0.000
1606132231.018,-374.023,-62.012,-43.945,-868.652,0.000
1606132231.021,-180.664,-47.363,-34.668,-471.191,0.000
1606132231.025,207.520,-14.160,-13.184,503.906,0.000
1606132231.029,284.180,-5.371,-3.418,789.062,0.000
1606132231.033,-75.684,-24.414,-33.203,-39.551,0.000
1606132231.037,-369.141,-44.434,-53.711,-834.473,0.000
1606132231.041,-228.516,-37.598,-45.898,-581.543,0.000
1606132231.045,171.875,-7.812,-25.879,407.227,0.000
1606132231.049,297.852,1.465,-14.648,810.547,0.000
1606132231.053,-26.855,-19.531,-25.879,82.031,0.000
1606132231.057,-356.934,-40.527,-46.875,-783.691,0.000
1606132231.060,-271.973,-36.133,-40.039,-688.965,0.000
1606132231.064,139.648,-11.230,-21.484,297.363,0.000
1606132231.068,322.754,0.977,-11.719,831.543,0.000
1606132231.072,40.527,-13.184,-21.973,216.309,0.000
1606132231.076,-322.754,-36.133,-45.898,-697.266,0.000
1606132231.080,-303.711,-36.621,-41.992,-742.188,0.000
1606132231.084,93.262,-12.695,-18.555,198.730,0.000
1606132231.088,317.871,4.395,-6.348,839.844,0.000
1606132231.092,79.590,-15.137,-24.902,349.609,0.000
1606132231.096,-303.223,-45.898,-46.387,-621.582,0.000
1606132231.100,-343.750,-48.340,-42.480,-818.848,0.000
1606132231.103,40.039,-22.949,-18.555,81.543,0.000
1606132231.107,318.359,-5.859,-2.441,824.707,0.000
1606132231.111,127.930,-14.648,-23.926,463.379,0.000
1606132231.115,-268.555,-38.574,-47.363,-524.902,0.000
1606132231.119,-362.305,-44.922,-50.293,-851.074,0.000
1606132231.123,-18.066,-27.832,-28.809,-56.152,0.000
1606132231.127,297.852,-8.301,-2.930,760.254,0.000
1606132231.131,168.945,-18.555,-17.090,550.781,0.000
1606132231.135,-235.352,-44.922,-41.016,-430.176,0.000
1606132231.139,-377.930,-50.293,-47.852,-884.766,0.000
1606132231.143,-73.242,-34.668,-37.598,-206.055,0.000
1606132231.146,272.949,-12.695,-20.020,680.176,0.000
1606132231.150,216.309,-11.719,-24.414,632.324,0.000
1606132231.154,-182.129,-36.133,-43.457,-333.008,0.000
1606132231.158,-375.000,-48.340,-44.922,-896.484,0.000
1606132231.162,-108.887,-28.809,-31.250,-322.266,0.000
1606132231.166,261.719,-5.859,-14.648,614.258,0.000
1606132231.170,263.672,-9.277,-15.137,710.938,0.000
1606132231.174,-127.441,-31.250,-36.133,-215.820,0.000
1606132231.178,-373.535,-48.340,-47.852,-886.719,0.000
1606132231.182,-161.621,-44.434,-38.086,-438.965,0.000
1606132231.185,222.656,-19.531,-18.555,531.738,0.000
1606132231.189,284.668,-12.207,-15.625,769.043,0.000
1606132231.193,-84.473,-35.156,-33.691,-85.449,0.000
1606132231.197,-376.465,-45.898,-48.828,-842.773,0.000
1606132231.201,-218.750,-41.992,-42.480,-540.527,0.000
1606132231.205,185.547,-24.414,-18.066,439.941,0.000
1606132231.209,295.898,-19.531,-19.043,798.340,0.000
1606132231.213,-41.992,-38.086,-42.480,34.180,0.000
1606132231.217,-357.910,-51.270,-51.758,-795.410,0.000
1606132231.221,-259.766,-51.758,-41.504,-650.391,0.000
1606132231.225,146.484,-26.855,-20.508,332.520,0.000
1606132231.228,319.336,-10.742,-7.324,835.938,0.000
1606132231.232,22.949,-26.367,-29.785,180.176,0.000
1606132231.236,-335.449,-50.781,-46.387,-732.422,0.000
1606132231.240,-294.922,-44.434,-33.691,-732.910,0.000
1606132231.244,107.422,-14.648,-16.113,233.398,0.000
1606132231.248,316.406,-8.789,-7.812,829.102,0.000
1606132231.252,61.523,-29.785,-30.762,291.504,0.000
1606132231.256,-310.059,-43.945,-54.688,-649.414,0.000
1606132231.260,-326.172,-48.828,-46.875,-795.898,0.000
1606132231.264,60.547,-34.668,-29.297,114.258,0.000
1606132231.268,320.801,-12.695,-13.184,826.660,0.000
1606132231.271,123.535,-23.926,-14.648,432.129,0.000
1606132231.275,-268.555,-52.734,-39.551,-547.852,0.000
1606132231.279,-347.168,-54.688,-39.551,-837.891,0.000
1606132231.283,13.672,-31.250,-16.602,-4.883,0.000
1606132231.287,310.059,-12.207,-0.977,783.203,0.000
1606132231.291,160.156,-23.438,-22.461,525.391,0.000
1606132231.295,-247.559,-45.898,-52.246,-455.566,0.000
1606132231.299,-371.094,-46.875,-43.945,-868.164,0.000
1606132231.303,-33.691,-34.180,-21.484,-130.371,0.000
1606132231.307,281.738,-17.578,-8.789,705.078,0.000
1606132231.310,191.895,-16.602,-12.695,590.332,0.000
1606132231.314,-194.824,-38.574,-32.227,-350.586,0.000
1606132231.318,-381.348,-55.664,-40.039,-889.648,0.000
1606132231.322,-101.562,-37.598,-20.508,-272.949,0.000
1606132231.326,261.230,-11.230,-6.348,653.320,0.000
1606132231.330,245.117,-8.301,-0.977,700.684,0.000
1606132231.334,-160.156,-33.203,-25.391,-241.211,0.000
1606132231.338,-390.625,-45.410,-43.945,-876.465,0.000
1606132231.342,-147.461,-32.715,-27.832,-394.043,0.000
1606132231.346,236.816,-7.324,-5.371,564.941,0.000
1606132231.350,265.137,-7.324,-9.766,751.953,0.000
1606132231.353,-110.352,-34.180,-29.297,-130.859,0.000
1606132231.357,-377.441,-48.828,-28.320,-862.305,0.000
1606132231.361,-205.078,-46.875,-26.855,-523.926,0.000
1606132231.365,198.242,-26.855,-18.066,458.496,0.000
1606132231.369,297.363,-18.066,-9.277,790.527,0.000
1606132231.373,-61.523,-37.598,-31.738,-8.789,0.000
1606132231.377,-373.535,-53.223,-49.805,-827.148,0.000
1606132231.381,-249.512,-45.410,-33.691,-623.047,0.000
1606132231.385,158.203,-16.602,-7.324,375.977,0.000
1606132231.389,306.641,-8.789,-13.672,829.590,0.000
1606132231.393,-6.348,-33.691,-32.715,122.070,0.000
1606132231.396,-348.145,-41.504,-39.062,-766.113,0.000
1606132231.400,-284.668,-31.738,-33.203,-704.102,0.000
1606132231.404,118.164,-15.625,-12.695,267.578,0.000
1606132231.408,313.477,-3.418,-10.742,826.660,0.000
1606132231.412,45.410,-26.367,-36.133,241.699,0.000
1606132231.416,-326.660,-49.805,-56.152,-697.754,0.000
1606132231.420,-322.266,-49.316,-49.316,-796.875,0.000
1606132231.424,80.566,-26.855,-17.090,136.719,0.000
1606132231.428,320.801,-9.277,-7.324,809.082,0.000
1606132231.432,100.098,-23.438,-21.973,368.164,0.000
1606132231.435,-282.227,-48.828,-35.156,-589.355,0.000
1606132231.439,-343.262,-56.152,-39.551,-833.008,0.000
1606132231.443,29.297,-36.133,-24.414,25.391,0.000
1606132231.447,315.918,-13.672,-12.695,784.668,0.000
1606132231.451,146.973,-21.973,-21.973,478.027,0.000
1606132231.455,-253.418,-44.434,-41.016,-501.465,0.000
1606132231.459,-362.305,-47.852,-45.410,-871.582,0.000
1606132231.463,-21.484,-24.902,-21.484,-95.703,0.000
1606132231.467,300.781,-4.395,-1.465,749.023,0.000
1606132231.471,197.266,-12.207,-11.719,586.914,0.000
1606132231.475,-210.938,-37.109,-29.785,-388.672,0.000
1606132231.478,-380.859,-47.852,-35.156,-872.559,0.000
1606132231.482,-85.938,-36.133,-28.320,-227.539,0.000
1606132231.486,269.043,-12.695,-19.043,667.480,0.000
1606132231.490,225.098,-15.137,-21.484,662.598,0.000
1606132231.494,-180.664,-37.598,-39.062,-290.527,0.000
1606132231.498,-391.113,-42.480,-41.992,-886.719,0.000
1606132231.502,-135.254,-33.691,-27.344,-357.422,0.000
1606132231.506,242.188,-11.719,-6.836,590.332,0.000
1606132231.510,267.578,-10.254,-7.812,740.234,0.000
1606132231.514,-113.281,-35.156,-27.832,-161.621,0.000
1606132231.518,-382.324,-51.270,-43.457,-869.629,0.000
1606132231.521,-186.035,-41.992,-41.992,-476.562,0.000
1606132231.525,220.703,-8.789,-18.066,505.371,0.000
1606132231.529,297.363,-5.859,-11.719,783.691,0.000
1606132231.533,-69.824,-34.180,-34.668,-48.828,0.000
1606132231.537,-362.793,-42.480,-50.781,-825.195,0.000
1606132231.541,-220.215,-34.180,-39.551,-570.801,0.000
1606132231.545,183.105,-11.719,-11.719,414.551,0.000
1606132231.549,315.430,0.488,-2.441,830.566,0.000
1606132231.553,-16.602,-23.438,-17.578,92.285,0.000
1606132231.557,-353.516,-52.246,-41.016,-769.531,0.000
1606132231.560,-272.461,-48.828,-43.945,-668.945,0.000
1606132231.564,130.859,-20.508,-16.602,301.270,0.000
1606132231.568,315.430,-6.348,-8.301,832.031,0.000
1606132231.572,38.086,-20.996,-27.832,219.238,0.000
1606132231.576,-325.195,-37.109,-44.434,-702.148,0.000
1606132231.580,-304.199,-43.945,-41.992,-759.766,0.000
1606132231.584,96.191,-25.879,-19.531,179.688,0.000
1606132231.588,313.965,-8.301,-7.324,818.848,0.000
1606132231.592,76.172,-25.879,-17.090,334.473,0.000
1606132231.596,-304.688,-48.828,-34.180,-623.047,0.000
1606132231.600,-342.773,-50.293,-36.133,-820.312,0.000
1606132231.603,43.457,-22.949,-19.531,63.477,0.000
1606132231.607,316.895,-3.906,1.465,798.828,0.000
1606132231.611,133.789,-19.043,-7.324,455.078,0.000
1606132231.615,-273.438,-46.387,-42.969,-522.461,0.000
1606132231.619,-365.723,-52.246,-41.504,-846.191,0.000
1606132231.623,-7.812,-24.902,-20.020,-51.270,0.000
1606132231.627,300.293,-9.277,-7.324,752.441,0.000
1606132231.631,178.223,-21.973,-12.207,546.387,0.000
1606132231.635,-221.191,-37.109,-39.062,-430.664,0.000
1606132231.639,-365.234,-38.086,-45.898,-881.836,0.000
1606132231.643,-50.293,-20.996,-25.879,-184.570,0.000
1606132231.646,291.504,-3.418,-13.184,690.918,0.000
1606132231.650,226.074,-10.254,-19.043,628.418,0.000
1606132231.654,-176.758,-34.180,-37.598,-332.031,0.000
1606132231.658,-371.582,-47.363,-41.504,-894.531,0.000
1606132231.662,-106.445,-28.320,-28.320,-321.777,0.000
1606132231.666,262.695,0.000,-10.254,613.770,0.000
1606132231.670,256.836,-5.859,-11.719,708.496,0.000
1606132231.674,-144.531,-38.086,-31.250,-212.402,0.000
1606132231.678,-383.301,-60.059,-39.551,-877.930,0.000
1606132231.682,-160.156,-41.992,-28.809,-437.500,0.000
1606132231.685,224.609,-11.719,-12.695,521.484,0.000
1606132231.689,280.762,-9.277,-11.230,756.836,0.000
1606132231.693,-91.797,-32.227,-29.785,-95.215,0.000
1606132231.697,-377.930,-52.246,-42.480,-850.586,0.000
1606132231.701,-216.797,-39.551,-28.809,-550.293,0.000
1606132231.705,186.035,-11.719,-2.441,433.594,0.000
1606132231.709,297.852,-7.324,2.441,805.176,0.000
1606132231.713,-39.551,-22.949,-19.531,40.039,0.000
1606132231.717,-354.980,-39.062,-34.668,-787.109,0.000
1606132231.721,-249.023,-41.016,-38.086,-630.859,0.000
1606132231.725,160.645,-15.625,-21.973,344.238,0.000
1606132231.728,325.684,-1.953,-9.766,835.938,0.000
1606132231.732,25.879,-22.949,-18.066,182.129,0.000
1606132231.736,-333.008,-46.387,-38.086,-722.656,0.000
1606132231.740,-293.457,-48.828,-46.387,-725.586,0.000
1606132231.744,110.840,-27.344,-29.297,221.191,0.000
1606132231.748,319.336,-6.836,-6.836,819.336,0.000
1606132231.752,63.965,-15.137,-15.137,300.293,0.000
1606132231.756,-314.453,-45.898,-38.574,-641.602,0.000
1606132231.760,-324.219,-46.875,-31.738,-786.133,0.000
1606132231.764,67.871,-19.531,-11.719,120.605,0.000
1606132231.768,318.848,-4.395,-5.859,807.129,0.000
1606132231.771,126.953,-13.672,-18.066,409.180,0.000
1606132231.775,-262.207,-39.551,-36.621,-554.199,0.000
1606132231.779,-348.633,-47.852,-43.945,-839.355,0.000
1606132231.783,11.230,-30.762,-28.320,-9.277,0.000
1606132231.787,318.848,-14.648,-1.465,778.809,0.000
1606132231.791,178.711,-22.461,-10.742,520.020,0.000
1606132231.795,-234.375,-48.340,-42.480,-461.426,0.000
1606132231.799,-369.629,-54.688,-48.340,-874.512,0.000
1606132231.803,-43.945,-32.715,-28.320,-140.625,0.000
1606132231.807,290.527,-8.301,-7.324,726.074,0.000
1606132231.810,207.031,-14.648,-11.719,605.469,0.000
1606132231.814,-197.754,-38.086,-34.668,-363.770,0.000
1606132231.818,-374.512,-42.480,-47.363,-878.418,0.000
1606132231.822,-92.773,-31.738,-25.391,-256.348,0.000
1606132231.826,269.043,-10.254,0.000,655.762,0.000
1606132231.830,248.047,-19.043,-9.277,691.406,0.000
1606132231.834,-156.738,-53.223,-41.504,-253.906,0.000
1606132231.838,-384.766,-50.781,-49.805,-892.578,0.000
1606132231.842,-146.973,-27.832,-33.203,-402.832,0.000
1606132231.846,228.516,-8.789,-14.648,551.270,0.000
1606132231.850,261.719,-7.812,-15.137,736.328,0.000
1606132231.853,-113.281,-28.809,-32.227,-136.230,0.000
1606132231.857,-377.441,-41.016,-34.180,-860.840,0.000
1606132231.861,-194.824,-29.785,-24.414,-517.578,0.000
1606132231.865,197.754,-7.812,-10.254,451.172,0.000
1606132231.869,292.480,-13.184,-11.230,773.926,0.000
1606132231.873,-53.223,-37.109,-33.203,-16.113,0.000
1606132231.877,-365.234,-55.664,-52.246,-821.289,0.000
1606132231.881,-246.094,-46.875,-35.645,-610.840,0.000
1606132231.885,160.645,-18.555,-9.277,373.047,0.000
1606132231.889,303.223,-10.254,-16.113,814.941,0.000
1606132231.893,-10.254,-29.297,-33.691,116.211,0.000
1606132231.896,-358.887,-51.758,-43.945,-761.230,0.000
1606132231.900,-287.598,-49.316,-35.156,-697.266,0.000
1606132231.904,128.906,-23.926,-15.137,271.484,0.000
1606132231.908,319.336,-7.324,-11.230,831.055,0.000
1606132231.912,44.922,-29.785,-30.273,248.047,0.000
1606132231.916,-316.406,-49.805,-46.875,-675.781,0.000
1606132231.920,-303.711,-40.527,-34.180,-757.812,0.000
1606132231.924,82.520,-19.043,-9.277,154.297,0.000
1606132231.928,319.824,-7.812,-8.301,814.941,0.000
1606132231.932,104.492,-22.461,-20.996,380.371,0.000
1606132231.935,-286.621,-46.875,-30.273,-577.148,0.000
1606132231.939,-338.867,-52.246,-29.297,-811.523,0.000
1606132231.943,43.945,-20.996,-11.719,42.969,0.000
1606132231.947,331.055,-1.953,-1.953,799.805,0.000
1606132231.951,156.250,-20.020,-15.625,499.023,0.000
1606132231.955,-253.906,-42.969,-34.180,-487.305,0.000
1606132231.959,-353.027,-41.504,-35.156,-850.098,0.000
1606132231.963,-7.324,-25.879,-23.438,-79.590,0.000
1606132231.967,309.570,-6.348,-14.648,739.258,0.000
1606132231.971,203.125,-15.137,-17.090,578.613,0.000
1606132231.975,-210.449,-46.875,-40.039,-397.949,0.000
1606132231.978,-376.953,-53.223,-47.363,-882.812,0.000
1606132231.982,-68.359,-30.762,-21.484,-219.238,0.000
1606132231.986,285.156,-10.254,-13.184,667.969,0.000
1606132231.990,244.141,-14.160,-21.484,658.691,0.000
1606132231.994,-151.855,-31.738,-37.109,-277.344,0.000
1606132231.998,-364.258,-39.551,-51.270,-871.582,0.000
1606132232.002,-119.629,-27.344,-31.738,-342.285,0.000
1606132232.006,243.652,-10.254,-18.066,593.262,0.000
1606132232.010,250.977,-14.160,-24.414,726.074,0.000
1606132232.014,-137.695,-41.504,-37.109,-179.199,0.000
1606132232.018,-387.207,-54.199,-46.875,-865.234,0.000
1606132232.021,-182.617,-34.668,-32.227,-463.379,0.000
1606132232.025,210.449,-12.695,-7.324,500.977,0.000
1606132232.029,285.156,-14.160,-5.371,776.855,0.000
1606132232.033,-83.496,-39.551,-33.691,-52.246,0.000
1606132232.037,-377.930,-57.617,-51.270,-833.496,0.000
1606132232.041,-215.820,-48.828,-41.016,-572.266,0.000
1606132232.045,183.594,-14.160,-14.160,413.086,0.000
1606132232.049,296.387,-1.953,-1.953,815.918,0.000
1606132232.053,-30.273,-32.227,-21.973,80.078,0.000
1606132232.057,-358.398,-52.734,-45.898,-773.438,0.000
1606132232.060,-274.414,-47.363,-41.992,-662.598,0.000
1606132232.064,126.465,-21.484,-22.461,298.828,0.000
1606132232.068,315.430,-4.395,-10.254,823.730,0.000
1606132232.072,35.645,-21.973,-26.855,208.008,0.000
1606132232.076,-331.055,-47.852,-52.246,-714.844,0.000
1606132232.080,-313.477,-49.805,-46.875,-760.742,0.000
1606132232.084,86.914,-20.508,-17.090,180.176,0.000
1606132232.088,322.266,-8.301,-5.371,812.012,0.000
1606132232.092,85.938,-30.762,-17.578,322.754,0.000
1606132232.096,-296.387,-52.246,-38.086,-623.047,0.000
1606132232.100,-331.543,-51.270,-42.969,-807.617,0.000
1606132232.103,48.340,-21.484,-20.996,72.754,0.000
1606132232.107,315.430,0.000,-10.254,787.598,0.000
1606132232.111,134.766,-15.625,-21.973,437.500,0.000
1606132232.115,-264.160,-46.387,-44.434,-529.785,0.000
1606132232.119,-362.305,-53.711,-46.875,-851.074,0.000
1606132232.123,-5.371,-26.855,-28.809,-52.246,0.000
1606132232.127,310.059,-4.883,-13.184,756.836,0.000
1606132232.131,184.570,-18.066,-17.578,551.270,0.000
1606132232.135,-218.750,-31.250,-35.645,-412.598,0.000
1606132232.139,-359.863,-24.414,-43.457,-855.469,0.000
1606132232.143,-51.758,-19.043,-29.785,-175.781,0.000
1606132232.146,284.180,-9.766,-14.160,696.289,0.000
1606132232.150,215.332,-17.578,-24.414,630.859,0.000
1606132232.154,-187.988,-45.410,-43.945,-325.195,0.000
1606132232.158,-382.324,-56.152,-45.410,-876.953,0.000
1606132232.162,-109.863,-37.109,-33.691,-310.059,0.000
1606132232.166,264.648,-10.742,-15.625,614.258,0.000
1606132232.170,255.859,-11.719,-16.113,701.660,0.000
1606132232.174,-148.438,-35.645,-29.297,-217.285,0.000
1606132232.178,-392.090,-48.828,-37.598,-871.094,0.000
1606132232.182,-174.805,-43.945,-39.062,-430.664,0.000
1606132232.185,212.891,-23.438,-24.414,513.184,0.000
1606132232.189,270.020,-15.137,-22.461,740.723,0.000
1606132232.193,-96.680,-41.504,-38.574,-95.703,0.000
1606132232.197,-363.281,-59.082,-44.922,-841.797,0.000
1606132232.201,-194.336,-44.922,-35.156,-550.781,0.000
1606132232.205,197.754,-16.113,-17.578,424.316,0.000
1606132232.209,302.246,-8.789,-13.672,783.691,0.000
1606132232.213,-35.645,-30.273,-23.926,25.879,0.000
1606132232.217,-358.398,-56.641,-37.109,-801.270,0.000
1606132232.221,-253.906,-50.293,-45.898,-651.367,0.000
1606132232.225,154.785,-18.555,-29.785,323.730,0.000
1606132232.228,316.895,-8.789,-17.578,815.430,0.000
1606132232.232,18.066,-30.273,-29.297,155.273,0.000
1606132232.236,-340.820,-62.988,-44.922,-740.723,0.000
1606132232.240,-298.828,-63.965,-41.016,-723.145,0.000
1606132232.244,115.234,-25.879,-19.531,222.656,0.000
1606132232.248,329.102,-8.301,-7.812,812.500,0.000
1606132232.252,76.172,-20.508,-23.926,296.387,0.000
1606132232.256,-293.457,-47.852,-36.621,-632.324,0.000
1606132232.260,-312.012,-52.734,-30.762,-782.227,0.000
1606132232.264,72.754,-27.344,-25.879,108.887,0.000
1606132232.268,322.266,-9.277,-16.602,793.945,0.000
1606132232.271,110.840,-13.672,-22.949,389.648,0.000
1606132232.275,-278.320,-43.945,-34.668,-562.500,0.000
1606132232.279,-350.098,-51.270,-33.691,-836.914,0.000
1606132232.283,13.184,-19.531,-20.020,-13.184,0.000
1606132232.287,313.965,0.000,-12.207,764.648,0.000
1606132232.291,168.457,-11.230,-20.508,507.324,0.000
1606132232.295,-240.723,-38.086,-37.598,-466.797,0.000
1606132232.299,-373.047,-47.852,-42.969,-872.070,0.000
1606132232.303,-48.340,-28.809,-27.344,-141.113,0.000
1606132232.307,283.691,-8.301,-10.742,707.520,0.000
1606132232.310,197.266,-10.254,-12.207,597.656,0.000
1606132232.314,-203.613,-30.762,-37.598,-360.352,0.000
1606132232.318,-380.859,-44.434,-47.852,-878.906,0.000
1606132232.322,-93.750,-26.855,-20.996,-248.047,0.000
1606132232.326,273.926,-6.836,-0.977,663.574,0.000
1606132232.330,243.164,-12.207,-13.184,682.617,0.000
1606132232.334,-169.434,-44.922,-35.645,-255.859,0.000
1606132232.338,-394.043,-62.012,-38.574,-875.977,0.000
1606132232.342,-154.785,-39.062,-29.785,-384.277,0.000
1606132232.346,230.469,-9.766,-9.766,566.895,0.000
1606132232.350,266.113,-13.184,5.371,748.047,0.000
1606132232.353,-116.699,-40.527,-26.855,-133.789,0.000
1606132232.357,-377.930,-57.617,-45.410,-848.633,0.000
1606132232.361,-194.824,-47.363,-25.879,-483.398,0.000
1606132232.365,208.496,-12.695,-7.812,485.840,0.000
1606132232.369,311.523,1.465,-1.953,803.223,0.000
1606132232.373,-51.758,-29.297,-26.367,0.000,0.000
1606132232.377,-367.188,-58.594,-45.410,-804.199,0.000
1606132232.381,-238.770,-46.387,-39.062,-588.867,0.000
1606132232.385,166.992,-13.672,-14.648,385.742,0.000
1606132232.389,317.383,-1.953,-8.301,825.684,0.000
1606132232.393,2.930,-22.949,-28.320,133.301,0.000
1606132232.396,-340.332,-47.363,-41.504,-739.258,0.000
1606132232.400,-271.973,-41.992,-31.250,-674.805,0.000
1606132232.404,145.020,-15.137,-14.160,293.457,0.000
1606132232.408,334.473,-8.301,-13.184,843.262,0.000
1606132232.412,46.387,-19.043,-27.344,254.395,0.000
1606132232.416,-318.359,-39.551,-43.457,-658.691,0.000
1606132232.420,-312.500,-49.316,-41.992,-745.117,0.000
1606132232.424,78.125,-19.531,-21.484,160.156,0.000
1606132232.428,321.777,-3.418,-12.695,818.848,0.000
1606132232.432,105.957,-19.043,-30.762,375.000,0.000
1606132232.435,-280.762,-45.410,-45.898,-580.566,0.000
1606132232.439,-339.844,-50.293,-46.875,-808.105,0.000
1606132232.443,40.527,-19.043,-28.320,49.805,0.000
1606132232.447,329.102,4.395,-7.812,799.316,0.000
1606132232.451,162.109,-5.859,-15.137,490.723,0.000
1606132232.455,-239.258,-32.715,-41.504,-488.281,0.000
1606132232.459,-351.074,-41.016,-48.828,-845.703,0.000
1606132232.463,-12.695,-17.578,-28.320,-74.707,0.000
1606132232.467,299.316,-3.906,-13.184,741.699,0.000
1606132232.471,194.336,-15.625,-25.879,572.266,0.000
1606132232.475,-215.332,-49.805,-42.969,-399.414,0.000
1606132232.478,-380.371,-61.035,-43.945,-879.395,0.000
1606132232.482,-63.965,-23.926,-28.320,-193.848,0.000
1606132232.486,287.109,-0.977,-8.789,703.125,0.000
1606132232.490,229.492,-2.441,-16.113,654.297,0.000
1606132232.494,-163.086,-28.320,-42.969,-279.785,0.000
1606132232.498,-373.535,-43.457,-43.457,-886.719,0.000
1606132232.502,-103.027,-22.461,-27.344,-301.758,0.000
1606132232.506,286.621,2.441,-16.602,666.504,0.000
1606132232.510,275.879,-1.465,-15.625,726.074,0.000
1606132232.514,-122.070,-31.738,-40.527,-177.246,0.000
1606132232.518,-379.883,-74.707,-51.270,-870.117,0.000
1606132232.521,-177.246,-54.199,-31.738,-459.473,0.000
1606132232.525,212.891,-7.324,-13.184,505.371,0.000
1606132232.529,279.297,-8.301,-11.719,766.602,0.000
1606132232.533,-86.914,-32.715,-30.273,-56.152,0.000
1606132232.537,-382.812,-46.875,-42.480,-834.961,0.000
1606132232.541,-229.004,-29.785,-22.949,-575.684,0.000
1606132232.545,180.176,-4.395,-9.766,401.855,0.000
1606132232.549,293.945,4.883,-11.719,796.387,0.000
1606132232.553,-36.133,-18.555,-21.973,63.965,0.000
1606132232.557,-359.863,-55.176,-39.062,-781.250,0.000
1606132232.560,-275.879,-47.852,-39.551,-670.410,0.000
1606132232.564,130.859,-11.719,-19.531,300.781,0.000
1606132232.568,314.453,0.977,-9.766,816.406,0.000
1606132232.572,25.879,-19.043,-30.762,191.406,0.000
1606132232.576,-335.938,-41.992,-43.457,-708.984,0.000
1606132232.580,-303.711,-40.039,-38.574,-740.723,0.000
1606132232.584,103.027,-17.090,-19.043,196.289,0.000
1606132232.588,328.125,-1.465,-6.348,815.918,0.000
1606132232.592,82.520,-18.555,-20.508,313.965,0.000
1606132232.596,-305.176,-46.875,-37.598,-628.418,0.000
1606132232.600,-339.844,-49.316,-42.969,-806.641,0.000
1606132232.603,42.480,-15.625,-24.414,77.637,0.000
1606132232.607,315.918,2.441,-16.113,788.574,0.000
1606132232.611,131.836,-12.695,-33.691,418.945,0.000
1606132232.615,-262.207,-47.852,-49.805,-547.852,0.000
1606132232.619,-348.145,-62.500,-45.898,-854.004,0.000
1606132232.623,6.836,-33.203,-29.297,-51.758,0.000
1606132232.627,314.453,-8.789,-18.555,747.559,0.000
1606132232.631,187.012,-13.184,-22.949,532.715,0.000
1606132232.635,-217.773,-36.133,-40.527,-439.941,0.000
1606132232.639,-368.652,-43.457,-40.039,-878.906,0.000
1606132232.643,-51.758,-24.902,-25.391,-178.711,0.000
1606132232.646,291.992,-1.953,-15.137,691.406,0.000
1606132232.650,225.586,-5.859,-17.090,621.582,0.000
1606132232.654,-176.270,-38.574,-31.738,-334.473,0.000
1606132232.658,-373.535,-57.617,-42.480,-884.277,0.000
1606132232.662,-106.445,-32.715,-34.180,-299.805,0.000
1606132232.666,260.742,-2.441,-11.230,631.348,0.000
1606132232.670,247.559,-8.301,-10.742,704.590,0.000
1606132232.674,-157.227,-38.574,-36.621,-225.098,0.000
1606132232.678,-401.367,-54.688,-49.316,-879.883,0.000
1606132232.682,-167.480,-40.527,-31.738,-427.734,0.000
1606132232.685,231.934,-11.230,-13.184,535.156,0.000
1606132232.689,284.668,-4.395,-9.766,759.766,0.000
1606132232.693,-89.844,-28.320,-35.645,-98.633,0.000
1606132232.697,-371.094,-46.875,-50.781,-838.379,0.000
1606132232.701,-199.219,-30.762,-34.180,-530.762,0.000
1606132232.705,203.125,-7.812,-21.973,438.477,0.000
1606132232.709,307.129,-8.301,-22.461,795.898,0.000
1606132232.713,-39.551,-27.832,-33.691,31.250,0.000
1606132232.717,-360.840,-50.293,-47.363,-801.758,0.000
1606132232.721,-254.883,-47.363,-45.410,-647.461,0.000
1606132232.725,154.785,-14.648,-19.531,332.520,0.000
1606132232.728,316.895,-3.418,-4.883,817.871,0.000
1606132232.732,5.859,-33.691,-22.949,156.250,0.000
1606132232.736,-356.445,-61.523,-43.457,-734.375,0.000
1606132232.740,-298.828,-50.781,-45.898,-717.285,0.000
1606132232.744,119.629,-16.113,-24.414,241.211,0.000
1606132232.748,329.102,-7.812,-10.254,828.613,0.000
1606132232.752,68.359,-30.273,-25.879,289.062,0.000
1606132232.756,-312.012,-54.688,-46.387,-644.531,0.000
1606132232.760,-323.730,-51.270,-43.457,-776.367,0.000
1606132232.764,64.941,-20.020,-24.414,125.488,0.000
1606132232.768,317.871,-6.348,-13.672,804.688,0.000
1606132232.771,110.352,-20.996,-20.996,395.020,0.000
1606132232.775,-286.133,-50.781,-42.480,-566.406,0.000
1606132232.779,-357.422,-56.152,-46.875,-838.867,0.000
1606132232.783,0.977,-25.391,-26.367,-6.836,0.000
1606132232.787,302.246,-6.836,-15.137,771.484,0.000
1606132232.791,156.250,-11.230,-22.461,510.742,0.000
1606132232.795,-252.930,-44.434,-37.109,-465.820,0.000
1606132232.799,-372.070,-55.664,-39.062,-864.746,0.000
1606132232.803,-32.227,-26.367,-18.066,-128.906,0.000
1606132232.807,303.223,-2.441,-9.766,720.215,0.000
1606132232.810,207.520,-7.324,-20.020,598.633,0.000
1606132232.814,-201.172,-36.133,-35.645,-368.652,0.000
1606132232.818,-372.559,-41.504,-43.457,-875.977,0.000
1606132232.822,-79.590,-16.602,-23.926,-257.324,0.000
1606132232.826,288.574,9.277,-1.953,652.832,0.000
1606132232.830,258.789,5.371,-3.418,678.711,0.000
1606132232.834,-143.066,-21.484,-21.484,-255.859,0.000
1606132232.838,-368.164,-36.133,-31.250,-870.605,0.000
1606132232.842,-137.695,-25.879,-23.926,-386.719,0.000
1606132232.846,244.141,-4.395,-11.230,559.570,0.000
1606132232.850,275.879,-4.395,-12.695,732.910,0.000
1606132232.853,-112.305,-27.832,-28.809,-149.414,0.000
1606132232.857,-386.230,-47.852,-45.898,-863.770,0.000
1606132232.861,-193.359,-40.039,-38.086,-500.488,0.000
1606132232.865,220.215,-8.789,-14.648,477.051,0.000
1606132232.869,311.523,-0.488,-10.742,782.715,0.000
1606132232.873,-59.570,-23.926,-27.832,-23.438,0.000
1606132232.877,-370.117,-37.109,-44.922,-819.824,0.000
1606132232.881,-228.027,-26.855,-34.180,-596.680,0.000
1606132232.885,181.641,-2.441,-6.348,391.113,0.000
1606132232.889,317.383,1.465,-7.324,824.707,0.000
1606132232.893,-10.742,-28.320,-35.156,111.816,0.000
1606132232.896,-351.562,-40.527,-45.898,-756.348,0.000
1606132232.900,-280.273,-29.297,-31.250,-672.363,0.000
1606132232.904,126.465,-14.160,-6.348,285.645,0.000
1606132232.908,321.777,-6.348,0.488,826.172,0.000
1606132232.912,44.434,-24.414,-24.902,244.141,0.000
1606132232.916,-328.613,-45.898,-43.457,-677.734,0.000
1606132232.920,-312.500,-41.992,-39.551,-750.488,0.000
1606132232.924,90.332,-12.695,-16.602,175.781,0.000
1606132232.928,331.543,4.883,2.930,825.684,0.000
1606132232.932,103.027,-12.207,-13.672,372.070,0.000
1606132232.935,-292.969,-32.227,-40.527,-592.773,0.000
1606132232.939,-350.586,-39.551,-45.898,-816.406,0.000
1606132232.943,25.879,-31.250,-21.484,43.457,0.000
1606132232.947,312.500,-9.277,-4.395,781.250,0.000
1606132232.951,141.113,-18.555,-16.602,461.426,0.000
1606132232.955,-266.113,-44.922,-39.551,-510.742,0.000
1606132232.959,-370.605,-52.246,-38.086,-854.980,0.000
1606132232.963,-21.484,-32.715,-13.184,-78.613,0.000
1606132232.967,294.434,-15.137,-6.836,734.375,0.000
1606132232.971,185.059,-19.531,-11.230,561.035,0.000
1606132232.975,-221.680,-45.410,-26.367,-399.902,0.000
1606132232.978,-376.465,-53.223,-39.062,-867.676,0.000
1606132232.982,-64.453,-27.832,-24.414,-208.496,0.000
1606132232.986,289.062,-7.324,-6.348,674.316,0.000
1606132232.990,237.793,-13.672,-15.137,644.043,0.000
1606132232.994,-170.898,-45.898,-41.992,-306.641,0.000
1606132232.998,-378.418,-62.012,-49.805,-886.719,0.000
1606132233.002,-119.141,-43.945,-26.855,-336.914,0.000
1606132233.006,252.441,-18.555,-4.395,599.121,0.000
1606132233.010,270.020,-13.184,-8.789,720.703,0.000
1606132233.014,-124.512,-35.156,-30.762,-179.199,0.000
1606132233.018,-397.461,-55.176,-42.969,-861.816,0.000
1606132233.021,-180.664,-39.062,-26.367,-450.195,0.000
1606132233.025,219.238,-17.090,-8.301,510.742,0.000
1606132233.029,280.273,-21.973,-10.254,765.625,0.000
1606132233.033,-91.797,-45.410,-28.320,-71.289,0.000
1606132233.037,-384.277,-61.523,-40.039,-843.262,0.000
1606132233.041,-229.980,-46.875,-27.344,-570.312,0.000
1606132233.045,178.711,-21.484,0.488,411.621,0.000
1606132233.049,305.664,-19.043,5.371,806.152,0.000
1606132233.053,-31.250,-43.945,-21.484,64.453,0.000
1606132233.057,-362.793,-56.641,-40.039,-781.738,0.000
1606132233.060,-269.531,-42.969,-28.809,-661.133,0.000
1606132233.064,146.484,-14.160,-12.695,313.477,0.000
1606132233.068,317.383,-0.977,-12.207,828.613,0.000
1606132233.072,23.926,-22.949,-21.973,200.195,0.000
1606132233.076,-327.637,-48.828,-37.109,-695.801,0.000
1606132233.080,-299.316,-52.246,-37.109,-727.051,0.000
1606132233.084,104.980,-25.879,-8.789,202.637,0.000
1606132233.088,330.566,-12.207,0.977,820.801,0.000
1606132233.092,85.449,-27.344,-28.809,322.754,0.000
1606132233.096,-297.363,-51.270,-50.293,-621.582,0.000
1606132233.100,-331.055,-51.270,-46.875,-794.922,0.000
1606132233.103,59.082,-14.160,-23.438,94.238,0.000
1606132233.107,334.473,3.906,-3.418,809.570,0.000
1606132233.111,143.066,-12.695,-9.277,439.453,0.000
1606132233.115,-255.371,-40.039,-35.645,-530.762,0.000
1606132233.119,-343.750,-47.363,-45.898,-840.332,0.000
1606132233.123,9.277,-26.367,-18.066,-42.969,0.000
1606132233.127,314.453,-10.742,-2.930,749.512,0.000
1606132233.131,181.152,-18.066,-21.973,527.832,0.000
1606132233.135,-223.145,-49.316,-44.922,-437.012,0.000
1606132233.139,-357.422,-61.035,-48.340,-861.816,0.000
1606132233.143,-36.133,-32.227,-24.414,-165.039,0.000
1606132233.146,297.852,-10.742,-8.301,696.777,0.000
1606132233.150,219.238,-14.648,-19.043,619.629,0.000
1606132233.154,-191.406,-42.480,-37.109,-339.844,0.000
1606132233.158,-383.301,-57.617,-39.062,-886.230,0.000
1606132233.162,-111.328,-41.504,-24.414,-303.711,0.000
1606132233.166,253.418,-12.207,-14.160,618.652,0.000
1606132233.170,242.188,-6.836,-20.508,692.383,0.000
1606132233.174,-150.879,-35.156,-35.645,-224.609,0.000
1606132233.178,-379.395,-57.617,-44.434,-866.211,0.000
1606132233.182,-154.785,-40.527,-36.133,-411.133,0.000
1606132233.185,236.816,-6.836,-13.672,539.551,0.000
1606132233.189,287.109,-3.906,-11.719,748.047,0.000
1606132233.193,-105.957,-33.203,-36.133,-113.281,0.000
1606132233.197,-389.160,-49.805,-46.875,-848.633,0.000
1606132233.201,-213.867,-40.039,-30.762,-531.738,0.000
1606132233.205,187.012,-15.625,-7.812,437.500,0.000
1606132233.209,298.340,0.488,-4.883,791.992,0.000
1606132233.213,-44.434,-23.926,-34.668,25.879,0.000
1606132233.217,-357.910,-50.781,-48.340,-792.969,0.000
1606132233.221,-249.512,-43.945,-35.645,-620.117,0.000
1606132233.225,158.203,-15.137,-20.996,346.680,0.000
1606132233.228,318.359,-0.488,-19.043,809.570,0.000
1606132233.232,4.395,-21.973,-33.203,143.066,0.000
1606132233.236,-338.379,-45.898,-51.270,-734.375,0.000
1606132233.240,-291.504,-43.457,-45.410,-712.402,0.000
1606132233.244,113.281,-9.766,-17.578,235.840,0.000
1606132233.248,330.078,11.230,-8.301,824.707,0.000
1606132233.252,70.312,-13.184,-13.184,290.039,0.000
1606132233.256,-306.152,-37.598,-32.227,-633.301,0.000
1606132233.260,-318.359,-37.598,-44.922,-764.648,0.000
1606132233.264,73.242,-19.531,-21.973,128.906,0.000
1606132233.268,325.684,-8.301,-12.695,796.875,0.000
1606132233.271,112.793,-24.414,-27.344,379.395,0.000
1606132233.275,-272.949,-38.086,-41.992,-562.988,0.000
1606132233.279,-336.914,-35.645,-40.527,-814.453,0.000
1606132233.283,24.414,-18.066,-25.391,15.137,0.000
1606132233.287,313.965,0.977,-16.602,772.949,0.000
1606132233.291,164.062,-10.742,-26.855,501.953,0.000
1606132233.295,-238.281,-36.621,-39.551,-461.426,0.000
1606132233.299,-365.723,-45.410,-43.945,-853.516,0.000
1606132233.303,-22.461,-23.926,-26.367,-110.352,0.000
1606132233.307,313.965,-2.930,-8.301,734.375,0.000
1606132233.310,220.215,-10.742,-19.043,602.539,0.000
1606132233.314,-190.430,-35.156,-39.062,-356.445,0.000
1606132233.318,-362.793,-45.898,-45.410,-859.375,0.000
1606132233.322,-68.359,-20.508,-29.785,-236.816,0.000
1606132233.326,285.156,0.000,-7.812,652.832,0.000
1606132233.330,247.559,-11.230,-14.648,673.340,0.000
1606132233.334,-160.156,-37.109,-43.945,-256.836,0.000
1606132233.338,-382.324,-51.270,-52.734,-867.188,0.000
1606132233.342,-137.207,-41.504,-35.156,-368.652,0.000
1606132233.346,241.211,-16.602,-15.137,561.523,0.000
1606132233.350,266.602,-11.719,-16.113,721.680,0.000
1606132233.353,-121.094,-34.668,-32.227,-146.973,0.000
1606132233.357,-389.160,-52.734,-36.133,-843.750,0.000
1606132233.361,-193.848,-41.016,-23.438,-481.445,0.000
1606132233.365,200.195,-14.160,-8.301,470.215,0.000
1606132233.369,282.227,-10.254,-8.789,766.602,0.000
1606132233.373,-76.660,-32.715,-33.691,-33.691,0.000
1606132233.377,-383.301,-58.105,-52.734,-820.312,0.000
1606132233.381,-246.582,-46.875,-44.434,-594.238,0.000
1606132233.385,161.621,-15.137,-18.066,378.906,0.000
1606132233.389,301.758,-13.184,-7.324,804.199,0.000
1606132233.393,-16.602,-36.133,-34.668,99.121,0.000
1606132233.396,-353.516,-52.246,-53.223,-757.324,0.000
1606132233.400,-269.043,-47.363,-42.480,-673.340,0.000
1606132233.404,140.625,-22.461,-25.391,288.086,0.000
1606132233.408,325.195,-4.883,-13.672,823.242,0.000
1606132233.412,41.504,-25.391,-29.297,230.957,0.000
1606132233.416,-321.777,-49.805,-46.387,-670.410,0.000
1606132233.420,-301.270,-50.781,-35.645,-737.305,0.000
1606132233.424,96.680,-24.902,-17.090,178.223,0.000
1606132233.428,333.984,-8.789,-13.184,815.430,0.000
1606132233.432,108.887,-26.855,-23.438,360.352,0.000
1606132233.435,-278.320,-50.781,-41.992,-584.961,0.000
1606132233.439,-333.008,-54.199,-42.969,-805.664,0.000
1606132233.443,44.434,-24.902,-21.484,66.895,0.000
1606132233.447,321.289,1.953,-8.789,805.176,0.000
1606132233.451,139.160,-13.672,-24.902,463.867,0.000
1606132233.455,-253.418,-39.551,-38.574,-508.789,0.000
1606132233.459,-354.980,-42.969,-41.504,-854.980,0.000
1606132233.463,-11.719,-25.879,-32.715,-83.984,0.000
1606132233.467,310.547,-8.789,-15.137,728.027,0.000
1606132233.471,192.871,-15.625,-16.602,549.805,0.000
1606132233.475,-217.773,-47.852,-34.180,-405.762,0.000
1606132233.478,-377.930,-62.500,-42.480,-868.164,0.000
1606132233.482,-69.336,-38.574,-26.367,-201.172,0.000
1606132233.486,281.738,-14.648,-12.207,681.152,0.000
1606132233.490,229.004,-10.742,-15.625,649.902,0.000
1606132233.494,-173.340,-37.109,-31.738,-287.109,0.000
1606132233.498,-379.395,-52.734,-47.852,-864.746,0.000
1606132233.502,-117.676,-32.227,-33.203,-321.777,0.000
1606132233.506,255.371,-4.883,-8.301,604.980,0.000
1606132233.510,265.625,2.930,-14.648,712.402,0.000
1606132233.514,-129.883,-23.438,-40.039,-191.406,0.000
1606132233.518,-388.184,-49.805,-51.270,-868.652,0.000
1606132233.521,-178.223,-40.527,-32.227,-459.473,0.000
1606132233.525,212.402,-17.090,-18.555,500.000,0.000
1606132233.529,278.320,-15.137,-24.414,753.418,0.000
1606132233.533,-87.402,-37.109,-37.109,-76.660,0.000
1606132233.537,-371.094,-45.898,-47.852,-824.219,0.000
1606132233.541,-210.938,-34.180,-43.945,-542.480,0.000
1606132233.545,192.871,-8.789,-22.461,427.734,0.000
1606132233.549,311.523,-0.977,-13.672,806.641,0.000
1606132233.553,-23.438,-27.344,-30.762,62.500,0.000
1606132233.557,-349.609,-41.504,-44.434,-769.531,0.000
1606132233.560,-259.277,-31.250,-43.945,-635.742,0.000
1606132233.564,147.461,-7.812,-24.902,326.172,0.000
1606132233.568,323.242,4.395,-7.812,825.195,0.000
1606132233.572,24.414,-14.160,-23.926,194.824,0.000
1606132233.576,-329.590,-40.527,-42.969,-700.684,0.000
1606132233.580,-295.898,-44.434,-41.016,-726.562,0.000
1606132233.584,96.191,-16.113,-24.414,207.031,0.000
1606132233.588,316.406,-2.441,-11.719,820.801,0.000
1606132233.592,71.777,-29.785,-21.973,314.941,0.000
1606132233.596,-310.547,-55.176,-45.410,-621.094,0.000
1606132233.600,-342.285,-52.734,-49.805,-789.062,0.000
1606132233.603,45.410,-26.367,-29.297,90.820,0.000
1606132233.607,323.730,-4.395,-15.137,801.270,0.000
1606132233.611,133.301,-19.043,-22.461,425.781,0.000
1606132233.615,-271.484,-49.316,-37.109,-541.992,0.000
1606132233.619,-360.352,-55.176,-43.457,-835.449,0.000
1606132233.623,3.906,-28.809,-30.273,-29.785,0.000
1606132233.627,310.059,-6.836,-12.207,749.512,0.000
1606132233.631,172.363,-14.160,-17.090,523.438,0.000
1606132233.635,-233.398,-40.039,-46.387,-438.965,0.000
1606132233.639,-376.953,-51.270,-55.664,-865.234,0.000
1606132233.643,-43.457,-32.715,-31.250,-149.414,0.000
1606132233.646,308.105,-5.371,-14.160,705.078,0.000
1606132233.650,220.703,-3.906,-15.137,604.492,0.000
1606132233.654,-196.777,-36.133,-39.062,-355.957,0.000
1606132233.658,-378.906,-48.340,-48.828,-884.277,0.000
1606132233.662,-100.586,-33.691,-24.902,-286.621,0.000
1606132233.666,260.254,-7.812,-12.207,612.793,0.000
1606132233.670,244.629,-6.348,-19.043,666.016,0.000
1606132233.674,-153.809,-41.504,-37.109,-250.000,0.000
1606132233.678,-386.230,-57.617,-53.711,-885.742,0.000
1606132233.682,-161.133,-45.898,-41.016,-422.363,0.000
1606132233.685,222.656,-19.043,-14.160,525.879,0.000
1606132233.689,271.484,-9.766,-10.742,734.375,0.000
1606132233.693,-103.516,-31.738,-32.715,-123.047,0.000
1606132233.697,-386.230,-48.828,-45.410,-849.121,0.000
1606132233.701,-210.938,-36.621,-28.320,-514.160,0.000
1606132233.705,200.195,-8.301,-7.812,456.543,0.000
1606132233.709,300.781,-3.906,-8.789,787.598,0.000
1606132233.713,-56.641,-28.320,-32.227,9.766,0.000
1606132233.717,-372.559,-46.875,-43.945,-796.387,0.000
1606132233.721,-247.070,-38.574,-31.738,-609.375,0.000
1606132233.725,159.180,-17.578,-17.090,355.957,0.000
1606132233.728,320.801,-6.836,-13.672,805.176,0.000
1606132233.732,11.230,-26.367,-33.203,130.859,0.000
1606132233.736,-351.074,-45.898,-49.805,-740.723,0.000
1606132233.740,-288.574,-36.133,-42.969,-702.637,0.000
1606132233.744,114.258,-17.578,-25.879,243.164,0.000
1606132233.748,310.547,-12.207,-9.766,811.523,0.000
1606132233.752,53.223,-24.414,-24.414,259.277,0.000
1606132233.756,-319.336,-51.758,-50.293,-665.527,0.000
1606132233.760,-326.660,-53.711,-45.898,-767.090,0.000
1606132233.764,68.848,-22.461,-23.926,139.648,0.000
1606132233.768,328.125,-9.277,-12.695,798.828,0.000
1606132233.771,120.117,-24.902,-28.320,380.371,0.000
1606132233.775,-282.227,-53.223,-50.293,-569.336,0.000
1606132233.779,-353.516,-57.129,-42.969,-822.266,0.000
1606132233.783,14.160,-29.785,-17.090,13.672,0.000
1606132233.787,302.734,-8.789,-7.324,764.160,0.000
1606132233.791,151.855,-14.648,-20.996,481.934,0.000
1606132233.795,-248.535,-38.574,-36.133,-474.609,0.000
1606132233.799,-367.188,-41.504,-37.109,-851.562,0.000
1606132233.803,-21.484,-18.555,-14.160,-103.027,0.000
1606132233.807,302.734,-0.488,0.000,727.539,0.000
1606132233.810,200.684,-4.395,-13.184,583.496,0.000
1606132233.814,-210.449,-34.180,-31.250,-374.512,0.000
1606132233.818,-383.301,-50.781,-38.086,-870.117,0.000
1606132233.822,-85.449,-24.902,-31.250,-236.816,0.000
1606132233.826,271.484,-3.418,-12.695,651.855,0.000
1606132233.830,229.004,-17.578,-18.066,646.484,0.000
1606132233.834,-171.875,-43.945,-39.551,-291.504,0.000
1606132233.838,-381.836,-58.594,-50.781,-880.859,0.000
1606132233.842,-131.348,-41.016,-37.598,-362.305,0.000
1606132233.846,241.211,-15.137,-16.602,570.801,0.000
1606132233.850,259.766,-13.184,-17.578,717.773,0.000
1606132233.853,-130.859,-36.621,-35.645,-166.016,0.000
1606132233.857,-388.672,-50.781,-39.551,-859.863,0.000
1606132233.861,-189.941,-32.227,-28.809,-476.074,0.000
1606132233.865,208.008,-11.719,-18.555,483.398,0.000
1606132233.869,288.086,-12.695,-20.508,763.672,0.000
1606132233.873,-79.102,-27.832,-38.086,-54.199,0.000
1606132233.877,-373.535,-34.668,-48.828,-831.055,0.000
1606132233.881,-238.281,-36.133,-36.621,-592.773,0.000
1606132233.885,165.039,-18.555,-15.137,378.906,0.000
1606132233.889,311.523,-3.418,-12.695,802.246,0.000
1606132233.893,-8.301,-22.461,-32.227,81.543,0.000
1606132233.896,-344.727,-41.016,-44.922,-773.926,0.000
1606132233.900,-261.230,-31.738,-38.574,-665.527,0.000
1606132233.904,145.996,-5.371,-20.508,295.410,0.000
1606132233.908,324.219,0.000,-12.207,808.594,0.000
1606132233.912,39.062,-19.043,-21.484,209.961,0.000
1606132233.916,-320.801,-35.156,-43.457,-687.988,0.000
1606132233.920,-302.246,-38.086,-39.062,-735.840,0.000
1606132233.924,92.285,-23.438,-18.555,181.641,0.000
1606132233.928,329.590,-8.789,-14.160,806.641,0.000
1606132233.932,104.004,-24.414,-23.926,344.727,0.000
1606132233.935,-282.715,-49.805,-49.805,-599.609,0.000
1606132233.939,-323.242,-45.898,-52.246,-797.852,0.000
1606132233.943,58.105,-24.902,-26.855,66.895,0.000
1606132233.947,329.590,-6.348,-13.184,783.691,0.000
1606132233.951,145.020,-18.066,-25.391,438.965,0.000
1606132233.955,-263.672,-47.852,-44.434,-532.715,0.000
1606132233.959,-365.723,-55.664,-45.410,-858.887,0.000
1606132233.963,-13.184,-27.344,-23.926,-69.336,0.000
1606132233.967,295.898,-8.301,-9.277,726.074,0.000
1606132233.971,173.828,-24.902,-16.113,526.855,0.000
1606132233.975,-231.445,-55.176,-38.086,-437.500,0.000
1606132233.978,-379.395,-57.617,-48.340,-888.672,0.000
1606132233.982,-59.570,-25.391,-27.832,-206.055,0.000
1606132233.986,289.551,-2.441,-3.418,669.922,0.000
1606132233.990,231.934,-9.766,-6.348,625.488,0.000
1606132233.994,-170.410,-37.598,-30.273,-319.824,0.000
1606132233.998,-379.883,-53.711,-47.363,-876.953,0.000
1606132234.002,-126.953,-36.133,-28.320,-317.871,0.000
1606132234.006,242.676,-9.277,-1.953,606.445,0.000
1606132234.010,252.441,-1.953,-2.930,720.215,0.000
1606132234.014,-141.113,-32.227,-24.414,-188.965,0.000
1606132234.018,-383.789,-61.523,-34.180,-854.004,0.000
1606132234.021,-166.504,-38.574,-21.973,-425.293,0.000
1606132234.025,217.285,-7.812,-7.812,516.602,0.000
1606132234.029,275.879,-3.906,-7.324,751.465,0.000
1606132234.033,-101.074,-30.762,-26.367,-94.238,0.000
1606132234.037,-391.602,-54.199,-38.086,-841.797,0.000
1606132234.041,-228.027,-40.039,-24.414,-544.922,0.000
1606132234.045,180.664,-5.859,-7.324,424.805,0.000
1606132234.049,294.922,-1.953,-8.789,788.086,0.000
1606132234.053,-44.922,-30.273,-24.902,39.551,0.000
1606132234.057,-356.934,-57.129,-38.086,-776.367,0.000
1606132234.060,-255.859,-49.316,-30.273,-637.207,0.000
1606132234.064,143.066,-17.090,-10.254,318.848,0.000
1606132234.068,316.895,-7.324,-6.836,805.176,0.000
1606132234.072,24.902,-25.879,-20.020,166.016,0.000
1606132234.076,-330.078,-45.410,-35.156,-714.844,0.000
1606132234.080,-291.016,-40.039,-33.203,-716.797,0.000
1606132234.084,100.586,-20.020,-18.555,209.961,0.000
1606132234.088,309.570,-9.766,-14.648,800.781,0.000
1606132234.092,69.336,-28.320,-24.414,289.062,0.000
1606132234.096,-303.223,-51.270,-39.551,-637.207,0.000
1606132234.100,-322.266,-44.434,-39.551,-782.227,0.000
1606132234.103,68.848,-14.648,-20.996,112.305,0.000
1606132234.107,324.707,-1.465,-8.301,804.688,0.000
1606132234.111,127.441,-12.207,-16.602,414.062,0.000
1606132234.115,-266.602,-41.504,-34.180,-538.574,0.000
1606132234.119,-351.074,-50.293,-40.527,-820.801,0.000
1606132234.123,8.301,-23.438,-27.344,-20.508,0.000
1606132234.127,309.082,-2.930,-13.184,756.836,0.000
1606132234.131,163.086,-12.695,-21.973,517.578,0.000
1606132234.135,-239.746,-39.551,-41.504,-447.266,0.000
1606132234.139,-369.629,-46.387,-44.922,-854.980,0.000
1606132234.143,-42.969,-21.484,-28.320,-139.648,0.000
1606132234.146,293.457,1.953,-11.230,702.148,0.000
1606132234.150,215.332,-4.395,-16.602,602.051,0.000
1606132234.154,-192.383,-39.551,-38.574,-352.539,0.000
1606132234.158,-376.465,-61.523,-47.363,-876.465,0.000
1606132234.162,-89.355,-39.551,-39.062,-271.973,0.000
1606132234.166,267.578,-6.348,-21.484,634.277,0.000
1606132234.170,245.117,-9.277,-17.090,677.734,0.000
1606132234.174,-148.926,-36.621,-40.527,-244.629,0.000
1606132234.178,-373.535,-43.457,-50.293,-866.699,0.000
1606132234.182,-136.719,-29.297,-30.273,-391.113,0.000
1606132234.185,240.234,-12.207,-12.207,539.551,0.000
1606132234.189,278.809,-10.742,-14.648,724.121,0.000
1606132234.193,-97.656,-27.344,-33.203,-135.254,0.000
1606132234.197,-369.141,-39.062,-45.410,-845.703,0.000
1606132234.201,-188.965,-33.203,-34.668,-503.906,0.000
1606132234.205,208.496,-12.207,-14.160,457.031,0.000
1606132234.209,296.875,-10.254,-12.207,774.902,0.000
1606132234.213,-58.594,-36.133,-28.809,-8.789,0.000
1606132234.217,-369.629,-49.316,-41.016,-807.617,0.000
1606132234.221,-250.977,-41.016,-28.809,-608.887,0.000
1606132234.225,161.621,-18.066,-16.602,355.957,0.000
1606132234.228,311.035,-8.789,-20.996,791.992,0.000
1606132234.232,-8.789,-33.203,-38.574,109.375,0.000
1606132234.236,-347.656,-59.570,-56.641,-750.488,0.000
1606132234.240,-283.203,-52.734,-47.852,-693.359,0.000
1606132234.244,122.559,-22.949,-21.973,257.812,0.000
1606132234.248,327.148,-13.184,-10.742,812.500,0.000
1606132234.252,53.711,-31.250,-24.902,249.023,0.000
1606132234.256,-323.242,-61.035,-45.410,-660.645,0.000
1606132234.260,-326.660,-65.430,-43.945,-750.977,0.000
1606132234.264,64.941,-34.180,-26.367,149.902,0.000
1606132234.268,312.988,-14.648,-15.625,795.410,0.000
1606132234.271,98.633,-26.855,-27.344,362.305,0.000
1606132234.275,-290.527,-51.758,-45.410,-573.730,0.000
1606132234.279,-348.633,-50.781,-43.457,-803.711,0.000
1606132234.283,29.785,-26.855,-20.508,37.109,0.000
1606132234.287,319.824,-5.859,-3.418,782.227,0.000
1606132234.291,153.809,-12.695,-11.719,488.281,0.000
1606132234.295,-249.512,-52.734,-39.062,-477.539,0.000
1606132234.299,-361.816,-69.824,-41.992,-847.168,0.000
1606132234.303,-15.137,-33.691,-17.090,-97.168,0.000
1606132234.307,320.312,0.488,5.859,733.887,0.000
1606132234.310,216.797,-6.836,-1.465,581.055,0.000
1606132234.314,-198.730,-41.504,-35.156,-385.742,0.000
1606132234.318,-365.723,-51.270,-40.039,-865.234,0.000
1606132234.322,-64.941,-32.227,-21.973,-216.797,0.000
1606132234.326,284.180,-9.766,-7.812,665.527,0.000
1606132234.330,243.164,-10.254,-12.695,659.180,0.000
1606132234.334,-163.086,-37.598,-36.621,-268.555,0.000
1606132234.338,-381.348,-50.293,-46.387,-862.793,0.000
1606132234.342,-125.977,-34.180,-33.691,-352.051,0.000
1606132234.346,248.047,-11.719,-17.090,572.754,0.000
1606132234.350,260.254,-8.789,-15.625,706.543,0.000
1606132234.353,-129.883,-30.762,-37.598,-181.152,0.000
1606132234.357,-386.719,-47.852,-42.969,-857.910,0.000
1606132234.361,-183.594,-33.203,-29.785,-463.867,0.000
1606132234.365,215.820,-6.348,-19.531,488.281,0.000
1606132234.369,288.086,-3.906,-16.602,768.555,0.000
1606132234.373,-81.543,-28.809,-31.250,-44.922,0.000
1606132234.377,-376.953,-48.340,-45.898,-820.312,0.000
1606132234.381,-227.051,-39.551,-36.133,-571.289,0.000
1606132234.385,179.688,-9.766,-13.184,392.578,0.000
1606132234.389,308.105,-0.488,-13.184,793.457,0.000
1606132234.393,-20.508,-29.785,-33.203,67.383,0.000
1606132234.396,-355.469,-48.828,-46.387,-771.973,0.000
1606132234.400,-274.902,-45.898,-41.504,-658.691,0.000
1606132234.404,128.418,-26.855,-19.531,293.945,0.000
1606132234.408,306.152,-11.230,-17.578,804.688,0.000
1606132234.412,22.949,-24.414,-29.297,203.613,0.000
1606132234.416,-334.473,-48.340,-45.410,-689.453,0.000
1606132234.420,-305.176,-44.922,-45.898,-730.957,0.000
1606132234.424,96.680,-19.043,-22.461,192.383,0.000
1606132234.428,322.754,-5.371,-8.301,811.035,0.000
1606132234.432,92.285,-13.672,-24.902,332.520,0.000
1606132234.435,-287.109,-47.363,-44.922,-606.934,0.000
1606132234.439,-329.102,-61.523,-47.363,-797.852,0.000
1606132234.443,51.758,-32.715,-27.832,67.871,0.000
1606132234.447,324.707,-9.277,-8.301,783.691,0.000
1606132234.451,147.949,-11.230,-17.090,444.824,0.000
1606132234.455,-248.047,-34.180,-37.109,-508.789,0.000
1606132234.459,-344.238,-45.898,-45.898,-828.125,0.000
1606132234.463,10.254,-23.926,-28.809,-43.945,0.000
1606132234.467,317.383,0.977,-11.719,749.023,0.000
1606132234.471,193.359,-8.789,-19.043,544.922,0.000
1606132234.475,-211.426,-44.434,-39.062,-415.039,0.000
1606132234.478,-360.840,-50.781,-38.086,-857.910,0.000
1606132234.482,-33.203,-26.367,-21.973,-155.273,0.000
1606132234.486,306.152,-8.301,-15.625,705.566,0.000
1606132234.490,225.586,-9.766,-20.996,613.281,0.000
1606132234.494,-175.293,-36.621,-38.574,-327.637,0.000
1606132234.498,-372.070,-60.059,-49.316,-872.559,0.000
1606132234.502,-107.910,-41.016,-35.645,-304.199,0.000
1606132234.506,259.277,-6.348,-12.207,615.723,0.000
1606132234.510,254.395,-1.465,-13.184,703.613,0.000
1606132234.514,-143.066,-31.738,-39.062,-209.961,0.000
1606132234.518,-386.719,-52.246,-53.223,-864.258,0.000
1606132234.521,-163.574,-32.715,-39.062,-420.410,0.000
1606132234.525,231.934,-3.418,-14.160,530.273,0.000
1606132234.529,281.738,-1.953,-5.859,752.441,0.000
1606132234.533,-96.680,-27.344,-29.297,-99.121,0.000
1606132234.537,-374.512,-46.875,-43.945,-838.867,0.000
1606132234.541,-206.543,-43.457,-35.156,-531.738,0.000
1606132234.545,187.988,-22.949,-20.020,429.688,0.000
1606132234.549,299.316,-10.254,-15.137,797.363,0.000
1606132234.553,-39.062,-31.738,-31.250,38.574,0.000
1606132234.557,-358.398,-52.246,-44.922,-781.738,0.000
1606132234.560,-247.070,-38.086,-38.574,-612.793,0.000
1606132234.564,163.086,-9.766,-20.020,346.191,0.000
1606132234.568,325.195,1.953,-1.953,817.383,0.000
1606132234.572,19.531,-16.602,-16.602,174.316,0.000
1606132234.576,-330.078,-41.016,-37.598,-705.078,0.000
1606132234.580,-286.133,-36.133,-36.133,-704.590,0.000
1606132234.584,105.469,-11.230,-19.531,226.562,0.000
1606132234.588,322.266,0.488,-2.441,814.941,0.000
1606132234.592,75.195,-19.043,-19.043,291.016,0.000
1606132234.596,-312.500,-44.434,-44.434,-647.949,0.000
1606132234.600,-311.523,-38.574,-41.016,-739.258,0.000
