timestamps,TP9,AF7,AF8,TP10,Right AUX
1606138872.265,0.000,0.000,0.000,0.000,0.000
1606138872.269,-0.488,0.000,-0.488,-0.977,0.000
1606138872.273,-2.441,-1.465,-1.465,-6.836,0.000
1606138872.277,8.301,2.441,2.441,25.391,0.000
1606138872.281,-38.086,-14.160,-14.648,-112.793,0.000
1606138872.285,-47.852,-31.250,-34.180,-143.066,0.000
1606138872.289,48.828,-21.973,-27.832,177.734,0.000
1606138872.293,44.922,-25.391,-28.809,221.191,0.000
1606138872.297,-56.152,-33.691,-32.715,-81.543,0.000
1606138872.301,-109.375,-35.156,-31.250,-301.758,0.000
1606138872.304,-60.547,-32.227,-31.738,-166.504,0.000
1606138872.308,23.438,-25.879,-28.809,154.785,0.000
1606138872.312,28.320,-19.043,-24.414,227.051,0.000
1606138872.316,-57.129,-24.902,-31.250,-41.016,0.000
1606138872.320,-110.840,-29.785,-29.297,-280.762,0.000
1606138872.324,-69.336,-27.344,-20.996,-189.453,0.000
1606138872.328,13.184,-25.879,-22.461,128.906,0.000
1606138872.332,34.668,-20.996,-28.320,247.559,0.000
1606138872.336,-31.250,-26.855,-33.203,17.578,0.000
1606138872.340,-104.492,-37.598,-39.062,-269.531,0.000
1606138872.344,-89.355,-33.203,-38.574,-245.605,0.000
1606138872.347,-1.953,-27.832,-31.250,78.613,0.000
1606138872.351,34.180,-24.414,-29.297,247.070,0.000
1606138872.355,-31.738,-25.391,-32.715,47.852,0.000
1606138872.359,-117.188,-32.715,-33.691,-259.277,0.000
1606138872.363,-109.863,-30.762,-31.738,-272.461,0.000
1606138872.367,-8.789,-21.484,-24.902,48.340,0.000
1606138872.371,43.457,-22.949,-25.391,251.465,0.000
1606138872.375,-20.020,-38.086,-32.715,78.125,0.000
1606138872.379,-108.887,-39.062,-47.363,-245.117,0.000
1606138872.383,-102.051,3.906,-42.480,-284.180,0.000
1606138872.387,-16.113,19.531,-29.297,1.465,0.000
1606138872.390,37.109,-16.602,-30.273,222.168,0.000
1606138872.394,-4.883,-33.203,-24.902,119.141,0.000
1606138872.398,-98.633,-39.551,-26.855,-202.148,0.000
1606138872.402,-116.699,-43.945,-34.180,-316.406,0.000
1606138872.406,-35.156,-44.434,-27.832,-61.523,0.000
1606138872.410,35.645,-40.527,-24.902,215.332,0.000
1606138872.414,6.348,-30.762,-28.320,158.203,0.000
1606138872.418,-89.355,-33.203,-27.832,-167.969,0.000
1606138872.422,-116.699,-34.668,-32.227,-313.477,0.000
1606138872.426,-43.457,-32.715,-28.809,-87.891,0.000
1606138872.429,35.645,-11.230,-20.508,215.332,0.000
1606138872.433,25.391,-10.254,-25.391,201.660,0.000
1606138872.437,-66.406,-43.457,-38.574,-117.676,0.000
1606138872.441,-108.398,-47.852,-40.039,-304.688,0.000
1606138872.445,-42.969,-44.434,-35.645,-128.906,0.000
1606138872.449,43.457,-38.574,-38.574,189.453,0.000
1606138872.453,40.039,-32.227,-35.156,229.492,0.000
1606138872.457,-47.852,-37.109,-32.715,-62.012,0.000
1606138872.461,-101.562,-41.992,-35.156,-288.086,0.000
1606138872.465,-54.688,-38.086,-33.203,-167.480,0.000
1606138872.469,27.832,-35.156,-26.855,158.691,0.000
1606138872.472,38.574,-34.180,-23.926,247.559,0.000
1606138872.476,-41.504,-38.086,-30.273,-18.066,0.000
1606138872.480,-111.816,-30.273,-33.203,-281.250,0.000
1606138872.484,-81.543,-20.020,-31.250,-211.426,0.000
1606138872.488,7.812,-35.156,-30.762,107.910,0.000
1606138872.492,35.156,-34.668,-30.273,233.887,0.000
1606138872.496,-36.621,-28.320,-30.762,5.859,0.000
1606138872.500,-104.492,-30.273,-31.738,-268.066,0.000
1606138872.504,-74.707,-24.414,-28.809,-230.957,0.000
1606138872.508,10.254,-27.344,-34.180,77.637,0.000
1606138872.512,38.086,-37.109,-40.039,232.910,0.000
1606138872.515,-23.926,-29.297,-32.227,42.480,0.000
1606138872.519,-99.609,-25.879,-30.273,-250.488,0.000
1606138872.523,-86.426,-26.367,-38.086,-257.812,0.000
1606138872.527,-5.859,-29.785,-38.086,31.250,0.000
1606138872.531,41.992,-20.996,-31.250,231.445,0.000
1606138872.535,-5.371,-21.484,-36.621,83.496,0.000
1606138872.539,-97.656,-38.086,-43.457,-238.281,0.000
1606138872.543,-100.098,-38.086,-32.227,-291.016,0.000
1606138872.547,-5.859,-26.855,-22.461,-3.418,0.000
1606138872.551,44.434,-17.578,-27.832,227.539,0.000
1606138872.554,-11.230,-22.949,-31.250,119.141,0.000
1606138872.558,-97.168,-33.203,-29.785,-204.590,0.000
1606138872.562,-125.488,-43.945,-33.203,-316.895,0.000
1606138872.566,-49.316,-42.480,-35.156,-50.293,0.000
1606138872.570,35.156,-33.691,-24.414,243.164,0.000
1606138872.574,14.160,-29.297,-23.926,180.176,0.000
1606138872.578,-75.195,-36.621,-34.668,-145.996,0.000
1606138872.582,-109.375,-32.715,-36.621,-303.711,0.000
1606138872.586,-40.039,-18.555,-26.855,-95.215,0.000
1606138872.590,42.969,-24.902,-20.508,202.637,0.000
1606138872.594,32.715,-28.320,-20.996,198.730,0.000
1606138872.597,-64.453,-36.133,-31.250,-122.559,0.000
1606138872.601,-106.445,-39.551,-34.180,-308.594,0.000
1606138872.605,-41.504,-34.668,-23.926,-127.930,0.000
1606138872.609,40.527,-31.250,-24.414,182.617,0.000
1606138872.613,41.992,-25.879,-34.668,228.027,0.000
1606138872.617,-37.109,-31.738,-37.598,-59.570,0.000
1606138872.621,-90.332,-40.039,-26.855,-291.504,0.000
1606138872.625,-47.363,-38.086,-26.367,-179.199,0.000
1606138872.629,35.156,-20.996,-30.762,148.926,0.000
1606138872.633,42.969,-0.977,-29.297,245.117,0.000
1606138872.637,-43.945,-21.484,-33.203,-27.832,0.000
1606138872.640,-114.258,-40.527,-36.621,-289.551,0.000
1606138872.644,-74.707,-40.527,-27.832,-214.355,0.000
1606138872.648,21.484,-33.203,-17.090,109.863,0.000
1606138872.652,43.945,-26.855,-28.320,239.258,0.000
1606138872.656,-27.344,-26.367,-36.133,13.184,0.000
1606138872.660,-103.027,-24.414,-34.180,-267.090,0.000
1606138872.664,-86.914,-25.391,-36.133,-239.258,0.000
1606138872.668,3.906,-27.344,-31.738,79.102,0.000
1606138872.672,39.551,-32.227,-26.367,244.629,0.000
1606138872.676,-29.297,-29.785,-27.832,50.781,0.000
1606138872.679,-109.863,-28.809,-33.691,-251.465,0.000
1606138872.683,-101.074,-37.109,-40.039,-271.973,0.000
1606138872.687,-8.789,-34.668,-25.391,35.156,0.000
1606138872.691,40.039,-0.488,-19.043,243.164,0.000
1606138872.695,-19.043,9.277,-31.250,86.914,0.000
1606138872.699,-103.516,-29.297,-34.668,-229.004,0.000
1606138872.703,-111.328,-41.016,-41.016,-299.805,0.000
1606138872.707,-32.227,-40.039,-38.086,-32.227,0.000
1606138872.711,29.785,-33.691,-31.250,211.914,0.000
1606138872.715,-7.324,-34.180,-32.227,116.211,0.000
1606138872.719,-91.309,-42.480,-37.109,-203.125,0.000
1606138872.722,-108.887,-38.574,-35.645,-308.105,0.000
1606138872.726,-39.062,-29.785,-33.691,-63.965,0.000
1606138872.730,34.180,-21.973,-24.414,199.707,0.000
1606138872.734,16.113,-27.344,-22.949,151.855,0.000
1606138872.738,-72.266,-34.180,-32.715,-159.668,0.000
1606138872.742,-98.633,-33.691,-31.250,-295.898,0.000
1606138872.746,-29.297,-34.668,-26.367,-84.961,0.000
1606138872.750,43.457,-33.691,-20.996,198.242,0.000
1606138872.754,29.297,-32.227,-22.949,189.453,0.000
1606138872.758,-54.688,-34.668,-28.320,-106.445,0.000
1606138872.762,-102.539,-41.016,-37.598,-291.992,0.000
1606138872.765,-44.922,-42.480,-29.297,-131.836,0.000
1606138872.769,38.086,-20.996,-16.113,175.293,0.000
1606138872.773,32.227,19.531,-14.648,220.703,0.000
1606138872.777,-47.852,-0.488,-23.438,-60.547,0.000
1606138872.781,-105.469,-33.203,-36.621,-292.480,0.000
1606138872.785,-63.477,-35.156,-34.180,-179.199,0.000
1606138872.789,24.902,-27.344,-27.832,141.113,0.000
1606138872.793,31.250,-25.391,-31.250,227.539,0.000
1606138872.797,-46.875,-33.691,-39.062,-30.762,0.000
1606138872.801,-96.680,-34.668,-40.039,-267.090,0.000
1606138872.804,-56.641,-27.832,-35.156,-180.664,0.000
1606138872.808,22.461,-24.414,-30.273,117.188,0.000
1606138872.812,50.293,-11.230,-28.320,242.676,0.000
1606138872.816,-13.672,-16.113,-30.762,29.297,0.000
1606138872.820,-83.984,-32.227,-30.273,-246.094,0.000
1606138872.824,-62.012,-31.250,-37.109,-222.168,0.000
1606138872.828,27.344,-24.902,-32.227,92.773,0.000
1606138872.832,57.617,-20.508,-24.902,257.324,0.000
1606138872.836,-5.859,-25.879,-28.809,70.312,0.000
1606138872.840,-80.566,-34.180,-29.785,-218.750,0.000
1606138872.844,-85.938,-41.016,-33.203,-250.977,0.000
1606138872.847,-4.395,-37.109,-31.250,41.992,0.000
1606138872.851,47.363,-5.859,-28.809,264.648,0.000
1606138872.855,-10.742,-2.441,-30.762,112.793,0.000
1606138872.859,-97.168,-34.668,-34.180,-219.727,0.000
1606138872.863,-103.027,-41.016,-35.645,-287.109,0.000
1606138872.867,-18.066,-33.203,-34.668,-10.254,0.000
1606138872.871,40.527,-27.832,-32.227,226.074,0.000
1606138872.875,-2.930,-36.133,-32.227,129.395,0.000
1606138872.879,-96.191,-50.293,-36.621,-191.895,0.000
1606138872.883,-112.305,-44.922,-27.832,-298.340,0.000
1606138872.887,-33.691,-37.109,-21.973,-49.805,0.000
1606138872.890,30.762,-37.598,-19.043,214.355,0.000
1606138872.894,6.348,-39.062,-20.508,170.410,0.000
1606138872.898,-81.543,-43.457,-29.785,-134.766,0.000
1606138872.902,-114.258,-44.434,-33.691,-291.992,0.000
1606138872.906,-46.387,-41.992,-29.297,-96.191,0.000
1606138872.910,33.691,-26.367,-20.508,194.336,0.000
1606138872.914,16.113,-21.973,-24.414,192.871,0.000
1606138872.918,-74.707,-44.922,-25.879,-106.445,0.000
1606138872.922,-115.234,-47.852,-25.391,-295.898,0.000
1606138872.926,-52.734,-41.992,-31.250,-140.137,0.000
1606138872.929,37.109,-33.691,-29.785,173.828,0.000
1606138872.933,29.785,-32.227,-21.973,229.004,0.000
1606138872.937,-55.176,-41.016,-21.973,-52.734,0.000
1606138872.941,-103.027,-37.109,-28.320,-272.461,0.000
1606138872.945,-61.523,-34.180,-24.414,-153.320,0.000
1606138872.949,20.996,-35.645,-19.043,147.949,0.000
1606138872.953,31.738,-17.578,-26.855,223.145,0.000
1606138872.957,-44.922,-16.602,-32.715,-25.391,0.000
1606138872.961,-107.910,-33.203,-35.156,-270.508,0.000
1606138872.965,-77.148,-37.598,-33.691,-200.195,0.000
1606138872.969,11.719,-29.297,-31.250,112.793,0.000
1606138872.972,36.133,-21.484,-26.367,238.281,0.000
1606138872.976,-28.320,-27.832,-23.926,26.367,0.000
1606138872.980,-99.121,-38.574,-22.461,-249.023,0.000
1606138872.984,-86.914,-42.480,-31.738,-233.887,0.000
1606138872.988,2.930,-25.879,-31.250,73.730,0.000
1606138872.992,38.574,-1.953,-19.043,247.559,0.000
1606138872.996,-24.902,-18.066,-20.996,67.871,0.000
1606138873.000,-109.375,-46.387,-30.762,-236.328,0.000
1606138873.004,-98.633,-39.551,-29.297,-264.648,0.000
1606138873.008,-3.418,-28.809,-15.137,33.691,0.000
1606138873.012,41.016,-27.832,-13.672,238.770,0.000
1606138873.015,-7.812,-33.203,-17.090,96.680,0.000
1606138873.019,-83.008,-42.969,-21.973,-207.520,0.000
1606138873.023,-81.543,-35.156,-22.461,-268.555,0.000
1606138873.027,-0.488,-22.949,-18.555,-1.465,0.000
1606138873.031,48.340,-24.902,-18.066,237.793,0.000
1606138873.035,5.859,-27.832,-20.508,147.949,0.000
1606138873.039,-83.008,-32.715,-27.344,-167.969,0.000
1606138873.043,-101.562,-34.180,-25.879,-279.785,0.000
1606138873.047,-30.762,-35.156,-21.484,-57.617,0.000
1606138873.051,33.203,-11.719,-30.762,194.824,0.000
1606138873.054,16.602,7.324,-30.762,164.551,0.000
1606138873.058,-73.242,-32.715,-28.809,-148.438,0.000
1606138873.062,-104.004,-41.992,-32.227,-307.617,0.000
1606138873.066,-36.621,-31.738,-30.762,-97.656,0.000
1606138873.070,35.645,-28.320,-20.996,200.684,0.000
1606138873.074,15.625,-28.809,-18.555,206.543,0.000
1606138873.078,-73.242,-40.527,-24.414,-98.145,0.000
1606138873.082,-113.281,-40.527,-25.391,-288.086,0.000
1606138873.086,-52.734,-34.180,-20.508,-125.488,0.000
1606138873.090,29.785,-17.090,-17.090,176.270,0.000
1606138873.094,25.879,-6.836,-24.902,223.145,0.000
1606138873.097,-52.246,-29.785,-24.902,-44.922,0.000
1606138873.101,-104.492,-41.016,-26.367,-270.996,0.000
1606138873.105,-64.941,-43.457,-25.391,-166.992,0.000
1606138873.109,28.809,-30.762,-15.625,154.785,0.000
1606138873.113,45.898,-20.996,-15.625,251.953,0.000
1606138873.117,-35.645,-30.762,-20.508,-0.488,0.000
1606138873.121,-101.562,-32.715,-24.414,-260.742,0.000
1606138873.125,-76.172,-35.645,-28.320,-201.660,0.000
1606138873.129,18.066,-24.902,-26.367,124.023,0.000
1606138873.133,53.711,1.953,-20.508,272.461,0.000
1606138873.137,-20.020,-16.602,-26.367,49.316,0.000
1606138873.140,-97.656,-33.691,-34.180,-247.070,0.000
1606138873.144,-83.984,-38.086,-33.203,-241.211,0.000
1606138873.148,12.207,-32.227,-21.973,76.172,0.000
1606138873.152,62.012,-19.531,-17.578,271.484,0.000
1606138873.156,-5.371,-36.133,-30.762,86.914,0.000
1606138873.160,-92.285,-46.875,-31.738,-222.656,0.000
1606138873.164,-90.820,-43.945,-26.367,-249.512,0.000
1606138873.168,-4.883,-38.086,-19.043,39.551,0.000
1606138873.172,48.340,-27.344,-17.578,249.023,0.000
1606138873.176,2.930,-25.391,-25.391,122.559,0.000
1606138873.179,-79.102,-26.855,-26.367,-190.918,0.000
1606138873.183,-92.773,-37.109,-30.273,-284.668,0.000
1606138873.187,-19.531,-51.270,-31.738,-31.738,0.000
1606138873.191,34.180,-19.531,-30.273,217.773,0.000
1606138873.195,-0.977,-11.230,-31.738,138.672,0.000
1606138873.199,-84.473,-41.992,-29.785,-184.570,0.000
1606138873.203,-98.145,-40.039,-21.973,-298.340,0.000
1606138873.207,-19.531,-30.273,-18.066,-62.500,0.000
1606138873.211,48.340,-22.949,-16.113,207.031,0.000
1606138873.215,20.996,-29.297,-22.949,165.039,0.000
1606138873.219,-67.383,-39.551,-33.203,-145.020,0.000
1606138873.222,-95.215,-39.551,-21.973,-294.922,0.000
1606138873.226,-36.621,-38.086,-25.879,-100.586,0.000
1606138873.230,28.320,-17.578,-39.062,182.617,0.000
1606138873.234,19.531,2.930,-37.598,186.035,0.000
1606138873.238,-57.617,-24.414,-33.203,-103.027,0.000
1606138873.242,-102.051,-43.457,-34.180,-291.016,0.000
1606138873.246,-45.898,-39.551,-32.227,-136.719,0.000
1606138873.250,41.504,-30.762,-20.996,171.875,0.000
1606138873.254,40.039,-31.250,-20.996,224.121,0.000
1606138873.258,-46.875,-41.992,-26.855,-52.246,0.000
1606138873.262,-103.027,-46.875,-30.762,-284.180,0.000
1606138873.265,-61.035,-48.828,-36.621,-182.617,0.000
1606138873.269,23.438,-24.902,-28.809,139.648,0.000
1606138873.273,41.504,-17.090,-29.785,240.234,0.000
1606138873.277,-25.879,-36.133,-31.250,-10.254,0.000
1606138873.281,-89.355,-36.621,-30.273,-274.414,0.000
1606138873.285,-63.965,-42.480,-32.227,-227.539,0.000
1606138873.289,27.344,-29.785,-23.926,101.562,0.000
1606138873.293,60.547,-18.555,-22.461,251.465,0.000
1606138873.297,-14.160,-35.156,-28.809,35.645,0.000
1606138873.301,-90.820,-42.969,-35.156,-251.953,0.000
1606138873.304,-73.730,-39.062,-34.668,-242.676,0.000
1606138873.308,9.766,-27.832,-27.344,69.824,0.000
1606138873.312,52.246,-17.578,-22.461,251.953,0.000
1606138873.316,-8.301,-22.461,-28.809,68.359,0.000
1606138873.320,-90.820,-27.832,-24.902,-234.375,0.000
1606138873.324,-85.449,-27.832,-27.344,-263.184,0.000
1606138873.328,2.930,-25.879,-31.738,25.879,0.000
1606138873.332,56.641,8.789,-23.926,242.676,0.000
1606138873.336,5.859,17.578,-31.738,113.281,0.000
1606138873.340,-83.008,-28.320,-39.062,-208.008,0.000
1606138873.344,-94.238,-39.062,-35.156,-289.062,0.000
1606138873.347,-16.113,-29.785,-27.832,-12.695,0.000
1606138873.351,49.316,-19.043,-24.414,245.605,0.000
1606138873.355,15.137,-23.438,-24.414,162.598,0.000
1606138873.359,-78.613,-34.180,-30.273,-169.434,0.000
1606138873.363,-99.609,-35.156,-32.715,-293.457,0.000
1606138873.367,-29.297,-40.039,-28.809,-53.711,0.000
1606138873.371,38.086,-24.902,-26.367,223.145,0.000
1606138873.375,11.719,-25.879,-32.227,182.617,0.000
1606138873.379,-87.891,-41.992,-41.504,-146.973,0.000
1606138873.383,-122.070,-36.621,-39.551,-309.082,0.000
1606138873.387,-54.199,-36.133,-37.109,-110.352,0.000
1606138873.390,28.809,-29.785,-32.227,191.406,0.000
1606138873.394,21.973,-31.250,-27.344,214.355,0.000
1606138873.398,-62.988,-41.504,-28.809,-84.473,0.000
1606138873.402,-106.934,-35.156,-30.762,-296.387,0.000
1606138873.406,-57.617,-29.785,-32.715,-157.227,0.000
1606138873.410,23.438,-19.531,-35.156,158.691,0.000
1606138873.414,28.809,-16.113,-30.273,231.934,0.000
1606138873.418,-53.711,-33.691,-25.879,-53.223,0.000
1606138873.422,-111.816,-46.875,-29.297,-308.105,0.000
1606138873.426,-66.895,-43.945,-32.715,-211.426,0.000
1606138873.429,31.738,-12.207,-23.926,129.395,0.000
1606138873.433,49.316,2.930,-20.508,246.582,0.000
1606138873.437,-35.156,-23.926,-23.438,-14.160,0.000
1606138873.441,-106.445,-37.598,-29.297,-289.062,0.000
1606138873.445,-74.219,-31.250,-22.949,-224.609,0.000
1606138873.449,19.043,-29.297,-10.742,101.562,0.000
1606138873.453,41.992,-28.320,-17.090,244.629,0.000
1606138873.457,-22.461,-25.879,-24.902,37.109,0.000
1606138873.461,-99.609,-33.203,-28.809,-254.883,0.000
1606138873.465,-94.727,-36.133,-28.320,-259.277,0.000
1606138873.469,-8.789,-28.320,-28.809,48.828,0.000
1606138873.472,32.715,-13.184,-27.832,238.770,0.000
1606138873.476,-17.090,-24.414,-19.531,75.684,0.000
1606138873.480,-88.867,-39.062,-23.438,-223.633,0.000
1606138873.484,-84.961,-33.203,-22.949,-262.207,0.000
1606138873.488,-3.906,-29.785,-16.113,20.020,0.000
1606138873.492,40.527,-34.180,-20.020,237.305,0.000
1606138873.496,-14.160,-41.504,-30.273,111.328,0.000
1606138873.500,-99.121,-36.621,-38.086,-202.148,0.000
1606138873.504,-104.492,-29.785,-35.645,-272.949,0.000
1606138873.508,-18.066,-34.180,-32.227,-7.812,0.000
1606138873.512,44.434,-11.230,-24.902,233.398,0.000
1606138873.515,4.395,-2.930,-22.461,149.414,0.000
1606138873.519,-89.844,-37.598,-29.785,-177.246,0.000
1606138873.523,-114.258,-37.598,-34.668,-309.570,0.000
1606138873.527,-41.016,-32.227,-31.250,-83.984,0.000
1606138873.531,27.344,-30.762,-28.809,187.500,0.000
1606138873.535,9.766,-33.691,-32.227,155.273,0.000
1606138873.539,-70.801,-37.598,-36.621,-143.066,0.000
1606138873.543,-104.492,-33.691,-41.016,-300.293,0.000
1606138873.547,-41.992,-28.809,-36.621,-119.141,0.000
1606138873.551,40.039,-21.484,-25.391,178.223,0.000
1606138873.554,30.273,-29.297,-20.996,194.824,0.000
1606138873.558,-62.500,-37.598,-28.320,-100.586,0.000
1606138873.562,-109.375,-37.109,-29.297,-304.688,0.000
1606138873.566,-59.570,-45.410,-27.832,-165.527,0.000
1606138873.570,30.273,-22.461,-22.949,162.109,0.000
1606138873.574,38.574,-4.395,-15.137,237.305,0.000
1606138873.578,-48.340,-25.391,-19.531,-45.410,0.000
1606138873.582,-111.816,-38.086,-27.832,-291.992,0.000
1606138873.586,-69.336,-37.109,-20.996,-190.918,0.000
1606138873.590,25.391,-24.902,-16.602,135.254,0.000
1606138873.594,37.109,-28.809,-26.367,233.887,0.000
1606138873.597,-36.621,-38.086,-32.715,-14.160,0.000
1606138873.601,-102.051,-37.109,-36.621,-275.391,0.000
1606138873.605,-72.754,-40.527,-37.598,-225.098,0.000
1606138873.609,16.113,-29.785,-32.715,87.891,0.000
1606138873.613,45.898,14.648,-23.926,241.699,0.000
1606138873.617,-22.949,2.441,-30.273,40.527,0.000
1606138873.621,-98.145,-32.227,-35.156,-251.465,0.000
1606138873.625,-77.637,-38.574,-33.203,-245.117,0.000
1606138873.629,18.066,-31.250,-32.715,71.777,0.000
1606138873.633,47.852,-20.508,-26.855,255.859,0.000
1606138873.637,-18.066,-30.762,-26.855,81.055,0.000
1606138873.640,-85.449,-34.180,-38.086,-221.680,0.000
1606138873.644,-66.895,-36.133,-38.574,-251.465,0.000
1606138873.648,28.809,-27.832,-33.203,51.758,0.000
1606138873.652,90.332,-6.836,-31.738,290.527,0.000
1606138873.656,48.828,-20.020,-33.203,166.992,0.000
1606138873.660,-40.527,-35.156,-38.086,-165.527,0.000
1606138873.664,-50.781,-36.133,-38.574,-249.023,0.000
1606138873.668,30.762,-39.551,-33.691,20.996,0.000
1606138873.672,99.609,-27.344,-27.344,281.250,0.000
1606138873.676,57.617,-26.855,-29.785,196.777,0.000
1606138873.679,-41.016,-36.133,-37.109,-133.301,0.000
1606138873.683,-69.336,-35.645,-36.621,-265.137,0.000
1606138873.687,3.418,-27.832,-34.180,-33.203,0.000
1606138873.691,83.496,-24.902,-25.879,265.625,0.000
1606138873.695,71.289,-29.785,-27.344,242.676,0.000
1606138873.699,-23.438,-34.668,-31.738,-82.031,0.000
1606138873.703,-65.430,-37.598,-25.879,-259.277,0.000
1606138873.707,-7.812,-41.016,-24.902,-81.543,0.000
1606138873.711,70.312,-22.461,-23.438,226.074,0.000
1606138873.715,61.035,-15.137,-20.996,246.582,0.000
1606138873.719,-33.691,-41.504,-30.273,-61.523,0.000
1606138873.722,-77.637,-43.945,-35.156,-265.137,0.000
1606138873.726,-17.578,-31.738,-23.438,-115.723,0.000
1606138873.730,60.059,-26.855,-14.160,204.102,0.000
1606138873.734,58.594,-29.297,-16.113,262.695,0.000
1606138873.738,-15.625,-31.738,-21.484,-11.230,0.000
1606138873.742,-76.172,-32.227,-30.762,-247.070,0.000
1606138873.746,-45.410,-36.133,-32.715,-166.992,0.000
1606138873.750,43.945,-13.672,-21.973,150.391,0.000
1606138873.754,68.359,-2.441,-14.648,263.184,0.000
1606138873.758,-4.395,-26.367,-20.996,21.973,0.000
1606138873.762,-75.195,-31.250,-22.949,-242.676,0.000
1606138873.765,-48.340,-32.227,-24.414,-196.289,0.000
1606138873.769,40.039,-23.926,-18.066,119.141,0.000
1606138873.773,68.359,-20.996,-21.484,266.113,0.000
1606138873.777,-1.953,-31.250,-31.738,55.176,0.000
1606138873.781,-79.102,-31.250,-33.203,-230.957,0.000
1606138873.785,-61.523,-30.762,-31.250,-226.074,0.000
1606138873.789,27.832,-25.879,-24.902,80.566,0.000
1606138873.793,71.289,-5.371,-22.949,269.043,0.000
1606138873.797,8.789,-3.418,-25.391,98.145,0.000
1606138873.801,-85.938,-23.926,-28.809,-215.332,0.000
1606138873.804,-88.379,-36.621,-29.297,-268.066,0.000
1606138873.808,-2.441,-32.715,-23.438,13.184,0.000
1606138873.812,49.316,-23.438,-22.949,239.258,0.000
1606138873.816,7.324,-24.902,-31.738,117.676,0.000
1606138873.820,-80.078,-31.250,-41.992,-204.102,0.000
1606138873.824,-99.609,-33.691,-49.316,-296.387,0.000
1606138873.828,-23.438,-33.203,-40.527,-45.410,0.000
1606138873.832,46.875,-27.344,-28.320,221.191,0.000
1606138873.836,19.531,-26.367,-28.809,161.133,0.000
1606138873.840,-67.871,-31.250,-25.879,-160.156,0.000
1606138873.844,-87.891,-37.109,-24.414,-290.039,0.000
1606138873.847,-23.926,-35.156,-33.203,-74.219,0.000
1606138873.851,42.480,-20.996,-31.738,207.031,0.000
1606138873.855,25.391,-25.391,-28.320,185.059,0.000
1606138873.859,-65.430,-39.062,-30.762,-131.348,0.000
1606138873.863,-107.422,-40.039,-28.809,-308.105,0.000
1606138873.867,-47.852,-39.062,-32.227,-118.652,0.000
1606138873.871,40.039,-34.668,-25.391,190.430,0.000
1606138873.875,35.645,-30.273,-12.207,212.402,0.000
1606138873.879,-45.410,-30.762,-14.160,-70.312,0.000
1606138873.883,-96.191,-35.645,-25.391,-278.320,0.000
1606138873.887,-58.105,-42.969,-28.809,-151.855,0.000
1606138873.890,31.250,-20.020,-22.461,173.340,0.000
1606138873.894,41.992,7.324,-25.391,241.699,0.000
1606138873.898,-50.293,-11.719,-35.645,-48.828,0.000
1606138873.902,-116.699,-29.785,-33.691,-305.176,0.000
1606138873.906,-81.543,-32.715,-28.809,-215.820,0.000
1606138873.910,8.301,-27.344,-24.414,117.188,0.000
1606138873.914,34.180,-29.785,-17.578,245.117,0.000
1606138873.918,-41.016,-40.039,-24.902,6.348,0.000
1606138873.922,-111.328,-41.504,-38.574,-274.414,0.000
1606138873.926,-78.613,-37.109,-30.273,-222.168,0.000
1606138873.929,18.555,-20.020,-18.555,110.352,0.000
1606138873.933,49.805,-13.184,-22.461,264.160,0.000
1606138873.937,-9.766,-29.785,-22.461,61.523,0.000
1606138873.941,-88.867,-41.504,-33.203,-241.699,0.000
1606138873.945,-84.961,-41.992,-37.598,-248.047,0.000
1606138873.949,9.766,-26.367,-26.855,62.988,0.000
1606138873.953,55.176,-26.855,-30.762,250.000,0.000
1606138873.957,-1.953,-33.691,-31.738,86.914,0.000
1606138873.961,-80.566,-34.668,-25.879,-213.379,0.000
1606138873.965,-86.426,-39.062,-29.785,-260.254,0.000
1606138873.969,-6.348,-28.809,-29.785,17.578,0.000
1606138873.972,51.758,-15.625,-18.555,244.141,0.000
1606138873.976,1.465,-22.949,-24.414,128.418,0.000
1606138873.980,-89.355,-36.133,-25.391,-191.406,0.000
1606138873.984,-101.562,-40.527,-24.902,-285.156,0.000
1606138873.988,-29.297,-36.133,-30.273,-41.016,0.000
1606138873.992,29.785,-11.230,-25.391,211.426,0.000
1606138873.996,-1.465,-6.836,-25.391,149.902,0.000
1606138874.000,-92.773,-32.715,-35.156,-157.227,0.000
1606138874.004,-120.117,-38.574,-37.109,-293.457,0.000
1606138874.008,-41.992,-32.715,-28.809,-87.891,0.000
1606138874.012,29.785,-30.273,-23.438,186.523,0.000
1606138874.015,8.789,-31.250,-22.461,169.922,0.000
1606138874.019,-68.848,-32.227,-31.250,-127.441,0.000
1606138874.023,-101.562,-35.156,-30.762,-290.039,0.000
1606138874.027,-37.109,-35.156,-20.508,-110.352,0.000
1606138874.031,41.992,-11.719,-24.414,180.664,0.000
1606138874.035,31.250,-8.301,-24.414,203.613,0.000
1606138874.039,-47.363,-25.879,-26.367,-77.148,0.000
1606138874.043,-93.262,-28.809,-32.715,-281.250,0.000
1606138874.047,-47.852,-37.109,-28.320,-152.832,0.000
1606138874.051,32.227,-33.691,-22.461,146.973,0.000
1606138874.054,38.086,-25.879,-23.926,221.680,0.000
1606138874.058,-39.551,-31.250,-31.250,-40.039,0.000
1606138874.062,-97.656,-37.598,-31.738,-281.738,0.000
1606138874.066,-62.500,-39.062,-32.715,-192.383,0.000
1606138874.070,24.902,-16.602,-26.855,133.301,0.000
1606138874.074,45.410,0.977,-22.461,243.164,0.000
1606138874.078,-31.250,-26.855,-22.461,-5.859,0.000
1606138874.082,-104.004,-46.387,-29.297,-278.320,0.000
1606138874.086,-77.148,-42.480,-32.227,-232.910,0.000
1606138874.090,9.277,-35.156,-22.949,81.055,0.000
1606138874.094,30.762,-33.203,-22.949,232.910,0.000
1606138874.097,-32.227,-40.039,-30.273,37.109,0.000
1606138874.101,-105.469,-42.480,-30.273,-252.441,0.000
1606138874.105,-93.750,-36.621,-20.996,-251.465,0.000
1606138874.109,-5.371,-31.738,-23.926,50.293,0.000
1606138874.113,40.039,-32.227,-24.902,248.047,0.000
1606138874.117,-24.902,-41.504,-27.832,89.355,0.000
1606138874.121,-114.258,-46.875,-33.203,-229.004,0.000
1606138874.125,-110.840,-50.781,-27.832,-276.367,0.000
1606138874.129,-29.297,-38.574,-27.832,2.441,0.000
1606138874.133,23.438,-6.348,-32.715,229.004,0.000
1606138874.137,-20.508,-19.531,-38.574,114.258,0.000
1606138874.140,-104.004,-42.969,-41.504,-203.613,0.000
1606138874.144,-117.676,-45.410,-38.086,-296.875,0.000
1606138874.148,-31.250,-41.504,-37.109,-42.480,0.000
1606138874.152,47.852,-30.273,-29.785,226.074,0.000
1606138874.156,18.555,-27.832,-18.555,162.598,0.000
1606138874.160,-74.707,-26.367,-20.508,-161.133,0.000
1606138874.164,-98.145,-20.996,-27.344,-299.805,0.000
1606138874.168,-28.809,-28.320,-29.297,-83.008,0.000
1606138874.172,41.992,8.301,-24.902,200.684,0.000
1606138874.176,24.902,21.973,-20.508,182.617,0.000
1606138874.179,-63.477,-24.902,-22.949,-129.883,0.000
1606138874.183,-99.609,-33.691,-25.879,-309.570,0.000
1606138874.187,-38.086,-35.645,-22.949,-132.324,0.000
1606138874.191,38.574,-37.109,-20.020,174.316,0.000
1606138874.195,29.297,-37.109,-19.043,208.984,0.000
1606138874.199,-57.129,-38.086,-24.414,-85.938,0.000
1606138874.203,-114.258,-42.480,-35.156,-312.988,0.000
1606138874.207,-69.336,-53.223,-37.598,-183.594,0.000
1606138874.211,20.996,-5.859,-30.762,148.926,0.000
1606138874.215,21.973,12.695,-34.668,217.773,0.000
1606138874.219,-58.105,-29.785,-38.086,-53.711,0.000
1606138874.222,-114.746,-35.645,-40.039,-294.922,0.000
1606138874.226,-86.426,-35.156,-33.691,-215.332,0.000
1606138874.230,1.465,-32.715,-29.297,103.027,0.000
1606138874.234,28.320,-35.645,-31.738,222.656,0.000
1606138874.238,-40.527,-39.551,-29.785,0.000,0.000
1606138874.242,-104.492,-39.551,-32.715,-265.137,0.000
1606138874.246,-81.055,-40.039,-38.086,-232.422,0.000
1606138874.250,6.836,-32.715,-26.855,85.449,0.000
1606138874.254,42.480,-29.785,-22.949,249.023,0.000
1606138874.258,-20.996,-34.668,-32.227,56.152,0.000
1606138874.262,-87.402,-27.832,-34.668,-229.004,0.000
1606138874.265,-72.754,-40.527,-31.738,-242.676,0.000
1606138874.269,1.465,-26.367,-30.273,41.016,0.000
1606138874.273,43.457,40.527,-31.250,236.816,0.000
1606138874.277,-3.418,14.648,-28.809,95.703,0.000
1606138874.281,-81.543,-39.551,-32.227,-205.078,0.000
1606138874.285,-85.449,-42.969,-36.621,-266.113,0.000
1606138874.289,-3.418,-38.086,-28.320,0.488,0.000
1606138874.293,50.781,-28.809,-17.090,230.957,0.000
1606138874.297,1.465,-35.156,-20.996,124.512,0.000
1606138874.301,-84.961,-44.922,-29.785,-190.430,0.000
1606138874.304,-95.215,-52.246,-32.227,-279.785,0.000
1606138874.308,-20.508,-41.504,-25.879,-29.297,0.000
1606138874.312,49.316,12.695,-21.973,227.051,0.000
1606138874.316,8.789,-4.883,-32.715,147.949,0.000
1606138874.320,-92.773,-44.922,-38.086,-171.875,0.000
1606138874.324,-119.141,-43.457,-39.062,-299.316,0.000
1606138874.328,-51.270,-35.156,-34.668,-81.543,0.000
1606138874.332,23.438,-30.762,-27.832,189.453,0.000
1606138874.336,16.113,-33.203,-22.949,179.199,0.000
1606138874.340,-60.547,-35.156,-23.926,-113.281,0.000
1606138874.344,-95.703,-36.621,-27.344,-293.457,0.000
1606138874.347,-36.621,-41.504,-25.879,-117.188,0.000
1606138874.351,40.039,9.766,-20.020,197.266,0.000
1606138874.355,24.414,37.109,-20.996,222.656,0.000
1606138874.359,-67.383,-31.250,-27.344,-78.125,0.000
1606138874.363,-116.211,-54.199,-32.715,-292.480,0.000
1606138874.367,-63.965,-45.410,-30.762,-158.691,0.000
1606138874.371,22.949,-36.133,-28.320,151.855,0.000
1606138874.375,31.738,-31.738,-28.320,223.633,0.000
1606138874.379,-44.922,-41.992,-34.180,-34.668,0.000
1606138874.383,-108.887,-46.875,-38.086,-273.926,0.000
1606138874.387,-74.219,-38.086,-29.297,-187.500,0.000
1606138874.390,15.625,-29.297,-25.879,128.418,0.000
1606138874.394,32.715,-29.297,-27.832,247.070,0.000
1606138874.398,-36.133,-31.738,-32.715,24.414,0.000
1606138874.402,-106.445,-37.109,-38.574,-256.836,0.000
1606138874.406,-83.008,-46.387,-30.273,-226.562,0.000
1606138874.410,4.883,-19.043,-24.414,87.402,0.000
1606138874.414,30.762,-4.883,-26.855,237.305,0.000
1606138874.418,-29.297,-39.062,-29.785,50.293,0.000
1606138874.422,-103.516,-43.945,-29.297,-240.723,0.000
1606138874.426,-90.332,-39.062,-28.809,-256.836,0.000
1606138874.429,3.418,-33.203,-30.762,42.969,0.000
1606138874.433,47.852,-25.879,-28.320,233.887,0.000
1606138874.437,-8.301,-26.855,-34.668,84.473,0.000
1606138874.441,-89.355,-30.762,-39.551,-209.473,0.000
1606138874.445,-88.867,-34.668,-39.062,-264.160,0.000
1606138874.449,-15.137,-31.738,-37.598,-5.371,0.000
1606138874.453,41.504,22.461,-25.391,229.492,0.000
1606138874.457,10.254,14.648,-21.973,126.465,0.000
1606138874.461,-79.102,-35.156,-28.320,-201.660,0.000
1606138874.465,-93.262,-31.738,-27.344,-296.387,0.000
1606138874.469,-21.973,-28.320,-24.902,-55.176,0.000
1606138874.472,33.203,-33.203,-30.273,193.359,0.000
1606138874.476,7.812,-32.227,-27.832,143.066,0.000
1606138874.480,-77.637,-28.809,-29.297,-166.016,0.000
1606138874.484,-104.980,-34.668,-29.785,-303.711,0.000
1606138874.488,-35.645,-27.832,-25.879,-84.961,0.000
1606138874.492,32.715,-4.883,-23.926,195.801,0.000
1606138874.496,9.766,-17.090,-26.855,174.805,0.000
1606138874.500,-81.055,-41.992,-31.738,-130.371,0.000
1606138874.504,-122.559,-44.434,-32.227,-304.199,0.000
1606138874.508,-57.129,-41.016,-26.855,-126.953,0.000
1606138874.512,25.391,-30.762,-21.973,175.781,0.000
1606138874.515,15.625,-32.715,-25.879,202.148,0.000
1606138874.519,-68.848,-40.039,-31.250,-94.238,0.000
1606138874.523,-118.652,-41.504,-30.762,-309.082,0.000
1606138874.527,-67.871,-36.621,-29.785,-181.641,0.000
1606138874.531,16.602,-36.133,-30.273,132.324,0.000
1606138874.535,17.090,-36.133,-26.367,208.008,0.000
1606138874.539,-60.547,-36.621,-26.855,-41.016,0.000
1606138874.543,-118.164,-44.434,-29.785,-287.598,0.000
1606138874.547,-81.055,-50.781,-28.809,-222.656,0.000
1606138874.551,11.719,-24.414,-23.926,103.027,0.000
1606138874.554,33.203,0.000,-19.531,235.352,0.000
1606138874.558,-37.109,-23.926,-24.414,-1.953,0.000
1606138874.562,-109.375,-39.062,-30.762,-277.832,0.000
1606138874.566,-90.820,-34.668,-29.785,-246.094,0.000
1606138874.570,8.301,-30.273,-19.043,80.078,0.000
1606138874.574,42.969,-31.250,-21.484,253.418,0.000
1606138874.578,-30.273,-44.434,-33.691,39.551,0.000
1606138874.582,-105.957,-49.805,-30.273,-260.742,0.000
1606138874.586,-98.633,-50.781,-26.855,-265.625,0.000
1606138874.590,-17.090,-36.621,-26.855,26.855,0.000
1606138874.594,33.203,-17.578,-25.391,227.051,0.000
1606138874.597,-20.996,-35.645,-24.902,81.543,0.000
1606138874.601,-97.656,-41.992,-26.367,-226.074,0.000
1606138874.605,-99.609,-39.551,-30.273,-284.668,0.000
1606138874.609,-24.414,-34.668,-29.297,-13.672,0.000
1606138874.613,33.691,-27.344,-25.879,221.680,0.000
1606138874.617,-5.371,-24.902,-28.320,116.699,0.000
1606138874.621,-90.332,-28.809,-36.621,-204.102,0.000
1606138874.625,-105.469,-39.551,-41.016,-306.641,0.000
1606138874.629,-27.344,-28.320,-34.180,-51.758,0.000
1606138874.633,52.246,2.441,-21.484,232.422,0.000
1606138874.637,21.484,-9.766,-17.090,176.758,0.000
1606138874.640,-81.543,-32.715,-27.344,-162.598,0.000
1606138874.644,-108.887,-34.180,-32.715,-318.848,0.000
1606138874.648,-41.504,-28.320,-28.809,-102.539,0.000
1606138874.652,33.203,-14.648,-20.508,191.406,0.000
1606138874.656,13.184,-24.414,-25.391,180.664,0.000
1606138874.660,-83.008,-41.504,-34.668,-138.672,0.000
1606138874.664,-119.629,-41.992,-30.762,-320.312,0.000
1606138874.668,-60.059,-40.527,-30.762,-146.973,0.000
1606138874.672,17.578,-27.344,-30.273,155.762,0.000
1606138874.676,15.625,-26.367,-28.320,190.430,0.000
1606138874.679,-71.289,-37.598,-32.227,-96.680,0.000
1606138874.683,-130.859,-38.574,-34.180,-315.918,0.000
1606138874.687,-85.938,-34.668,-21.484,-193.848,0.000
1606138874.691,-2.441,-25.391,-17.090,124.512,0.000
1606138874.695,3.906,-27.344,-20.996,208.984,0.000
1606138874.699,-81.543,-41.992,-23.438,-61.035,0.000
1606138874.703,-150.879,-43.457,-34.180,-317.383,0.000
1606138874.707,-110.352,-39.062,-37.598,-239.258,0.000
1606138874.711,-13.184,-32.227,-32.715,83.496,0.000
1606138874.715,8.789,-26.367,-27.344,215.820,0.000
1606138874.719,-61.523,-27.344,-30.762,-15.137,0.000
1606138874.722,-128.906,-25.391,-37.598,-294.922,0.000
1606138874.726,-106.934,-23.926,-30.273,-244.629,0.000
1606138874.730,-15.625,-19.043,-20.508,71.289,0.000
1606138874.734,17.090,-5.371,-23.438,220.703,0.000
1606138874.738,-41.016,-20.996,-22.461,20.996,0.000
1606138874.742,-116.699,-35.645,-23.926,-267.578,0.000
1606138874.746,-107.422,-28.320,-33.203,-273.926,0.000
1606138874.750,-8.789,-19.531,-37.598,27.344,0.000
1606138874.754,31.738,-21.484,-32.227,222.656,0.000
1606138874.758,-44.922,-32.715,-30.762,64.941,0.000
1606138874.762,-132.324,-40.527,-32.227,-241.699,0.000
1606138874.765,-123.535,-41.992,-31.250,-294.434,0.000
1606138874.769,-37.109,-22.461,-27.832,-20.996,0.000
1606138874.773,16.113,0.000,-24.414,208.496,0.000
1606138874.777,-22.461,-19.043,-22.949,101.562,0.000
1606138874.781,-104.980,-34.668,-21.973,-218.262,0.000
1606138874.785,-124.023,-35.645,-21.973,-328.613,0.000
1606138874.789,-44.434,-27.344,-23.438,-74.219,0.000
1606138874.793,32.715,-22.949,-12.207,208.984,0.000
1606138874.797,14.160,-31.738,-9.277,163.574,0.000
1606138874.801,-82.031,-48.828,-27.344,-165.527,0.000
1606138874.804,-106.445,-43.457,-25.391,-302.734,0.000
1606138874.808,-28.320,-27.832,-24.414,-75.195,0.000
1606138874.812,42.480,-24.902,-24.902,205.566,0.000
1606138874.816,32.715,-26.855,-17.578,205.078,0.000
1606138874.820,-51.270,-31.738,-19.043,-89.844,0.000
1606138874.824,-94.727,-33.691,-22.461,-285.645,0.000
1606138874.828,-41.992,-36.133,-20.996,-132.812,0.000
1606138874.832,38.086,-24.902,-15.137,171.875,0.000
1606138874.836,36.621,-16.113,-15.137,215.332,0.000
1606138874.840,-50.781,-28.809,-25.879,-77.637,0.000
1606138874.844,-101.562,-37.598,-32.227,-304.199,0.000
1606138874.847,-57.129,-39.062,-25.391,-180.664,0.000
1606138874.851,31.738,-31.738,-18.555,148.926,0.000
1606138874.855,41.504,-28.320,-20.508,244.629,0.000
1606138874.859,-41.992,-32.227,-28.809,-20.996,0.000
1606138874.863,-100.098,-37.109,-31.738,-280.273,0.000
1606138874.867,-66.406,-35.156,-23.438,-203.125,0.000
1606138874.871,24.414,-22.461,-16.113,120.117,0.000
1606138874.875,53.223,-18.555,-14.160,248.535,0.000
1606138874.879,-11.230,-30.273,-16.113,21.484,0.000
1606138874.883,-88.379,-40.527,-22.461,-258.301,0.000
1606138874.887,-77.637,-42.969,-24.902,-233.398,0.000
1606138874.890,13.672,-33.203,-21.484,81.055,0.000
1606138874.894,52.246,-28.809,-20.508,249.023,0.000
1606138874.898,-8.301,-31.250,-24.414,60.059,0.000
1606138874.902,-88.379,-35.645,-31.250,-238.770,0.000
1606138874.906,-84.961,-38.086,-34.180,-258.301,0.000
1606138874.910,2.441,-28.809,-28.809,42.480,0.000
1606138874.914,59.082,-19.043,-18.555,258.789,0.000
1606138874.918,1.953,-30.273,-17.578,104.004,0.000
1606138874.922,-96.191,-33.203,-30.273,-227.539,0.000
1606138874.926,-101.562,-31.738,-33.691,-286.133,0.000
1606138874.929,-14.160,-30.273,-25.391,-3.906,0.000
1606138874.933,37.598,-29.785,-25.879,223.633,0.000
1606138874.937,-3.906,-41.016,-21.484,125.000,0.000
1606138874.941,-90.820,-46.875,-24.414,-187.500,0.000
1606138874.945,-112.305,-41.992,-36.621,-296.387,0.000
1606138874.949,-35.156,-35.156,-32.715,-54.688,0.000
1606138874.953,33.203,-30.762,-27.832,210.449,0.000
1606138874.957,11.230,-29.785,-28.320,167.969,0.000
1606138874.961,-76.172,-33.203,-27.832,-143.066,0.000
1606138874.965,-115.234,-41.016,-37.109,-307.129,0.000
1606138874.969,-52.734,-39.551,-39.062,-108.887,0.000
1606138874.972,24.414,-32.227,-28.320,180.664,0.000
1606138874.976,7.812,-33.203,-23.926,179.688,0.000
1606138874.980,-84.961,-41.016,-24.414,-124.023,0.000
1606138874.984,-125.977,-43.945,-22.949,-300.781,0.000
1606138874.988,-70.801,-39.062,-26.855,-138.672,0.000
1606138874.992,9.277,-36.133,-26.367,159.668,0.000
1606138874.996,11.230,-33.203,-21.484,201.172,0.000
1606138875.000,-64.453,-36.133,-27.832,-83.496,0.000
1606138875.004,-101.562,-39.551,-31.250,-290.527,0.000
1606138875.008,-52.734,-36.133,-27.344,-155.273,0.000
1606138875.012,31.250,-22.461,-26.855,149.902,0.000
1606138875.015,47.363,-7.324,-26.855,228.516,0.000
1606138875.019,-27.344,-21.484,-27.832,-22.949,0.000
1606138875.023,-84.961,-32.715,-28.809,-271.484,0.000
1606138875.027,-55.176,-29.297,-28.320,-196.777,0.000
1606138875.031,29.785,-28.320,-21.973,116.699,0.000
1606138875.035,46.875,-33.691,-26.367,237.793,0.000
1606138875.039,-27.832,-34.668,-19.043,19.043,0.000
1606138875.043,-104.004,-35.645,-22.461,-242.676,0.000
1606138875.047,-90.820,-42.480,-37.109,-220.703,0.000
1606138875.051,8.789,-25.391,-20.508,88.867,0.000
1606138875.054,42.969,-23.926,-16.113,253.418,0.000
1606138875.058,-25.391,-40.527,-27.344,52.246,0.000
1606138875.062,-101.562,-43.945,-31.738,-240.234,0.000
1606138875.066,-94.727,-44.434,-29.297,-255.859,0.000
1606138875.070,-10.742,-21.484,-21.484,39.062,0.000
1606138875.074,36.133,-13.184,-17.090,246.094,0.000
1606138875.078,-18.066,-28.320,-20.508,96.191,0.000
1606138875.082,-100.098,-34.180,-24.902,-215.820,0.000
1606138875.086,-101.562,-38.086,-27.344,-271.484,0.000
1606138875.090,-32.715,-42.480,-32.227,-19.043,0.000
1606138875.094,16.113,-41.992,-28.320,205.078,0.000
1606138875.097,-16.602,-41.504,-27.344,118.164,0.000
1606138875.101,-99.121,-41.504,-35.645,-193.848,0.000
1606138875.105,-117.188,-41.992,-31.250,-301.270,0.000
1606138875.109,-43.457,-41.016,-24.902,-68.359,0.000
1606138875.113,23.438,-23.438,-24.414,188.965,0.000
1606138875.117,6.348,-20.996,-22.461,152.344,0.000
1606138875.121,-76.172,-29.785,-28.809,-156.738,0.000
1606138875.125,-105.469,-32.715,-36.133,-303.711,0.000
1606138875.129,-37.109,-26.855,-28.809,-93.750,0.000
1606138875.133,41.504,-23.926,-20.996,193.848,0.000
1606138875.137,28.809,-29.785,-19.531,189.941,0.000
1606138875.140,-62.500,-32.227,-25.391,-116.211,0.000
1606138875.144,-105.469,-38.574,-29.297,-296.387,0.000
1606138875.148,-48.340,-36.621,-28.809,-128.906,0.000
1606138875.152,27.832,-30.762,-28.809,164.551,0.000
1606138875.156,22.461,-31.250,-30.762,206.055,0.000
1606138875.160,-59.570,-33.203,-35.156,-67.383,0.000
1606138875.164,-105.469,-34.180,-35.645,-281.738,0.000
1606138875.168,-59.570,-30.273,-28.320,-165.527,0.000
1606138875.172,23.438,-20.020,-22.461,145.020,0.000
1606138875.176,36.621,-17.090,-17.090,232.910,0.000
1606138875.179,-34.668,-19.043,-20.020,-17.090,0.000
1606138875.183,-89.355,-22.949,-34.180,-262.695,0.000
1606138875.187,-59.570,-28.320,-33.203,-188.965,0.000
1606138875.191,22.461,-20.996,-21.973,125.000,0.000
1606138875.195,38.574,-14.160,-19.043,257.324,0.000
1606138875.199,-33.203,-23.438,-24.902,26.855,0.000
1606138875.203,-101.074,-35.645,-33.203,-261.719,0.000
1606138875.207,-92.773,-41.016,-30.762,-237.305,0.000
1606138875.211,-10.254,-28.320,-29.785,73.242,0.000
1606138875.215,24.902,-19.043,-36.621,232.422,0.000
1606138875.219,-35.645,-34.668,-34.668,60.059,0.000
1606138875.222,-106.445,-43.457,-25.879,-221.191,0.000
1606138875.226,-88.867,-41.016,-24.414,-241.211,0.000
1606138875.230,-1.465,-38.086,-28.320,49.316,0.000
1606138875.234,50.293,-30.762,-27.344,239.258,0.000
1606138875.238,9.766,-23.438,-26.367,97.168,0.000
1606138875.242,-70.801,-26.855,-26.855,-198.730,0.000
1606138875.246,-76.660,-32.715,-34.668,-265.137,0.000
1606138875.250,2.930,-23.438,-36.133,-3.906,0.000
1606138875.254,59.082,-13.672,-33.691,227.051,0.000
1606138875.258,20.508,-25.879,-33.203,129.395,0.000
1606138875.262,-62.012,-35.156,-37.598,-189.453,0.000
1606138875.265,-81.543,-35.156,-36.621,-297.363,0.000
1606138875.269,-9.766,-26.855,-23.926,-54.199,0.000
1606138875.273,58.594,-21.484,-19.531,210.449,0.000
1606138875.277,28.809,-28.809,-21.484,163.086,0.000
1606138875.281,-58.105,-34.668,-24.902,-148.926,0.000
1606138875.285,-81.543,-30.762,-25.391,-291.504,0.000
1606138875.289,-14.160,-21.973,-20.996,-75.684,0.000
1606138875.293,53.223,-5.859,-22.949,206.055,0.000
1606138875.297,32.715,-12.695,-20.996,191.895,0.000
1606138875.301,-57.617,-37.598,-23.438,-115.723,0.000
1606138875.304,-98.633,-41.504,-28.320,-290.039,0.000
1606138875.308,-38.086,-32.715,-27.344,-115.723,0.000
1606138875.312,44.922,-27.344,-20.996,187.988,0.000
1606138875.316,44.434,-28.809,-18.066,231.445,0.000
1606138875.320,-42.480,-33.691,-23.438,-49.316,0.000
1606138875.324,-98.145,-32.227,-26.367,-271.484,0.000
1606138875.328,-48.340,-34.668,-25.391,-156.250,0.000
1606138875.332,45.410,-26.855,-22.949,167.480,0.000
1606138875.336,62.500,-19.043,-21.973,261.230,0.000
1606138875.340,-10.742,-26.367,-20.996,-2.930,0.000
1606138875.344,-79.590,-37.109,-29.297,-266.602,0.000
1606138875.347,-51.270,-37.109,-33.203,-193.359,0.000
1606138875.351,40.039,-13.672,-28.809,126.953,0.000
1606138875.355,64.941,-10.742,-27.344,256.836,0.000
1606138875.359,-1.953,-25.391,-24.902,36.621,0.000
1606138875.363,-70.312,-25.879,-18.555,-251.465,0.000
1606138875.367,-54.688,-27.832,-26.855,-235.352,0.000
1606138875.371,30.762,-27.832,-37.109,77.637,0.000
1606138875.375,71.777,-22.949,-27.344,254.883,0.000
1606138875.379,14.160,-21.973,-27.832,72.754,0.000
1606138875.383,-63.965,-21.484,-33.691,-228.516,0.000
1606138875.387,-64.453,-34.668,-32.715,-255.371,0.000
1606138875.390,13.672,-23.926,-27.344,37.598,0.000
1606138875.394,62.500,4.395,-22.949,254.395,0.000
1606138875.398,6.348,-20.020,-25.879,110.840,0.000
1606138875.402,-81.055,-42.480,-29.785,-217.285,0.000
1606138875.406,-84.473,-36.621,-21.973,-281.250,0.000
1606138875.410,-5.859,-28.809,-14.160,-4.395,0.000
1606138875.414,53.711,-20.996,-19.043,244.629,0.000
1606138875.418,15.625,-27.832,-25.879,149.414,0.000
1606138875.422,-73.242,-40.039,-26.367,-180.664,0.000
1606138875.426,-88.379,-39.062,-23.926,-280.273,0.000
1606138875.429,-17.578,-24.414,-24.902,-34.668,0.000
1606138875.433,43.457,-14.648,-23.438,220.215,0.000
1606138875.437,20.996,-28.809,-21.484,174.316,0.000
1606138875.441,-71.289,-37.109,-23.926,-143.066,0.000
1606138875.445,-105.957,-36.133,-25.391,-298.828,0.000
1606138875.449,-39.062,-27.344,-22.461,-97.656,0.000
1606138875.453,33.691,-21.973,-21.484,193.848,0.000
1606138875.457,18.555,-25.879,-24.414,193.359,0.000
1606138875.461,-72.266,-33.203,-37.598,-121.094,0.000
1606138875.465,-111.328,-38.086,-39.551,-308.105,0.000
1606138875.469,-48.828,-30.273,-30.273,-134.766,0.000
1606138875.472,33.203,-20.020,-23.926,175.293,0.000
1606138875.476,36.133,-20.996,-22.461,221.191,0.000
1606138875.480,-47.363,-29.785,-31.738,-60.547,0.000
1606138875.484,-96.191,-34.668,-32.227,-285.645,0.000
1606138875.488,-48.340,-34.668,-26.367,-172.852,0.000
1606138875.492,41.504,-3.906,-29.785,139.160,0.000
1606138875.496,56.641,3.906,-31.738,218.262,0.000
1606138875.500,-20.020,-23.438,-31.738,-38.086,0.000
1606138875.504,-83.008,-27.832,-37.598,-291.016,0.000
1606138875.508,-53.223,-26.855,-41.016,-218.750,0.000
1606138875.512,36.133,-21.973,-33.691,111.328,0.000
1606138875.515,65.430,-27.832,-27.344,244.629,0.000
1606138875.519,-6.836,-34.180,-31.738,23.438,0.000
1606138875.523,-79.590,-31.250,-34.180,-249.023,0.000
1606138875.527,-62.988,-37.598,-27.344,-229.980,0.000
1606138875.531,16.602,-17.578,-30.273,70.801,0.000
1606138875.535,50.293,-6.836,-31.250,237.305,0.000
1606138875.539,-9.277,-27.344,-26.367,63.477,0.000
1606138875.543,-93.262,-29.785,-30.273,-234.375,0.000
1606138875.547,-92.285,-33.203,-33.691,-253.418,0.000
1606138875.551,-13.672,-35.645,-35.156,43.457,0.000
1606138875.554,30.762,-38.574,-36.621,246.582,0.000
1606138875.558,-18.066,-41.504,-42.969,104.980,0.000
1606138875.562,-104.492,-43.457,-44.922,-212.402,0.000
1606138875.566,-105.957,-41.992,-35.645,-272.461,0.000
1606138875.570,-18.066,-23.926,-31.250,11.719,0.000
1606138875.574,37.598,-8.789,-36.133,248.535,0.000
1606138875.578,-2.930,-23.438,-36.133,140.625,0.000
1606138875.582,-99.609,-41.016,-44.434,-193.848,0.000
1606138875.586,-127.441,-42.480,-48.340,-312.012,0.000
1606138875.590,-52.734,-35.156,-35.645,-69.824,0.000
1606138875.594,16.602,-36.133,-37.109,201.660,0.000
1606138875.597,-11.719,-46.875,-41.016,148.926,0.000
1606138875.601,-99.121,-54.199,-43.945,-177.734,0.000
1606138875.605,-118.652,-49.316,-40.527,-328.613,0.000
1606138875.609,-41.992,-43.457,-35.645,-116.211,0.000
1606138875.613,43.945,-40.527,-33.203,190.918,0.000
1606138875.617,39.062,-37.109,-29.297,199.707,0.000
1606138875.621,-53.223,-32.227,-35.156,-116.211,0.000
1606138875.625,-97.656,-31.738,-33.691,-312.500,0.000
1606138875.629,-45.410,-33.203,-30.273,-150.879,0.000
1606138875.633,37.109,-12.207,-26.855,170.898,0.000
1606138875.637,33.203,-19.043,-29.297,213.867,0.000
1606138875.640,-52.246,-38.086,-37.598,-83.008,0.000
1606138875.644,-98.633,-38.086,-36.133,-304.688,0.000
1606138875.648,-51.270,-39.062,-36.133,-177.734,0.000
1606138875.652,41.992,-32.227,-25.879,151.367,0.000
1606138875.656,55.176,-30.762,-14.648,239.746,0.000
1606138875.660,-28.809,-35.156,-22.461,-17.578,0.000
1606138875.664,-88.867,-37.109,-26.367,-266.113,0.000
1606138875.668,-59.082,-43.945,-24.414,-198.242,0.000
1606138875.672,26.855,-20.996,-19.531,113.281,0.000
1606138875.676,51.758,-0.488,-16.602,239.746,0.000
1606138875.679,-26.367,-25.391,-23.926,13.184,0.000
1606138875.683,-97.656,-40.527,-34.180,-257.812,0.000
1606138875.687,-69.824,-34.180,-31.738,-228.027,0.000
1606138875.691,4.883,-24.414,-22.461,64.941,0.000
1606138875.695,30.762,-29.785,-14.648,220.215,0.000
1606138875.699,-31.250,-34.668,-17.578,29.785,0.000
1606138875.703,-111.816,-35.156,-27.832,-279.785,0.000
1606138875.707,-103.027,-37.598,-27.344,-301.270,0.000
1606138875.711,-20.020,-23.926,-18.066,6.836,0.000
1606138875.715,21.484,-18.555,-18.066,204.590,0.000
1606138875.719,-25.879,-32.227,-22.949,57.129,0.000
1606138875.722,-104.980,-36.133,-31.738,-244.629,0.000
1606138875.726,-98.145,-32.715,-30.762,-291.504,0.000
1606138875.730,-15.137,-31.250,-23.926,-21.973,0.000
1606138875.734,36.133,-36.133,-28.320,206.543,0.000
1606138875.738,-0.977,-33.203,-29.297,120.605,0.000
1606138875.742,-83.008,-30.273,-32.227,-184.570,0.000
1606138875.746,-94.727,-33.691,-30.762,-283.203,0.000
1606138875.750,-22.461,-29.297,-22.949,-41.992,0.000
1606138875.754,39.062,-27.832,-19.531,227.051,0.000
1606138875.758,13.672,-30.273,-20.020,184.570,0.000
1606138875.762,-71.777,-29.785,-20.508,-133.301,0.000
1606138875.765,-101.074,-34.668,-22.949,-292.480,0.000
1606138875.769,-38.574,-39.551,-25.391,-98.633,0.000
1606138875.773,33.691,-23.926,-24.414,192.871,0.000
1606138875.777,22.949,-27.344,-23.926,196.289,0.000
1606138875.781,-57.617,-47.363,-31.250,-103.516,0.000
1606138875.785,-90.332,-34.668,-24.902,-286.133,0.000
1606138875.789,-31.250,-19.531,-18.066,-121.094,0.000
1606138875.793,60.547,-17.578,-20.020,187.500,0.000
1606138875.797,64.941,-23.926,-19.043,229.492,0.000
1606138875.801,-24.414,-31.738,-23.926,-51.270,0.000
1606138875.804,-79.590,-33.203,-28.809,-268.555,0.000
1606138875.808,-41.016,-29.297,-26.855,-155.762,0.000
1606138875.812,38.086,-23.926,-33.203,142.578,0.000
1606138875.816,44.434,-27.344,-37.109,220.703,0.000
1606138875.820,-36.133,-33.691,-34.668,-32.227,0.000
1606138875.824,-105.469,-38.574,-36.133,-291.992,0.000
1606138875.828,-72.754,-39.062,-34.180,-225.586,0.000
1606138875.832,24.414,-25.391,-29.785,102.539,0.000
1606138875.836,46.875,-16.113,-24.414,246.582,0.000
1606138875.840,-31.738,-21.484,-22.949,22.461,0.000
1606138875.844,-109.375,-27.344,-34.180,-273.438,0.000
1606138875.847,-90.820,-35.645,-33.691,-248.047,0.000
1606138875.851,-2.930,-2.441,-26.855,76.660,0.000
1606138875.855,32.227,15.137,-23.926,249.023,0.000
1606138875.859,-27.832,-30.762,-32.227,58.594,0.000
1606138875.863,-106.934,-43.945,-39.551,-252.930,0.000
1606138875.867,-92.285,-34.180,-30.762,-262.695,0.000
1606138875.871,1.465,-25.391,-27.344,44.922,0.000
1606138875.875,54.688,-20.996,-22.949,248.535,0.000
1606138875.879,6.348,-24.414,-24.902,105.957,0.000
1606138875.883,-82.520,-31.738,-29.785,-212.402,0.000
1606138875.887,-91.309,-32.227,-29.297,-285.156,0.000
1606138875.890,-2.441,-22.949,-21.484,-8.301,0.000
1606138875.894,60.059,-17.578,-20.020,239.746,0.000
1606138875.898,15.625,-24.414,-32.227,147.949,0.000
1606138875.902,-80.566,-34.180,-41.016,-183.105,0.000
1606138875.906,-100.586,-37.109,-42.480,-311.523,0.000
1606138875.910,-19.531,-11.230,-41.016,-69.336,0.000
1606138875.914,57.129,4.883,-33.203,213.379,0.000
1606138875.918,18.555,-24.902,-25.391,161.621,0.000
1606138875.922,-83.496,-40.039,-26.855,-163.086,0.000
1606138875.926,-108.887,-39.062,-29.297,-310.059,0.000
1606138875.929,-43.457,-34.668,-22.949,-107.422,0.000
1606138875.933,28.320,-30.762,-14.648,177.734,0.000
1606138875.937,9.766,-29.785,-17.090,168.457,0.000
1606138875.941,-74.219,-28.320,-22.461,-134.277,0.000
1606138875.945,-108.398,-36.621,-28.809,-311.035,0.000
1606138875.949,-52.734,-36.621,-26.367,-148.926,0.000
1606138875.953,26.855,9.277,-23.438,145.508,0.000
1606138875.957,28.809,1.465,-29.785,184.570,0.000
1606138875.961,-59.570,-39.551,-32.227,-94.238,0.000
1606138875.965,-109.375,-39.551,-31.738,-303.711,0.000
1606138875.969,-54.688,-35.156,-29.297,-178.711,0.000
1606138875.972,32.715,-29.297,-19.531,135.254,0.000
1606138875.976,41.504,-30.762,-15.137,230.957,0.000
1606138875.980,-37.109,-35.156,-26.367,-18.555,0.000
1606138875.984,-90.820,-37.109,-25.879,-266.113,0.000
1606138875.988,-55.176,-35.156,-14.160,-189.941,0.000
1606138875.992,26.367,-23.438,-13.184,125.000,0.000
1606138875.996,48.828,-30.273,-18.555,245.605,0.000
1606138876.000,-21.973,-38.574,-21.484,20.996,0.000
1606138876.004,-93.750,-34.180,-24.414,-253.906,0.000
1606138876.008,-69.824,-39.062,-19.531,-228.027,0.000
1606138876.012,12.695,-37.109,-15.137,79.590,0.000
1606138876.015,43.457,-26.855,-19.043,241.699,0.000
1606138876.019,-12.207,-25.879,-26.855,63.477,0.000
1606138876.023,-87.402,-31.250,-33.691,-226.074,0.000
1606138876.027,-76.172,-30.273,-28.320,-249.023,0.000
1606138876.031,15.137,-22.461,-21.973,36.621,0.000
1606138876.035,59.082,-17.090,-22.949,242.676,0.000
1606138876.039,6.836,-23.438,-19.531,111.328,0.000
1606138876.043,-84.961,-34.668,-25.391,-206.055,0.000
1606138876.047,-98.633,-39.551,-30.762,-278.320,0.000
1606138876.051,-17.578,-18.555,-23.926,-11.719,0.000
1606138876.054,45.410,2.441,-20.508,236.816,0.000
1606138876.058,6.348,-21.484,-20.020,144.531,0.000
1606138876.062,-88.379,-36.133,-22.461,-183.105,0.000
1606138876.066,-116.699,-38.086,-34.180,-302.734,0.000
1606138876.070,-39.062,-28.320,-29.785,-55.176,0.000
1606138876.074,32.715,-20.996,-23.926,227.539,0.000
1606138876.078,7.812,-28.320,-26.367,176.758,0.000
1606138876.082,-75.684,-33.691,-22.949,-149.414,0.000
1606138876.086,-105.469,-34.668,-25.879,-302.734,0.000
1606138876.090,-34.668,-30.762,-26.367,-102.539,0.000
1606138876.094,39.062,-23.926,-26.855,185.547,0.000
1606138876.097,19.531,-23.926,-25.391,188.477,0.000
1606138876.101,-65.918,-25.391,-26.855,-107.910,0.000
1606138876.105,-114.258,-36.133,-32.715,-299.805,0.000
1606138876.109,-62.012,-41.992,-28.320,-138.184,0.000
1606138876.113,24.414,-29.785,-20.020,178.711,0.000
1606138876.117,22.461,-27.344,-20.020,220.215,0.000
1606138876.121,-60.059,-35.645,-21.973,-66.406,0.000
1606138876.125,-110.352,-38.086,-20.996,-291.992,0.000
1606138876.129,-56.641,-36.621,-23.438,-168.945,0.000
1606138876.133,36.621,-15.625,-26.855,167.480,0.000
1606138876.137,30.273,-19.043,-27.832,239.258,0.000
1606138876.140,-60.547,-41.504,-28.320,-36.133,0.000
1606138876.144,-118.164,-46.387,-22.461,-280.762,0.000
1606138876.148,-83.008,-46.387,-22.949,-204.590,0.000
1606138876.152,7.324,-34.180,-21.973,112.793,0.000
1606138876.156,32.227,-30.762,-17.090,231.934,0.000
1606138876.160,-35.156,-41.504,-23.926,11.719,0.000
1606138876.164,-105.469,-45.410,-29.297,-262.207,0.000
1606138876.168,-87.891,-42.969,-28.320,-245.605,0.000
1606138876.172,-0.977,-33.691,-30.273,57.617,0.000
1606138876.176,37.109,-26.367,-29.297,233.887,0.000
1606138876.179,-27.832,-28.809,-34.668,54.199,0.000
1606138876.183,-113.770,-34.180,-35.645,-252.441,0.000
1606138876.187,-108.887,-35.645,-34.180,-273.438,0.000
1606138876.191,-15.137,-20.996,-26.367,27.832,0.000
1606138876.195,36.133,-24.414,-20.020,232.422,0.000
1606138876.199,-15.625,-40.039,-16.602,90.820,0.000
1606138876.203,-98.145,-38.574,-16.602,-217.285,0.000
1606138876.207,-95.215,-42.969,-20.996,-277.832,0.000
1606138876.211,-9.766,-23.438,-21.484,0.977,0.000
1606138876.215,43.457,-19.043,-25.391,236.328,0.000
1606138876.219,10.254,-37.109,-20.508,137.695,0.000
1606138876.222,-75.684,-34.180,-26.855,-179.199,0.000
1606138876.226,-96.191,-37.598,-37.109,-293.457,0.000
1606138876.230,-21.973,-18.555,-30.273,-58.594,0.000
1606138876.234,44.434,15.137,-26.855,211.426,0.000
1606138876.238,19.043,-14.648,-30.762,167.969,0.000
1606138876.242,-73.242,-41.504,-33.691,-155.762,0.000
1606138876.246,-107.422,-36.621,-29.785,-314.453,0.000
1606138876.250,-38.086,-33.203,-25.879,-102.539,0.000
1606138876.254,42.969,-28.320,-22.461,202.637,0.000
1606138876.258,28.809,-32.715,-26.367,204.102,0.000
1606138876.262,-59.082,-32.715,-31.250,-108.887,0.000
1606138876.265,-103.027,-30.273,-24.902,-305.664,0.000
1606138876.269,-55.664,-25.879,-23.438,-136.719,0.000
1606138876.273,27.344,-15.625,-27.832,182.617,0.000
1606138876.277,27.832,-26.367,-25.391,227.539,0.000
1606138876.281,-60.059,-35.645,-32.227,-65.430,0.000
1606138876.285,-116.699,-43.945,-37.598,-315.918,0.000
1606138876.289,-63.477,-32.715,-34.180,-201.172,0.000
1606138876.293,31.738,-21.484,-32.227,142.090,0.000
1606138876.297,42.480,-23.926,-26.855,238.770,0.000
1606138876.301,-37.109,-31.250,-24.414,-30.762,0.000
1606138876.304,-105.469,-38.574,-24.414,-296.387,0.000
1606138876.308,-72.266,-34.180,-27.832,-228.516,0.000
1606138876.312,27.832,-28.320,-31.250,107.422,0.000
1606138876.316,57.617,-24.414,-27.344,256.836,0.000
1606138876.320,-17.090,-29.785,-31.738,31.250,0.000
1606138876.324,-100.098,-36.621,-35.156,-269.043,0.000
1606138876.328,-89.844,-41.016,-33.691,-263.184,0.000
1606138876.332,3.906,-24.414,-33.203,57.129,0.000
1606138876.336,50.781,-18.066,-25.879,248.047,0.000
1606138876.340,-6.836,-33.691,-21.973,68.359,0.000
1606138876.344,-90.332,-33.203,-31.250,-237.305,0.000
1606138876.347,-81.543,-35.645,-36.621,-264.160,0.000
1606138876.351,6.348,-34.180,-25.391,34.668,0.000
1606138876.355,58.594,-35.156,-21.484,255.859,0.000
1606138876.359,10.254,-35.645,-24.414,109.375,0.000
1606138876.363,-75.195,-26.367,-25.391,-207.520,0.000
1606138876.367,-81.055,-24.414,-28.809,-266.602,0.000
1606138876.371,-5.859,-18.555,-25.879,-7.812,0.000
1606138876.375,50.781,-10.742,-16.113,227.539,0.000
1606138876.379,12.207,-22.461,-19.043,134.766,0.000
1606138876.383,-78.125,-33.691,-27.832,-181.641,0.000
1606138876.387,-103.027,-44.434,-29.785,-289.062,0.000
1606138876.390,-33.203,-22.949,-27.832,-57.129,0.000
1606138876.394,42.969,-4.395,-22.949,214.844,0.000
1606138876.398,19.043,-20.996,-26.367,162.598,0.000
1606138876.402,-74.707,-30.762,-25.391,-154.785,0.000
1606138876.406,-109.863,-41.992,-29.785,-305.176,0.000
1606138876.410,-47.852,-27.344,-35.645,-104.004,0.000
1606138876.414,26.367,-11.719,-22.461,193.359,0.000
1606138876.418,11.230,-27.344,-24.414,183.594,0.000
1606138876.422,-77.148,-34.668,-34.180,-124.512,0.000
1606138876.426,-118.652,-39.551,-32.715,-315.430,0.000
1606138876.429,-57.617,-25.879,-29.297,-150.391,0.000
1606138876.433,23.926,-16.602,-26.367,161.133,0.000
1606138876.437,20.996,-33.203,-28.320,206.055,0.000
1606138876.441,-63.965,-44.434,-31.250,-77.637,0.000
1606138876.445,-116.699,-46.875,-35.156,-300.781,0.000
1606138876.449,-63.477,-30.762,-26.367,-172.363,0.000
1606138876.453,24.414,-11.719,-14.648,154.785,0.000
1606138876.457,31.738,-24.414,-21.484,242.676,0.000
1606138876.461,-47.852,-37.109,-30.762,-17.090,0.000
1606138876.465,-104.492,-36.621,-31.738,-274.902,0.000
1606138876.469,-60.547,-32.227,-31.250,-199.707,0.000
1606138876.472,29.297,-28.809,-29.785,118.652,0.000
1606138876.476,45.898,-28.320,-23.438,248.535,0.000
1606138876.480,-24.414,-31.738,-26.367,26.367,0.000
1606138876.484,-96.680,-38.086,-28.809,-259.277,0.000
1606138876.488,-75.684,-40.039,-26.367,-234.375,0.000
1606138876.492,12.695,0.488,-25.391,83.008,0.000
1606138876.496,44.922,4.395,-22.461,245.117,0.000
1606138876.500,-14.160,-33.203,-23.926,50.781,0.000
1606138876.504,-93.262,-32.715,-23.926,-242.188,0.000
1606138876.508,-86.426,-35.645,-24.414,-249.512,0.000
1606138876.512,-1.465,-7.812,-26.367,43.457,0.000
1606138876.515,40.527,7.812,-27.832,231.934,0.000
1606138876.519,-17.090,-33.203,-23.926,81.055,0.000
1606138876.523,-101.562,-49.805,-24.902,-228.516,0.000
1606138876.527,-106.934,-46.875,-32.715,-295.410,0.000
1606138876.531,-21.484,-32.715,-27.344,-22.461,0.000
1606138876.535,48.828,-19.531,-22.461,225.586,0.000
1606138876.539,15.625,-29.297,-19.531,141.602,0.000
1606138876.543,-90.820,-38.574,-15.625,-177.246,0.000
1606138876.547,-126.465,-38.086,-20.996,-300.293,0.000
1606138876.551,-54.199,-39.062,-18.066,-66.406,0.000
1606138876.554,12.695,-35.645,-18.555,203.125,0.000
1606138876.558,-12.695,-41.016,-28.320,151.367,0.000
1606138876.562,-104.492,-44.922,-28.320,-168.945,0.000
1606138876.566,-135.742,-47.363,-26.367,-322.266,0.000
1606138876.570,-65.430,-28.320,-22.461,-115.723,0.000
1606138876.574,18.555,-17.090,-22.461,180.664,0.000
1606138876.578,8.789,-35.645,-25.879,175.781,0.000
1606138876.582,-82.520,-48.340,-29.785,-129.883,0.000
1606138876.586,-124.512,-50.293,-31.250,-311.035,0.000
1606138876.590,-68.359,-34.668,-28.320,-145.020,0.000
1606138876.594,24.414,-17.090,-23.926,172.363,0.000
1606138876.597,27.344,-22.949,-21.484,224.609,0.000
1606138876.601,-59.082,-34.180,-21.973,-62.500,0.000
1606138876.605,-109.863,-35.156,-20.508,-290.527,0.000
1606138876.609,-68.359,-35.645,-19.531,-176.270,0.000
1606138876.613,16.113,-17.578,-14.648,143.555,0.000
1606138876.617,30.273,-21.484,-14.160,232.422,0.000
1606138876.621,-38.574,-41.016,-17.090,-22.949,0.000
1606138876.625,-103.027,-42.969,-30.762,-282.715,0.000
1606138876.629,-76.660,-38.086,-34.180,-218.262,0.000
1606138876.633,21.973,-26.855,-25.391,113.770,0.000
1606138876.637,53.711,-20.508,-18.066,252.930,0.000
1606138876.640,-16.602,-22.949,-13.672,26.367,0.000
1606138876.644,-88.867,-32.227,-18.555,-256.348,0.000
1606138876.648,-70.312,-31.738,-18.555,-230.469,0.000
1606138876.652,20.996,-19.043,-12.207,81.543,0.000
1606138876.656,57.129,-18.555,-12.207,253.418,0.000
1606138876.660,-11.719,-28.320,-21.973,62.500,0.000
1606138876.664,-92.773,-32.715,-30.762,-241.699,0.000
1606138876.668,-86.426,-30.273,-28.320,-262.695,0.000
1606138876.672,-6.836,-28.320,-26.367,33.203,0.000
1606138876.676,36.621,-25.879,-24.902,244.629,0.000
1606138876.679,-14.160,-25.391,-19.531,103.516,0.000
1606138876.683,-98.633,-32.715,-24.902,-217.285,0.000
1606138876.687,-101.074,-31.250,-26.855,-288.086,0.000
1606138876.691,-18.555,-30.762,-18.066,-15.137,0.000
1606138876.695,43.945,-27.832,-17.090,232.910,0.000
1606138876.699,2.930,-25.391,-22.461,135.254,0.000
1606138876.703,-92.285,-32.227,-31.250,-204.590,0.000
1606138876.707,-109.375,-39.062,-40.039,-323.730,0.000
1606138876.711,-30.762,-19.531,-36.621,-70.801,0.000
1606138876.715,39.551,0.000,-29.297,204.590,0.000
1606138876.719,19.043,-21.484,-22.461,159.668,0.000
1606138876.722,-73.242,-35.156,-23.926,-157.227,0.000
1606138876.726,-105.469,-31.250,-24.902,-312.012,0.000
1606138876.730,-32.715,-23.926,-20.996,-104.492,0.000
1606138876.734,43.457,-15.625,-19.043,187.500,0.000
1606138876.738,25.879,-19.043,-18.555,187.012,0.000
1606138876.742,-59.570,-24.902,-18.555,-106.445,0.000
1606138876.746,-107.910,-40.527,-27.832,-302.246,0.000
1606138876.750,-56.152,-28.320,-34.180,-147.949,0.000
1606138876.754,24.902,-7.324,-23.926,162.598,0.000
1606138876.758,23.438,-24.902,-21.973,208.496,0.000
1606138876.762,-56.641,-32.227,-27.344,-74.219,0.000
1606138876.765,-108.398,-36.133,-28.320,-295.898,0.000
1606138876.769,-63.477,-38.086,-27.832,-181.152,0.000
1606138876.773,25.879,-31.250,-24.414,145.508,0.000
1606138876.777,37.109,-26.367,-22.461,240.723,0.000
1606138876.781,-46.875,-32.227,-30.762,-23.438,0.000
1606138876.785,-110.352,-38.574,-25.879,-277.832,0.000
1606138876.789,-83.496,-40.039,-22.949,-206.543,0.000
1606138876.793,-9.766,-19.043,-27.832,98.633,0.000
1606138876.797,12.695,-14.648,-20.508,217.773,0.000
1606138876.801,-52.734,-38.086,-20.996,4.395,0.000
1606138876.804,-117.676,-42.969,-25.391,-263.184,0.000
1606138876.808,-85.449,-37.109,-22.949,-234.863,0.000
1606138876.812,6.836,-30.273,-20.020,79.102,0.000
1606138876.816,41.504,-34.668,-19.043,243.652,0.000
1606138876.820,-19.531,-36.621,-28.809,59.570,0.000
1606138876.824,-92.773,-38.086,-35.645,-232.910,0.000
1606138876.828,-78.125,-37.598,-28.320,-258.301,0.000
1606138876.832,8.789,-25.879,-27.344,38.086,0.000
1606138876.836,64.453,-24.902,-19.531,254.883,0.000
1606138876.840,17.578,-31.250,-18.066,108.398,0.000
1606138876.844,-73.242,-32.715,-27.832,-212.891,0.000
1606138876.847,-75.195,-36.133,-25.879,-278.320,0.000
1606138876.851,10.742,-19.043,-21.484,-2.441,0.000
1606138876.855,69.824,-10.742,-19.531,241.699,0.000
1606138876.859,25.391,-27.344,-22.949,144.043,0.000
1606138876.863,-72.754,-31.738,-24.902,-179.199,0.000
1606138876.867,-86.914,-30.273,-21.484,-282.227,0.000
1606138876.871,-13.184,-25.879,-18.066,-44.434,0.000
1606138876.875,48.828,-23.926,-19.531,225.586,0.000
1606138876.879,21.973,-27.344,-24.902,163.086,0.000
1606138876.883,-74.707,-34.668,-21.484,-160.645,0.000
1606138876.887,-107.422,-45.898,-20.996,-295.410,0.000
1606138876.890,-36.133,-34.180,-21.973,-98.633,0.000
1606138876.894,39.551,9.277,-21.484,196.777,0.000
1606138876.898,18.066,-0.488,-21.973,184.570,0.000
1606138876.902,-74.219,-34.180,-30.273,-134.766,0.000
1606138876.906,-123.535,-37.598,-39.551,-328.613,0.000
1606138876.910,-72.266,-33.691,-33.691,-166.016,0.000
1606138876.914,23.926,-27.344,-24.902,162.598,0.000
1606138876.918,23.438,-35.156,-23.438,213.867,0.000
1606138876.922,-68.359,-44.922,-31.738,-84.473,0.000
1606138876.926,-112.793,-40.527,-37.598,-312.012,0.000
1606138876.929,-56.641,-27.344,-27.344,-177.734,0.000
1606138876.933,32.715,-15.137,-27.832,144.531,0.000
1606138876.937,40.527,-26.367,-32.227,226.562,0.000
1606138876.941,-38.574,-39.062,-22.461,-28.809,0.000
1606138876.945,-100.098,-38.086,-14.160,-283.203,0.000
1606138876.949,-67.383,-28.320,-11.719,-215.820,0.000
1606138876.953,26.367,-20.508,-11.719,115.234,0.000
1606138876.957,50.293,-23.926,-13.184,248.535,0.000
1606138876.961,-29.297,-35.645,-20.020,10.742,0.000
1606138876.965,-103.516,-40.039,-26.855,-277.832,0.000
1606138876.969,-81.543,-33.691,-23.438,-250.977,0.000
1606138876.972,14.160,-26.855,-19.043,67.871,0.000
1606138876.976,52.246,-23.926,-19.531,248.047,0.000
1606138876.980,-12.207,-28.320,-18.555,56.641,0.000
1606138876.984,-95.703,-38.574,-20.508,-259.277,0.000
1606138876.988,-93.750,-41.504,-24.902,-287.109,0.000
1606138876.992,-12.207,-19.531,-22.949,8.301,0.000
1606138876.996,38.086,-9.766,-22.949,226.074,0.000
1606138877.000,-8.789,-32.715,-25.879,82.520,0.000
1606138877.004,-95.703,-38.574,-27.832,-235.840,0.000
1606138877.008,-107.422,-34.668,-27.344,-301.758,0.000
1606138877.012,-31.738,-34.180,-24.414,-29.297,0.000
1606138877.015,27.344,-29.785,-23.926,206.543,0.000
1606138877.019,-10.742,-28.320,-26.855,113.281,0.000
1606138877.023,-93.750,-28.320,-28.809,-199.219,0.000
1606138877.027,-105.469,-30.273,-25.879,-307.617,0.000
1606138877.031,-29.297,-25.879,-30.273,-73.242,0.000
1606138877.035,34.180,-24.902,-23.926,183.105,0.000
1606138877.039,9.766,-33.691,-16.602,140.137,0.000
1606138877.043,-76.660,-35.156,-28.320,-166.504,0.000
1606138877.047,-107.422,-33.203,-31.250,-323.242,0.000
1606138877.051,-41.504,-32.227,-21.484,-122.070,0.000
1606138877.054,38.574,-31.738,-18.555,170.898,0.000
1606138877.058,31.250,-33.691,-26.367,174.316,0.000
1606138877.062,-57.617,-39.062,-32.227,-122.559,0.000
1606138877.066,-95.703,-39.062,-29.785,-301.270,0.000
1606138877.070,-26.855,-25.391,-37.598,-119.141,0.000
1606138877.074,48.828,5.371,-39.551,185.547,0.000
1606138877.078,49.805,-0.977,-32.227,228.516,0.000
1606138877.082,-28.320,-24.414,-27.832,-48.828,0.000
1606138877.086,-82.031,-24.902,-21.484,-273.438,0.000
1606138877.090,-32.715,-22.461,-22.461,-154.785,0.000
1606138877.094,48.340,-22.949,-19.531,159.668,0.000
1606138877.097,46.875,-21.484,-17.578,242.188,0.000
1606138877.101,-33.691,-22.461,-20.020,-12.207,0.000
1606138877.105,-99.121,-34.668,-28.809,-271.484,0.000
1606138877.109,-71.289,-33.691,-31.738,-211.426,0.000
1606138877.113,26.367,-19.531,-23.438,123.047,0.000
1606138877.117,55.176,-19.531,-20.508,261.230,0.000
1606138877.121,-23.438,-30.273,-20.996,22.949,0.000
1606138877.125,-99.609,-39.551,-28.320,-260.742,0.000
1606138877.129,-75.684,-32.715,-27.832,-233.887,0.000
1606138877.133,18.555,-9.766,-21.484,77.148,0.000
1606138877.137,55.664,-12.695,-14.648,249.023,0.000
1606138877.140,-9.766,-24.902,-15.625,53.223,0.000
1606138877.144,-96.191,-32.227,-30.762,-258.789,0.000
1606138877.148,-97.168,-40.039,-33.691,-275.879,0.000
1606138877.152,-9.766,-34.668,-22.949,25.879,0.000
1606138877.156,43.457,-29.297,-15.137,236.816,0.000
1606138877.160,-8.789,-25.391,-19.531,99.121,0.000
1606138877.164,-98.633,-26.855,-22.461,-219.238,0.000
1606138877.168,-109.863,-37.598,-25.879,-293.457,0.000
1606138877.172,-31.738,-7.324,-30.762,-23.926,0.000
1606138877.176,31.250,15.625,-23.926,217.285,0.000
1606138877.179,-2.441,-24.414,-24.414,125.977,0.000
1606138877.183,-94.727,-48.828,-35.156,-201.660,0.000
1606138877.187,-112.305,-45.410,-29.785,-308.594,0.000
1606138877.191,-36.621,-36.621,-25.879,-60.547,0.000
1606138877.195,32.227,-34.180,-24.902,211.914,0.000
1606138877.199,13.672,-29.297,-21.973,177.734,0.000
1606138877.203,-74.219,-29.297,-21.973,-136.230,0.000
1606138877.207,-92.285,-37.598,-25.879,-276.367,0.000
1606138877.211,-14.648,-7.324,-33.203,-67.871,0.000
1606138877.215,50.781,6.348,-31.738,194.824,0.000
1606138877.219,33.691,-20.508,-33.691,177.246,0.000
1606138877.222,-46.875,-26.855,-45.898,-119.141,0.000
1606138877.226,-90.820,-29.785,-41.504,-304.688,0.000
1606138877.230,-50.293,-28.320,-30.762,-148.926,0.000
1606138877.234,25.391,-26.367,-29.297,155.273,0.000
1606138877.238,24.414,-23.926,-35.645,197.266,0.000
1606138877.242,-53.711,-22.461,-43.945,-77.637,0.000
1606138877.246,-101.562,-27.344,-48.828,-297.363,0.000
1606138877.250,-59.570,-33.203,-48.828,-185.547,0.000
1606138877.254,31.738,-20.508,-38.574,140.137,0.000
1606138877.258,46.875,-14.648,-38.574,236.328,0.000
1606138877.262,-34.180,-24.414,-41.992,-16.602,0.000
1606138877.265,-96.191,-35.645,-35.156,-278.809,0.000
1606138877.269,-58.105,-31.250,-31.738,-212.402,0.000
1606138877.273,27.832,-1.953,-37.109,113.770,0.000
1606138877.277,50.293,5.371,-29.297,252.930,0.000
1606138877.281,-20.996,-21.484,-36.133,30.273,0.000
1606138877.285,-99.121,-34.180,-51.270,-260.742,0.000
1606138877.289,-78.613,-28.809,-44.922,-236.328,0.000
1606138877.293,13.184,-27.344,-32.227,80.078,0.000
1606138877.297,51.758,-25.879,-26.367,246.094,0.000
1606138877.301,-12.695,-26.855,-34.180,58.105,0.000
1606138877.304,-91.309,-31.738,-35.645,-236.816,0.000
1606138877.308,-84.473,-33.203,-35.645,-263.672,0.000
1606138877.312,-2.930,-15.137,-34.180,32.227,0.000
1606138877.316,49.316,-12.207,-27.344,242.676,0.000
1606138877.320,0.000,-27.344,-25.879,102.539,0.000
1606138877.324,-97.168,-31.250,-29.297,-221.680,0.000
1606138877.328,-96.191,-29.785,-26.855,-286.621,0.000
1606138877.332,0.488,-19.043,-26.367,-4.883,0.000
1606138877.336,58.594,-9.766,-28.320,245.117,0.000
1606138877.340,14.648,-15.625,-24.902,155.273,0.000
1606138877.344,-83.984,-31.250,-30.762,-186.523,0.000
1606138877.347,-104.492,-39.062,-33.691,-311.035,0.000
1606138877.351,-25.391,-23.438,-31.250,-56.152,0.000
1606138877.355,39.062,-14.160,-25.391,216.797,0.000
1606138877.359,14.648,-31.738,-22.461,161.133,0.000
1606138877.363,-74.707,-35.156,-27.344,-165.527,0.000
1606138877.367,-106.445,-31.250,-25.879,-314.453,0.000
1606138877.371,-41.016,-29.785,-22.949,-101.562,0.000
1606138877.375,34.668,-29.785,-27.344,192.871,0.000
1606138877.379,20.996,-33.691,-38.086,185.547,0.000
1606138877.383,-70.312,-38.574,-41.992,-122.559,0.000
1606138877.387,-118.164,-43.457,-34.180,-311.523,0.000
1606138877.390,-52.734,-38.086,-32.227,-147.461,0.000
1606138877.394,39.551,-34.180,-33.691,168.457,0.000
1606138877.398,40.527,-27.344,-26.367,225.586,0.000
1606138877.402,-43.945,-30.273,-28.320,-65.918,0.000
1606138877.406,-96.191,-46.875,-30.273,-301.270,0.000
1606138877.410,-52.734,-25.391,-33.203,-183.594,0.000
1606138877.414,34.668,4.883,-35.645,143.066,0.000
1606138877.418,46.387,-22.461,-27.344,237.793,0.000
1606138877.422,-41.992,-44.434,-36.621,-30.762,0.000
1606138877.426,-112.793,-42.480,-41.016,-289.062,0.000
1606138877.429,-77.148,-36.133,-36.621,-210.449,0.000
1606138877.433,29.297,-31.250,-31.250,120.605,0.000
1606138877.437,57.617,-34.668,-32.227,249.023,0.000
1606138877.441,-19.531,-32.715,-33.691,20.020,0.000
1606138877.445,-89.355,-33.203,-32.227,-247.559,0.000
1606138877.449,-70.312,-38.574,-37.598,-227.539,0.000
1606138877.453,17.578,11.719,-33.691,72.266,0.000
1606138877.457,59.570,16.113,-21.484,240.723,0.000
1606138877.461,-5.371,-31.738,-28.320,52.246,0.000
1606138877.465,-85.938,-40.039,-36.621,-242.188,0.000
1606138877.469,-80.078,-37.598,-31.250,-261.719,0.000
1606138877.472,-2.930,-37.598,-26.855,21.484,0.000
1606138877.476,45.410,-37.109,-22.949,228.027,0.000
1606138877.480,-10.254,-35.156,-31.250,84.961,0.000
1606138877.484,-95.703,-43.457,-42.480,-230.957,0.000
1606138877.488,-91.797,-39.551,-34.668,-283.203,0.000
1606138877.492,-7.812,-24.902,-23.438,1.465,0.000
1606138877.496,49.316,-22.461,-27.344,234.863,0.000
1606138877.500,7.812,-31.250,-28.320,129.395,0.000
1606138877.504,-81.543,-42.480,-27.344,-192.871,0.000
1606138877.508,-97.168,-44.434,-30.273,-304.688,0.000
1606138877.512,-27.344,-20.020,-27.832,-57.129,0.000
1606138877.515,38.574,-14.648,-21.973,212.402,0.000
1606138877.519,12.207,-42.480,-28.809,151.855,0.000
1606138877.523,-78.613,-51.758,-37.598,-171.387,0.000
1606138877.527,-111.328,-49.316,-30.762,-321.777,0.000
1606138877.531,-42.480,-36.621,-30.273,-112.793,0.000
1606138877.535,39.551,-28.809,-35.645,190.918,0.000
1606138877.539,29.297,-28.809,-32.715,199.219,0.000
1606138877.543,-66.895,-34.180,-41.992,-120.605,0.000
1606138877.547,-112.793,-48.828,-41.992,-318.848,0.000
1606138877.551,-53.711,-35.156,-29.297,-150.879,0.000
1606138877.554,27.832,-0.977,-30.762,156.250,0.000
1606138877.558,27.344,-17.090,-33.203,204.102,0.000
1606138877.562,-59.570,-43.457,-30.762,-79.102,0.000
1606138877.566,-119.629,-47.363,-36.133,-313.965,0.000
1606138877.570,-66.406,-41.504,-32.715,-187.988,0.000
1606138877.574,29.297,-32.715,-20.996,145.020,0.000
1606138877.578,37.109,-33.203,-23.926,230.469,0.000
1606138877.582,-37.109,-37.109,-28.809,-24.414,0.000
1606138877.586,-95.215,-42.969,-31.738,-268.066,0.000
1606138877.590,-68.359,-31.738,-33.691,-202.637,0.000
1606138877.594,16.113,-7.812,-22.461,113.770,0.000
1606138877.597,48.828,-20.996,-17.090,251.953,0.000
1606138877.601,-18.555,-31.250,-17.578,32.227,0.000
1606138877.605,-99.121,-34.180,-21.484,-255.859,0.000
1606138877.609,-77.637,-32.227,-25.391,-230.957,0.000
1606138877.613,17.578,-29.785,-23.926,84.473,0.000
1606138877.617,52.246,-26.855,-20.508,258.789,0.000
1606138877.621,-16.602,-29.297,-23.438,68.359,0.000
1606138877.625,-96.680,-36.133,-30.273,-248.047,0.000
1606138877.629,-83.008,-28.809,-26.855,-266.602,0.000
1606138877.633,4.395,-7.812,-22.461,37.598,0.000
1606138877.637,49.316,-13.672,-24.414,241.211,0.000
1606138877.640,-2.441,-31.738,-33.691,86.914,0.000
1606138877.644,-83.496,-37.109,-38.574,-234.863,0.000
1606138877.648,-88.867,-38.574,-34.668,-292.969,0.000
1606138877.652,-14.160,-32.227,-29.785,-22.461,0.000
1606138877.656,37.598,-30.273,-31.738,209.473,0.000
1606138877.660,-0.488,-32.227,-34.668,118.164,0.000
1606138877.664,-84.961,-34.180,-33.203,-193.848,0.000
1606138877.668,-104.492,-30.762,-36.133,-302.246,0.000
1606138877.672,-36.133,-26.855,-37.109,-68.848,0.000
1606138877.676,29.297,-24.902,-32.227,200.684,0.000
1606138877.679,5.371,-24.414,-32.715,165.527,0.000
1606138877.683,-83.984,-34.180,-41.504,-160.156,0.000
1606138877.687,-120.117,-41.016,-38.086,-310.059,0.000
1606138877.691,-51.758,-24.414,-31.738,-98.633,0.000
1606138877.695,30.273,-14.648,-26.855,188.477,0.000
1606138877.699,15.137,-30.762,-29.785,188.965,0.000
1606138877.703,-72.266,-38.086,-31.738,-104.004,0.000
1606138877.707,-112.793,-37.598,-27.344,-294.434,0.000
1606138877.711,-56.641,-36.621,-29.297,-137.695,0.000
1606138877.715,23.438,-31.250,-29.297,170.898,0.000
1606138877.719,24.902,-30.273,-25.391,216.309,0.000
1606138877.722,-54.199,-28.809,-24.414,-62.988,0.000
1606138877.726,-104.492,-28.809,-25.391,-279.297,0.000
1606138877.730,-62.012,-14.648,-28.320,-164.551,0.000
1606138877.734,22.949,12.207,-18.066,145.996,0.000
1606138877.738,40.039,-11.719,-13.184,233.887,0.000
1606138877.742,-40.527,-32.227,-21.484,-20.508,0.000
1606138877.746,-107.422,-23.926,-26.855,-276.367,0.000
1606138877.750,-75.684,-21.973,-21.484,-208.496,0.000
1606138877.754,16.602,-24.902,-16.113,108.398,0.000
1606138877.758,45.410,-24.414,-19.531,246.582,0.000
1606138877.762,-30.273,-27.832,-19.043,21.973,0.000
1606138877.765,-101.562,-40.527,-13.672,-261.230,0.000
1606138877.769,-75.195,-26.367,-21.973,-228.516,0.000
1606138877.773,18.066,0.000,-28.320,79.102,0.000
1606138877.777,55.176,-13.672,-29.297,234.375,0.000
1606138877.781,-4.883,-17.578,-33.203,47.852,0.000
1606138877.785,-81.543,-21.484,-32.227,-251.465,0.000
1606138877.789,-86.426,-37.109,-28.320,-274.414,0.000
1606138877.793,-11.230,-36.133,-19.531,17.578,0.000
1606138877.797,44.922,-31.250,-13.672,232.910,0.000
1606138877.801,-7.324,-38.574,-21.484,81.543,0.000
1606138877.804,-95.215,-38.086,-28.809,-239.258,0.000
1606138877.808,-90.332,-30.273,-27.344,-283.203,0.000
1606138877.812,-9.277,-27.832,-23.438,-13.672,0.000
1606138877.816,50.781,-24.902,-25.391,233.887,0.000
1606138877.820,19.043,-17.578,-25.879,159.668,0.000
1606138877.824,-81.055,-27.832,-31.250,-176.270,0.000
1606138877.828,-109.863,-46.387,-36.133,-308.105,0.000
1606138877.832,-30.762,-17.090,-28.809,-64.941,0.000
1606138877.836,42.480,0.977,-19.531,210.938,0.000
1606138877.840,12.695,-28.809,-24.414,163.086,0.000
1606138877.844,-82.520,-41.016,-41.504,-166.992,0.000
1606138877.847,-117.676,-42.969,-45.898,-323.242,0.000
1606138877.851,-47.852,-36.621,-40.527,-111.816,0.000
1606138877.855,39.062,-27.344,-30.762,186.523,0.000
1606138877.859,21.973,-26.367,-30.273,163.086,0.000
1606138877.863,-66.895,-32.227,-44.434,-145.020,0.000
1606138877.867,-95.215,-36.621,-45.410,-293.457,0.000
1606138877.871,-42.969,-28.320,-39.551,-138.672,0.000
1606138877.875,33.691,-22.461,-36.621,146.973,0.000
1606138877.879,35.645,-29.785,-35.645,192.383,0.000
1606138877.883,-44.922,-28.320,-33.203,-69.336,0.000
1606138877.887,-98.145,-26.855,-33.203,-281.250,0.000
1606138877.890,-55.664,-28.320,-34.180,-168.457,0.000
1606138877.894,26.855,-28.320,-33.203,137.207,0.000
1606138877.898,35.156,-26.855,-28.320,226.074,0.000
1606138877.902,-39.062,-33.203,-23.926,-21.973,0.000
1606138877.906,-98.145,-41.504,-22.949,-271.973,0.000
1606138877.910,-65.918,-27.832,-27.832,-195.801,0.000
1606138877.914,24.902,-14.160,-21.973,127.930,0.000
1606138877.918,42.480,-28.320,-21.484,247.070,0.000
1606138877.922,-33.691,-41.992,-20.020,12.207,0.000
1606138877.926,-105.957,-44.434,-23.438,-261.230,0.000
1606138877.929,-85.938,-31.250,-35.645,-227.539,0.000
1606138877.933,3.906,-10.742,-26.855,81.543,0.000
1606138877.937,36.621,-15.625,-24.902,249.023,0.000
1606138877.941,-29.785,-32.227,-28.320,59.570,0.000
1606138877.945,-113.281,-39.551,-33.203,-244.629,0.000
1606138877.949,-112.305,-40.039,-38.574,-268.555,0.000
1606138877.953,-23.926,-31.250,-29.297,25.879,0.000
1606138877.957,28.320,-24.414,-21.973,238.770,0.000
1606138877.961,-17.090,-21.484,-29.297,103.027,0.000
1606138877.965,-99.609,-27.344,-28.809,-215.820,0.000
1606138877.969,-94.727,-32.227,-19.531,-282.715,0.000
1606138877.972,-12.695,-19.531,-26.367,-12.695,0.000
1606138877.976,41.016,-15.625,-29.297,223.145,0.000
1606138877.980,10.254,-31.738,-23.926,126.953,0.000
1606138877.984,-72.266,-38.086,-29.297,-192.871,0.000
1606138877.988,-86.914,-31.738,-38.574,-307.129,0.000
1606138877.992,-9.277,-24.902,-38.086,-69.336,0.000
1606138877.996,60.547,-17.090,-33.203,205.566,0.000
1606138878.000,34.180,-19.043,-33.691,160.156,0.000
1606138878.004,-54.688,-23.438,-33.203,-150.391,0.000
1606138878.008,-87.402,-28.320,-30.762,-290.039,0.000
1606138878.012,-20.020,-11.230,-25.391,-83.496,0.000
1606138878.015,53.711,0.488,-25.391,206.055,0.000
1606138878.019,31.738,-23.926,-32.227,192.871,0.000
1606138878.023,-60.059,-35.156,-37.598,-114.746,0.000
1606138878.027,-98.633,-32.227,-37.109,-292.969,0.000
1606138878.031,-41.504,-31.250,-35.645,-126.953,0.000
1606138878.035,38.086,-32.227,-32.227,174.316,0.000
1606138878.039,34.668,-25.879,-20.996,213.379,0.000
1606138878.043,-49.316,-23.926,-20.020,-65.430,0.000
1606138878.047,-98.633,-29.297,-27.832,-294.922,0.000
1606138878.051,-54.688,-23.438,-24.414,-176.270,0.000
1606138878.054,34.180,-18.066,-19.043,151.367,0.000
1606138878.058,43.945,-28.320,-24.414,226.562,0.000
1606138878.062,-41.992,-32.227,-32.227,-39.062,0.000
1606138878.066,-103.027,-34.668,-32.715,-293.945,0.000
1606138878.070,-69.336,-31.738,-27.344,-216.309,0.000
1606138878.074,10.254,-25.391,-25.391,107.910,0.000
1606138878.078,31.738,-26.367,-25.391,235.352,0.000
1606138878.082,-35.156,-25.391,-21.973,8.789,0.000
1606138878.086,-106.445,-34.668,-29.785,-270.020,0.000
1606138878.090,-84.961,-34.668,-42.480,-246.582,0.000
1606138878.094,13.672,-27.832,-31.250,68.359,0.000
1606138878.097,56.152,-31.250,-25.879,239.746,0.000
1606138878.101,-0.977,-28.320,-24.902,62.500,0.000
1606138878.105,-76.660,-33.203,-22.949,-227.051,0.000
1606138878.109,-74.707,-29.785,-26.367,-257.324,0.000
1606138878.113,11.230,25.879,-24.902,33.691,0.000
1606138878.117,67.871,22.949,-22.949,251.953,0.000
1606138878.121,18.066,-29.785,-24.414,107.422,0.000
1606138878.125,-74.707,-37.598,-30.273,-212.891,0.000
1606138878.129,-84.473,-38.574,-28.809,-273.438,0.000
1606138878.133,-6.836,-28.320,-22.461,0.000,0.000
1606138878.137,46.387,-24.902,-18.066,238.281,0.000
1606138878.140,13.184,-29.785,-17.578,143.066,0.000
1606138878.144,-73.242,-35.156,-26.367,-172.852,0.000
1606138878.148,-97.168,-43.945,-30.273,-281.738,0.000
1606138878.152,-23.926,-18.555,-24.902,-46.875,0.000
1606138878.156,47.363,-16.113,-23.926,220.215,0.000
1606138878.160,23.438,-40.527,-25.391,173.828,0.000
1606138878.164,-71.777,-42.480,-31.738,-149.414,0.000
1606138878.168,-106.934,-45.410,-31.738,-308.594,0.000
1606138878.172,-33.691,-36.133,-25.879,-97.656,0.000
1606138878.176,43.945,-30.762,-20.508,195.801,0.000
1606138878.179,36.133,-28.320,-21.973,200.195,0.000
1606138878.183,-42.480,-26.855,-20.996,-104.980,0.000
1606138878.187,-95.215,-30.273,-23.438,-314.453,0.000
1606138878.191,-46.875,-21.484,-33.203,-146.973,0.000
1606138878.195,45.898,-11.230,-23.438,181.641,0.000
1606138878.199,40.527,-18.555,-24.902,211.426,0.000
1606138878.203,-56.152,-28.320,-34.180,-95.215,0.000
1606138878.207,-110.840,-37.598,-29.297,-328.613,0.000
1606138878.211,-62.988,-17.090,-27.832,-205.078,0.000
1606138878.215,32.227,5.859,-22.949,135.254,0.000
1606138878.219,52.734,-14.160,-16.113,238.770,0.000
1606138878.222,-37.598,-30.762,-17.090,-36.621,0.000
1606138878.226,-110.840,-35.645,-26.855,-308.105,0.000
1606138878.230,-76.172,-37.598,-32.715,-233.887,0.000
1606138878.234,15.625,-35.156,-24.414,97.656,0.000
1606138878.238,53.711,-29.785,-16.602,254.883,0.000
1606138878.242,-17.578,-29.785,-20.508,38.086,0.000
1606138878.246,-104.004,-39.551,-31.250,-270.996,0.000
1606138878.250,-82.520,-27.832,-31.250,-248.047,0.000
1606138878.254,14.648,-8.301,-25.391,86.914,0.000
1606138878.258,59.082,-20.508,-20.508,277.344,0.000
1606138878.262,0.977,-32.715,-12.207,94.238,0.000
1606138878.265,-85.449,-40.039,-18.555,-224.121,0.000
1606138878.269,-83.008,-34.180,-26.855,-262.207,0.000
1606138878.273,4.395,-26.855,-22.949,42.480,0.000
1606138878.277,55.176,-26.855,-19.531,275.391,0.000
1606138878.281,-1.465,-33.691,-24.902,118.164,0.000
1606138878.285,-99.609,-42.969,-34.180,-222.168,0.000
1606138878.289,-102.051,-37.598,-30.762,-274.414,0.000
1606138878.293,-10.254,2.441,-24.902,5.859,0.000
1606138878.297,47.852,0.488,-28.320,236.328,0.000
1606138878.301,1.953,-42.480,-31.738,125.000,0.000
1606138878.304,-85.449,-46.387,-35.645,-199.219,0.000
1606138878.308,-101.074,-42.480,-32.715,-300.781,0.000
1606138878.312,-25.391,-38.086,-23.926,-56.641,0.000
1606138878.316,42.480,-34.668,-30.762,207.031,0.000
1606138878.320,10.742,-35.645,-37.109,152.344,0.000
1606138878.324,-79.590,-37.598,-40.039,-168.457,0.000
1606138878.328,-103.027,-38.086,-32.227,-304.688,0.000
1606138878.332,-27.344,-20.996,-21.484,-84.961,0.000
1606138878.336,49.316,-19.043,-21.484,204.590,0.000
1606138878.340,34.180,-28.809,-24.902,188.965,0.000
1606138878.344,-54.688,-30.762,-35.645,-111.328,0.000
1606138878.347,-104.980,-40.039,-43.945,-296.387,0.000
1606138878.351,-46.875,-24.414,-42.969,-138.184,0.000
1606138878.355,39.062,-17.090,-34.180,163.086,0.000
1606138878.359,30.273,-38.086,-26.855,196.289,0.000
1606138878.363,-58.105,-41.504,-33.203,-86.426,0.000
1606138878.367,-102.539,-36.133,-31.738,-293.457,0.000
1606138878.371,-52.734,-26.367,-24.414,-167.480,0.000
1606138878.375,31.250,-23.438,-25.391,143.555,0.000
1606138878.379,40.527,-28.809,-28.320,225.586,0.000
1606138878.383,-41.016,-30.273,-32.227,-27.344,0.000
1606138878.387,-104.980,-46.387,-36.621,-277.344,0.000
1606138878.390,-72.266,-23.926,-36.621,-210.449,0.000
1606138878.394,13.184,26.367,-33.203,110.840,0.000
1606138878.398,33.203,-13.184,-24.902,234.375,0.000
1606138878.402,-41.992,-55.664,-20.508,1.465,0.000
1606138878.406,-111.328,-48.340,-23.926,-268.555,0.000
1606138878.410,-87.891,-32.715,-24.902,-238.281,0.000
1606138878.414,-0.488,-27.832,-18.555,76.172,0.000
1606138878.418,34.668,-33.691,-16.113,244.141,0.000
1606138878.422,-23.926,-36.133,-19.043,52.246,0.000
1606138878.426,-99.121,-38.574,-18.555,-239.746,0.000
1606138878.429,-94.727,-30.273,-20.996,-248.535,0.000
1606138878.433,-18.555,-17.578,-32.715,36.621,0.000
1606138878.437,29.297,-31.250,-30.762,233.398,0.000
1606138878.441,-17.578,-45.898,-19.531,94.727,0.000
1606138878.445,-101.562,-50.293,-23.926,-217.773,0.000
1606138878.449,-99.609,-46.875,-33.691,-272.461,0.000
1606138878.453,-19.043,-38.574,-30.273,12.207,0.000
1606138878.457,36.621,-30.273,-20.508,241.699,0.000
1606138878.461,3.906,-32.715,-20.508,135.742,0.000
1606138878.465,-81.055,-39.551,-26.855,-177.246,0.000
1606138878.469,-103.027,-39.062,-33.203,-281.738,0.000
1606138878.472,-26.855,-33.691,-28.320,-40.039,0.000
1606138878.476,43.945,-30.762,-21.973,229.492,0.000
1606138878.480,8.789,-38.086,-24.902,170.410,0.000
1606138878.484,-80.566,-40.039,-30.273,-156.250,0.000
1606138878.488,-106.934,-40.039,-32.715,-309.570,0.000
1606138878.492,-36.621,-9.766,-31.250,-96.680,0.000
1606138878.496,39.062,7.812,-25.879,198.730,0.000
1606138878.500,24.902,-20.996,-22.461,191.895,0.000
1606138878.504,-52.734,-29.785,-28.320,-118.652,0.000
1606138878.508,-97.656,-32.715,-30.762,-303.223,0.000
1606138878.512,-45.898,-31.738,-27.832,-130.371,0.000
1606138878.515,35.156,-29.785,-22.949,168.457,0.000
1606138878.519,28.320,-31.250,-25.879,204.590,0.000
1606138878.523,-58.594,-36.133,-34.668,-79.590,0.000
1606138878.527,-110.352,-46.875,-38.574,-308.594,0.000
1606138878.531,-64.941,-25.879,-37.109,-188.477,0.000
1606138878.535,16.602,-11.719,-25.879,129.395,0.000
1606138878.539,24.414,-32.715,-23.926,218.262,0.000
1606138878.543,-56.152,-38.574,-35.156,-44.434,0.000
1606138878.547,-109.375,-39.062,-34.668,-291.016,0.000
1606138878.551,-68.848,-35.156,-33.203,-207.031,0.000
1606138878.554,20.020,-28.809,-32.227,113.281,0.000
1606138878.558,50.781,-24.902,-26.367,247.070,0.000
1606138878.562,-16.113,-27.344,-24.414,21.484,0.000
1606138878.566,-83.984,-44.922,-30.273,-247.070,0.000
1606138878.570,-58.105,-12.207,-31.738,-203.613,0.000
1606138878.574,23.438,20.508,-26.855,101.562,0.000
1606138878.578,57.129,-24.902,-23.438,249.023,0.000
1606138878.582,-4.395,-32.227,-20.996,57.129,0.000
1606138878.586,-84.961,-35.156,-22.461,-233.887,0.000
1606138878.590,-83.496,-29.785,-26.855,-254.883,0.000
1606138878.594,-0.977,-5.859,-25.879,36.621,0.000
1606138878.597,46.875,-25.391,-15.137,241.211,0.000
1606138878.601,-9.277,-41.992,-16.602,96.191,0.000
1606138878.605,-89.844,-47.852,-31.250,-215.820,0.000
1606138878.609,-85.938,-47.363,-33.203,-272.461,0.000
1606138878.613,4.883,-37.598,-29.297,9.766,0.000
1606138878.617,64.941,-34.180,-26.367,242.188,0.000
1606138878.621,11.719,-34.668,-20.996,126.953,0.000
1606138878.625,-87.402,-38.086,-29.785,-203.613,0.000
1606138878.629,-101.562,-32.715,-37.598,-310.547,0.000
1606138878.633,-20.508,5.371,-25.391,-51.758,0.000
1606138878.637,37.109,-2.930,-17.578,213.379,0.000
1606138878.640,0.488,-35.645,-26.855,142.578,0.000
1606138878.644,-86.426,-41.504,-35.645,-176.758,0.000
1606138878.648,-109.375,-39.551,-29.785,-307.129,0.000
1606138878.652,-44.922,-29.785,-31.738,-93.750,0.000
1606138878.656,24.414,-28.809,-34.668,183.594,0.000
1606138878.660,8.789,-32.227,-27.344,173.340,0.000
1606138878.664,-75.195,-33.203,-31.738,-124.512,0.000
1606138878.668,-117.676,-39.551,-36.621,-310.059,0.000
1606138878.672,-67.383,-34.668,-41.016,-156.250,0.000
1606138878.676,15.625,-21.484,-41.504,147.949,0.000
1606138878.679,19.531,-31.250,-33.203,194.824,0.000
1606138878.683,-62.988,-40.039,-34.668,-91.797,0.000
1606138878.687,-116.699,-37.598,-40.039,-311.035,0.000
1606138878.691,-66.895,-35.156,-42.969,-187.988,0.000
1606138878.695,27.832,-26.367,-39.062,136.719,0.000
1606138878.699,36.133,-25.391,-29.785,224.121,0.000
1606138878.703,-45.410,-31.738,-29.297,-44.434,0.000
1606138878.707,-105.469,-27.832,-34.180,-290.039,0.000
1606138878.711,-74.707,-25.391,-38.086,-204.590,0.000
1606138878.715,14.160,-28.320,-36.621,118.164,0.000
1606138878.719,46.875,-30.273,-29.297,249.023,0.000
1606138878.722,-27.832,-32.715,-35.156,4.883,0.000
1606138878.726,-112.305,-37.109,-42.480,-291.992,0.000
1606138878.730,-95.215,-32.715,-41.016,-258.789,0.000
1606138878.734,-1.953,-29.785,-34.668,67.871,0.000
1606138878.738,36.621,-24.902,-28.320,243.164,0.000
1606138878.742,-26.367,-26.367,-31.738,49.316,0.000
1606138878.746,-98.145,-33.203,-32.715,-250.000,0.000
1606138878.750,-83.008,-34.668,-22.949,-261.230,0.000
1606138878.754,-0.488,-39.062,-24.902,41.992,0.000
1606138878.758,47.363,-35.645,-30.273,252.441,0.000
1606138878.762,-1.953,-34.180,-26.855,103.516,0.000
1606138878.765,-92.773,-39.062,-21.484,-226.562,0.000
1606138878.769,-98.145,-33.203,-21.973,-288.086,0.000
1606138878.773,-7.812,-3.906,-24.902,10.742,0.000
1606138878.777,50.293,-5.371,-24.902,249.023,0.000
1606138878.781,2.441,-34.668,-32.715,129.883,0.000
1606138878.785,-89.844,-38.574,-31.738,-200.195,0.000
1606138878.789,-108.398,-38.086,-20.996,-291.992,0.000
1606138878.793,-35.156,-37.598,-20.508,-35.156,0.000
1606138878.797,35.645,-31.738,-20.020,230.957,0.000
1606138878.801,14.648,-29.785,-17.090,181.641,0.000
1606138878.804,-77.637,-33.691,-25.391,-136.719,0.000
1606138878.808,-109.863,-39.551,-33.203,-292.480,0.000
1606138878.812,-39.551,-20.508,-33.203,-92.773,0.000
1606138878.816,42.480,-11.230,-29.297,202.148,0.000
1606138878.820,25.391,-30.762,-24.414,193.848,0.000
1606138878.824,-65.430,-34.180,-30.762,-121.582,0.000
1606138878.828,-101.562,-34.180,-35.156,-306.641,0.000
1606138878.832,-37.109,-31.738,-31.738,-127.930,0.000
1606138878.836,43.945,-25.391,-29.297,182.129,0.000
1606138878.840,34.668,-29.785,-27.344,217.773,0.000
1606138878.844,-44.434,-28.320,-30.762,-61.523,0.000
1606138878.847,-87.891,-32.715,-35.156,-273.926,0.000
1606138878.851,-45.410,-8.789,-34.668,-138.184,0.000
1606138878.855,35.645,9.277,-33.203,176.758,0.000
1606138878.859,36.621,-22.461,-30.762,237.305,0.000
1606138878.863,-45.898,-26.367,-31.250,-26.855,0.000
1606138878.867,-101.074,-24.414,-35.156,-251.465,0.000
1606138878.871,-63.965,-22.949,-33.691,-168.457,0.000
1606138878.875,24.902,-19.043,-28.809,148.926,0.000
1606138878.879,49.316,-23.438,-18.555,276.367,0.000
1606138878.883,-24.902,-30.762,-19.043,42.480,0.000
1606138878.887,-99.121,-36.133,-27.832,-238.770,0.000
1606138878.890,-78.613,-33.203,-28.809,-209.961,0.000
1606138878.894,10.742,-24.414,-23.438,114.746,0.000
1606138878.898,38.574,-20.508,-30.762,275.391,0.000
1606138878.902,-31.250,-25.391,-33.691,61.523,0.000
1606138878.906,-106.934,-41.016,-26.855,-238.770,0.000
1606138878.910,-101.074,-17.090,-25.879,-248.535,0.000
1606138878.914,-15.137,17.090,-25.391,60.547,0.000
1606138878.918,32.227,-14.648,-19.043,267.090,0.000
1606138878.922,-18.555,-37.598,-18.066,104.492,0.000
1606138878.926,-98.633,-40.039,-28.320,-216.309,0.000
1606138878.929,-103.516,-34.668,-28.809,-270.996,0.000
1606138878.933,-17.090,-30.762,-23.926,11.719,0.000
1606138878.937,46.387,-30.762,-30.273,255.371,0.000
1606138878.941,5.859,-30.762,-29.785,146.973,0.000
1606138878.945,-79.590,-31.738,-27.344,-181.152,0.000
1606138878.949,-92.773,-29.297,-33.203,-292.480,0.000
1606138878.953,-15.137,21.973,-31.250,-46.387,0.000
1606138878.957,57.129,24.414,-15.137,235.840,0.000
1606138878.961,20.020,-29.785,-14.160,173.340,0.000
1606138878.965,-82.520,-44.922,-25.879,-170.898,0.000
1606138878.969,-113.770,-46.875,-32.715,-333.984,0.000
1606138878.972,-40.039,-36.621,-29.297,-115.723,0.000
1606138878.976,38.574,-28.320,-18.555,188.477,0.000
1606138878.980,20.996,-30.273,-21.973,169.922,0.000
1606138878.984,-70.312,-40.039,-31.250,-151.367,0.000
1606138878.988,-108.398,-43.457,-31.250,-337.402,0.000
1606138878.992,-42.969,-12.207,-26.855,-158.691,0.000
1606138878.996,37.109,-9.766,-24.902,157.715,0.000
1606138879.000,32.227,-32.227,-22.461,198.730,0.000
1606138879.004,-55.176,-36.621,-19.043,-101.074,0.000
1606138879.008,-108.398,-43.457,-28.320,-331.055,0.000
1606138879.012,-58.105,-39.062,-25.879,-202.637,0.000
1606138879.015,24.902,-33.691,-15.137,128.418,0.000
1606138879.019,30.273,-34.668,-22.461,210.938,0.000
1606138879.023,-52.734,-38.086,-25.391,-58.105,0.000
1606138879.027,-120.117,-39.551,-28.809,-313.965,0.000
1606138879.031,-87.402,-41.992,-32.227,-232.422,0.000
1606138879.035,3.906,-36.133,-25.879,93.262,0.000
1606138879.039,32.227,-29.297,-24.902,220.215,0.000
1606138879.043,-37.598,-31.250,-25.879,-6.348,0.000
1606138879.047,-106.445,-38.086,-27.832,-292.969,0.000
1606138879.051,-82.520,-21.484,-31.250,-262.207,0.000
1606138879.054,5.859,8.301,-27.344,66.406,0.000
1606138879.058,46.387,-11.230,-16.602,231.445,0.000
1606138879.062,-15.137,-31.250,-20.020,29.785,0.000
1606138879.066,-98.145,-37.109,-30.762,-268.555,0.000
1606138879.070,-83.496,-37.109,-20.020,-270.508,0.000
1606138879.074,2.441,-30.762,-12.207,29.297,0.000
1606138879.078,39.062,-30.762,-22.949,217.773,0.000
1606138879.082,-12.695,-35.645,-29.785,70.312,0.000
1606138879.086,-93.262,-45.898,-35.645,-239.746,0.000
1606138879.090,-91.309,-33.691,-34.180,-301.270,0.000
1606138879.094,-8.789,-5.859,-33.691,-27.832,0.000
1606138879.097,47.363,-23.926,-27.832,203.125,0.000
1606138879.101,5.371,-38.086,-21.973,102.539,0.000
1606138879.105,-85.449,-35.645,-25.391,-215.332,0.000
1606138879.109,-100.586,-30.273,-28.320,-318.848,0.000
1606138879.113,-23.926,-28.809,-24.902,-70.312,0.000
1606138879.117,48.828,-24.902,-12.207,200.684,0.000
1606138879.121,20.508,-23.438,-20.996,145.996,0.000
1606138879.125,-78.125,-37.598,-34.668,-172.852,0.000
1606138879.129,-107.422,-42.480,-27.832,-304.688,0.000
1606138879.133,-38.086,-3.418,-24.414,-74.707,0.000
1606138879.137,30.762,-2.441,-27.832,207.520,0.000
1606138879.140,5.371,-33.691,-25.879,182.617,0.000
1606138879.144,-82.031,-38.086,-28.320,-130.859,0.000
1606138879.148,-116.211,-37.109,-37.109,-308.594,0.000
1606138879.152,-56.641,-21.973,-27.832,-126.953,0.000
1606138879.156,25.391,-25.391,-18.066,177.246,0.000
1606138879.160,25.391,-34.668,-21.973,203.613,0.000
1606138879.164,-58.105,-29.785,-23.438,-89.355,0.000
1606138879.168,-105.469,-25.391,-26.367,-301.758,0.000
1606138879.172,-52.734,-26.855,-16.602,-163.086,0.000
1606138879.176,29.785,-29.785,-15.625,158.203,0.000
1606138879.179,28.320,-28.320,-29.785,229.492,0.000
1606138879.183,-54.199,-36.621,-31.250,-46.875,0.000
1606138879.187,-110.840,-41.504,-27.344,-289.551,0.000
1606138879.191,-77.637,-33.203,-30.762,-204.102,0.000
1606138879.195,11.230,-24.414,-26.855,114.746,0.000
1606138879.199,36.133,-31.738,-26.855,234.375,0.000
1606138879.203,-26.855,-38.574,-28.809,2.930,0.000
1606138879.207,-90.332,-33.203,-26.367,-262.207,0.000
1606138879.211,-71.777,-29.785,-23.926,-221.680,0.000
1606138879.215,13.672,-30.762,-24.902,87.402,0.000
1606138879.219,41.504,-28.809,-25.879,241.699,0.000
1606138879.222,-21.973,-32.715,-29.785,44.922,0.000
1606138879.226,-102.539,-37.598,-38.574,-250.488,0.000
1606138879.230,-100.586,-28.809,-35.156,-260.254,0.000
1606138879.234,-14.648,-20.020,-33.203,40.527,0.000
1606138879.238,29.785,-28.320,-30.273,237.793,0.000
1606138879.242,-19.043,-33.691,-27.832,86.914,0.000
1606138879.246,-94.727,-33.203,-28.320,-216.797,0.000
1606138879.250,-91.309,-35.645,-24.902,-263.672,0.000
1606138879.254,-4.883,-30.273,-22.949,14.160,0.000
1606138879.258,45.410,-25.391,-20.996,245.117,0.000
1606138879.262,-0.977,-24.902,-24.902,133.789,0.000
1606138879.265,-84.473,-36.133,-26.855,-188.965,0.000
1606138879.269,-90.820,-36.621,-26.367,-273.438,0.000
1606138879.273,-17.578,-16.113,-31.738,-19.043,0.000
1606138879.277,41.016,-22.949,-26.855,230.957,0.000
1606138879.281,20.020,-31.250,-24.902,168.945,0.000
1606138879.285,-68.359,-37.109,-31.250,-154.785,0.000
1606138879.289,-96.191,-40.527,-27.344,-296.875,0.000
1606138879.293,-24.902,-37.598,-21.973,-85.449,0.000
1606138879.297,41.504,-32.227,-21.973,193.848,0.000
1606138879.301,21.484,-26.367,-24.902,178.223,0.000
1606138879.304,-62.500,-30.762,-25.391,-128.906,0.000
1606138879.308,-103.027,-35.156,-26.855,-303.711,0.000
1606138879.312,-42.969,-29.785,-25.879,-127.930,0.000
1606138879.316,34.180,-20.020,-19.531,169.922,0.000
1606138879.320,22.949,-21.484,-19.043,198.242,0.000
1606138879.324,-59.570,-27.832,-25.391,-94.238,0.000
1606138879.328,-113.281,-39.551,-32.715,-319.824,0.000
1606138879.332,-66.406,-27.832,-25.879,-187.988,0.000
1606138879.336,26.855,-12.207,-14.160,145.020,0.000
1606138879.340,29.785,-27.832,-17.578,217.773,0.000
1606138879.344,-56.641,-39.551,-31.250,-57.129,0.000
1606138879.347,-110.352,-37.109,-34.668,-297.363,0.000
1606138879.351,-74.219,-31.250,-32.715,-210.938,0.000
1606138879.355,15.625,-28.809,-31.250,112.305,0.000
1606138879.359,33.691,-28.809,-29.297,231.445,0.000
1606138879.363,-49.805,-35.645,-35.156,-5.859,0.000
1606138879.367,-125.977,-42.480,-37.109,-277.344,0.000
1606138879.371,-99.121,-36.133,-38.574,-242.188,0.000
1606138879.375,-1.465,-26.855,-35.156,79.102,0.000
1606138879.379,33.691,-27.832,-30.273,247.559,0.000
1606138879.383,-20.508,-27.832,-31.738,57.129,0.000
1606138879.387,-90.332,-27.832,-32.715,-236.816,0.000
1606138879.390,-82.520,-30.273,-32.715,-252.930,0.000
1606138879.394,13.672,-26.367,-29.785,62.012,0.000
1606138879.398,63.965,-23.438,-22.461,273.926,0.000
1606138879.402,5.859,-29.297,-24.902,104.004,0.000
1606138879.406,-82.031,-35.156,-30.273,-217.285,0.000
1606138879.410,-86.426,-30.762,-28.320,-265.137,0.000
1606138879.414,-2.441,-21.484,-32.715,19.531,0.000
1606138879.418,51.270,-22.949,-31.738,243.652,0.000
1606138879.422,8.789,-35.645,-30.762,123.535,0.000
1606138879.426,-78.125,-38.574,-32.227,-204.590,0.000
1606138879.429,-97.168,-29.297,-35.156,-302.734,0.000
1606138879.433,-22.461,-21.973,-32.715,-42.969,0.000
1606138879.437,35.645,-28.809,-26.855,220.215,0.000
1606138879.441,-3.906,-32.715,-26.367,152.832,0.000
1606138879.445,-91.797,-34.180,-22.461,-166.016,0.000
1606138879.449,-125.000,-36.133,-29.297,-315.918,0.000
1606138879.453,-60.059,-34.668,-22.949,-95.215,0.000
1606138879.457,14.160,-36.133,-22.461,213.379,0.000
1606138879.461,-0.977,-39.062,-34.180,197.754,0.000
1606138879.465,-88.867,-39.551,-35.156,-128.418,0.000
1606138879.469,-126.465,-34.668,-39.551,-308.594,0.000
1606138879.472,-68.848,-17.090,-35.156,-126.953,0.000
1606138879.476,8.789,-18.555,-27.832,186.523,0.000
1606138879.480,7.324,-32.227,-27.344,223.633,0.000
1606138879.484,-76.172,-33.203,-30.762,-78.613,0.000
1606138879.488,-122.559,-36.133,-34.668,-301.758,0.000
1606138879.492,-73.730,-36.621,-37.598,-164.551,0.000
1606138879.496,14.648,-35.645,-31.738,157.227,0.000
1606138879.500,22.949,-35.645,-29.297,226.562,0.000
1606138879.504,-61.523,-41.016,-33.203,-50.781,0.000
1606138879.508,-117.676,-47.852,-33.691,-290.527,0.000
1606138879.512,-73.730,-21.973,-35.645,-189.941,0.000
1606138879.515,16.602,-11.230,-35.156,126.465,0.000
1606138879.519,35.156,-37.109,-23.438,229.492,0.000
1606138879.523,-35.645,-41.992,-27.832,-14.160,0.000
1606138879.527,-99.121,-38.574,-36.621,-282.227,0.000
1606138879.531,-75.195,-36.621,-36.621,-231.934,0.000
1606138879.535,12.207,-39.062,-34.180,85.449,0.000
1606138879.539,44.922,-37.109,-25.391,232.422,0.000
1606138879.543,-20.020,-38.086,-31.250,29.785,0.000
1606138879.547,-85.938,-41.016,-38.574,-247.070,0.000
1606138879.551,-62.500,-17.578,-32.227,-234.375,0.000
1606138879.554,21.973,-7.324,-23.926,74.219,0.000
1606138879.558,58.105,-28.809,-25.391,256.348,0.000
1606138879.562,1.465,-34.180,-29.297,90.820,0.000
1606138879.566,-77.148,-41.992,-30.762,-212.402,0.000
1606138879.570,-78.613,-29.297,-32.715,-256.836,0.000
1606138879.574,-3.906,-15.625,-25.391,17.578,0.000
1606138879.578,41.992,-32.715,-20.508,232.422,0.000
1606138879.582,-2.441,-38.086,-23.438,121.582,0.000
1606138879.586,-89.355,-42.480,-31.250,-201.660,0.000
1606138879.590,-106.934,-40.527,-43.945,-298.828,0.000
1606138879.594,-28.809,-33.203,-40.039,-41.504,0.000
1606138879.597,43.457,-25.879,-24.414,225.586,0.000
1606138879.601,14.160,-26.855,-21.484,169.434,0.000
1606138879.605,-80.078,-42.969,-32.227,-160.156,0.000
1606138879.609,-110.352,-42.480,-34.180,-308.105,0.000
1606138879.613,-44.922,-16.113,-33.203,-83.496,0.000
1606138879.617,25.391,-18.066,-33.691,209.961,0.000
1606138879.621,9.277,-35.645,-22.949,190.430,0.000
1606138879.625,-81.055,-35.645,-24.414,-131.836,0.000
1606138879.629,-115.234,-37.109,-28.809,-302.734,0.000
1606138879.633,-43.945,-26.855,-29.785,-108.887,0.000
1606138879.637,38.574,-18.555,-33.203,197.754,0.000
1606138879.640,28.809,-23.926,-27.344,211.914,0.000
1606138879.644,-56.152,-31.738,-31.250,-97.168,0.000
1606138879.648,-101.074,-33.691,-34.668,-305.176,0.000
1606138879.652,-50.781,-20.508,-32.715,-165.527,0.000
1606138879.656,36.133,-15.625,-29.785,162.109,0.000
1606138879.660,41.504,-23.438,-26.855,229.004,0.000
1606138879.664,-41.992,-28.320,-21.484,-52.246,0.000
1606138879.668,-102.051,-29.785,-26.855,-294.434,0.000
1606138879.672,-62.012,-27.344,-28.320,-201.660,0.000
1606138879.676,28.809,-24.902,-25.879,125.000,0.000
1606138879.679,48.340,-29.297,-32.715,246.094,0.000
1606138879.683,-25.391,-34.180,-33.203,2.441,0.000
1606138879.687,-92.285,-32.227,-37.598,-278.320,0.000
1606138879.691,-63.965,-28.320,-37.598,-224.121,0.000
1606138879.695,24.414,-20.996,-26.367,106.445,0.000
1606138879.699,52.734,-19.043,-21.484,252.930,0.000
1606138879.703,-20.020,-23.926,-27.344,34.668,0.000
1606138879.707,-96.680,-38.086,-34.180,-265.625,0.000
1606138879.711,-80.078,-22.949,-30.273,-261.719,0.000
1606138879.715,4.395,-5.371,-27.344,47.852,0.000
1606138879.719,43.457,-26.367,-26.367,230.469,0.000
1606138879.722,-11.230,-29.297,-22.461,61.523,0.000
1606138879.726,-89.844,-26.855,-28.320,-239.746,0.000
1606138879.730,-88.379,-29.785,-37.109,-283.691,0.000
1606138879.734,-12.207,-28.809,-39.062,-5.859,0.000
1606138879.738,36.133,-24.414,-29.297,223.633,0.000
1606138879.742,-11.719,-20.996,-23.926,108.398,0.000
1606138879.746,-97.656,-35.645,-30.273,-211.914,0.000
1606138879.750,-104.980,-34.180,-36.133,-296.387,0.000
1606138879.754,-28.320,-16.113,-29.297,-47.363,0.000
1606138879.758,32.715,-19.043,-21.484,203.613,0.000
1606138879.762,3.418,-26.855,-21.484,141.602,0.000
1606138879.765,-80.566,-41.016,-26.855,-172.363,0.000
1606138879.769,-107.422,-47.363,-35.645,-302.734,0.000
1606138879.773,-33.203,-41.992,-27.832,-71.777,0.000
1606138879.777,42.969,-36.133,-20.996,210.449,0.000
1606138879.781,27.344,-33.691,-24.902,180.176,0.000
1606138879.785,-53.223,-33.203,-21.973,-127.441,0.000
1606138879.789,-82.031,-29.297,-20.020,-285.156,0.000
1606138879.793,-26.855,-10.254,-22.461,-110.840,0.000
1606138879.797,43.457,-5.859,-20.020,174.316,0.000
1606138879.801,26.855,-27.832,-20.996,173.340,0.000
1606138879.804,-58.105,-34.180,-23.926,-123.047,0.000
1606138879.808,-96.680,-35.645,-29.297,-302.734,0.000
1606138879.812,-54.199,-38.086,-23.438,-166.016,0.000
1606138879.816,30.762,-33.203,-19.531,138.184,0.000
1606138879.820,33.203,-29.785,-26.855,208.496,0.000
1606138879.824,-53.223,-30.273,-30.273,-54.199,0.000
1606138879.828,-102.539,-31.738,-31.738,-291.992,0.000
1606138879.832,-61.523,-23.926,-35.645,-194.824,0.000
1606138879.836,20.508,-20.996,-39.062,120.605,0.000
1606138879.840,37.109,-26.855,-34.180,220.703,0.000
1606138879.844,-39.062,-25.879,-34.180,-20.508,0.000
1606138879.847,-100.098,-25.391,-32.227,-278.809,0.000
1606138879.851,-65.918,-16.113,-26.855,-221.191,0.000
1606138879.855,15.625,-15.625,-28.809,85.449,0.000
1606138879.859,48.340,-22.949,-25.391,223.633,0.000
1606138879.863,-15.625,-28.809,-27.344,15.137,0.000
1606138879.867,-88.867,-38.574,-36.133,-260.742,0.000
1606138879.871,-67.871,-36.133,-36.133,-252.441,0.000
1606138879.875,16.602,-27.344,-28.809,46.387,0.000
1606138879.879,44.922,-26.367,-24.414,210.449,0.000
1606138879.883,-10.254,-24.902,-25.879,44.922,0.000
1606138879.887,-79.102,-34.180,-28.320,-231.445,0.000
1606138879.890,-82.520,-29.297,-26.855,-276.367,0.000
1606138879.894,-1.953,-4.883,-25.391,10.254,0.000
1606138879.898,54.199,-16.113,-19.043,235.840,0.000
1606138879.902,8.789,-35.156,-15.625,114.258,0.000
1606138879.906,-77.148,-38.574,-20.996,-200.195,0.000
1606138879.910,-87.891,-41.504,-24.414,-280.273,0.000
1606138879.914,-10.254,-41.992,-24.902,-20.020,0.000
1606138879.918,49.805,-29.785,-18.066,219.238,0.000
1606138879.922,10.742,-28.809,-24.414,135.742,0.000
1606138879.926,-71.289,-32.715,-30.273,-165.527,0.000
1606138879.929,-93.750,-26.367,-23.926,-287.598,0.000
1606138879.933,-32.715,-25.879,-24.902,-72.754,0.000
1606138879.937,34.668,-29.785,-22.949,193.359,0.000
1606138879.941,8.789,-32.715,-20.508,162.598,0.000
1606138879.945,-76.660,-43.945,-25.391,-143.066,0.000
1606138879.949,-109.375,-45.898,-29.297,-304.199,0.000
1606138879.953,-51.758,-33.691,-25.879,-114.258,0.000
1606138879.957,24.414,-26.367,-20.020,183.594,0.000
1606138879.961,8.789,-26.855,-29.297,192.871,0.000
1606138879.965,-74.707,-28.809,-39.551,-102.539,0.000
1606138879.969,-109.375,-32.715,-33.203,-303.711,0.000
1606138879.972,-47.852,-26.367,-31.738,-152.344,0.000
1606138879.976,46.875,-21.484,-25.879,179.688,0.000
1606138879.980,41.992,-31.250,-13.672,233.887,0.000
1606138879.984,-57.129,-40.527,-12.695,-60.059,0.000
1606138879.988,-120.117,-49.316,-24.902,-300.293,0.000
1606138879.992,-76.172,-27.832,-26.367,-189.941,0.000
1606138879.996,16.602,-11.230,-13.672,137.207,0.000
1606138880.000,30.762,-25.391,-13.672,232.422,0.000
1606138880.004,-51.758,-39.551,-21.484,-27.832,0.000
1606138880.008,-115.234,-46.875,-24.902,-288.086,0.000
1606138880.012,-78.613,-38.086,-29.297,-225.098,0.000
1606138880.015,6.836,-32.715,-27.832,87.402,0.000
1606138880.019,35.156,-34.668,-21.484,240.234,0.000
1606138880.023,-27.832,-33.203,-25.391,42.969,0.000
1606138880.027,-104.004,-43.457,-31.738,-253.906,0.000
1606138880.031,-88.867,-36.133,-40.039,-246.582,0.000
1606138880.035,2.930,-15.625,-34.180,68.359,0.000
1606138880.039,46.387,-24.414,-22.949,259.766,0.000
1606138880.043,-8.789,-29.297,-26.367,92.773,0.000
1606138880.047,-88.867,-40.527,-32.715,-218.750,0.000
1606138880.051,-92.773,-47.852,-35.645,-259.766,0.000
1606138880.054,-8.301,-32.227,-24.414,39.062,0.000
1606138880.058,52.734,-23.926,-17.090,263.184,0.000
1606138880.062,7.324,-23.926,-15.137,131.348,0.000
1606138880.066,-87.891,-30.762,-18.066,-194.336,0.000
1606138880.070,-101.562,-33.691,-23.926,-278.809,0.000
1606138880.074,-22.461,-25.391,-21.973,-14.648,0.000
1606138880.078,37.109,-28.809,-17.090,234.375,0.000
1606138880.082,-2.930,-31.738,-16.602,151.855,0.000
1606138880.086,-94.238,-37.598,-26.367,-178.711,0.000
1606138880.090,-114.746,-45.410,-27.832,-302.246,0.000
1606138880.094,-39.062,-38.574,-24.414,-67.383,0.000
1606138880.097,36.621,-38.086,-29.785,216.309,0.000
1606138880.101,16.602,-33.691,-32.715,194.336,0.000
1606138880.105,-67.383,-27.344,-29.297,-126.953,0.000
1606138880.109,-101.074,-23.926,-29.297,-293.457,0.000
1606138880.113,-38.574,-14.648,-26.367,-87.402,0.000
1606138880.117,39.062,-15.137,-25.879,214.355,0.000
1606138880.121,23.438,-23.438,-29.297,219.238,0.000
1606138880.125,-57.617,-28.320,-25.879,-85.449,0.000
1606138880.129,-101.074,-33.203,-26.367,-291.504,0.000
1606138880.133,-55.176,-27.344,-30.762,-142.578,0.000
1606138880.137,36.133,-18.555,-20.508,181.641,0.000
1606138880.140,45.898,-21.484,-19.043,240.234,0.000
1606138880.144,-42.480,-26.855,-32.227,-50.293,0.000
1606138880.148,-98.145,-26.855,-36.133,-290.039,0.000
1606138880.152,-55.176,-26.367,-28.809,-189.453,0.000
1606138880.156,25.879,-30.273,-24.902,125.488,0.000
1606138880.160,48.828,-23.926,-26.367,231.445,0.000
1606138880.164,-20.508,-21.484,-29.297,-6.836,0.000
1606138880.168,-85.449,-33.691,-35.156,-274.414,0.000
1606138880.172,-52.734,-20.996,-33.691,-227.539,0.000
1606138880.176,28.809,-1.953,-30.762,83.008,0.000
1606138880.179,51.270,-21.484,-24.902,229.004,0.000
1606138880.183,-20.508,-30.273,-31.250,20.020,0.000
1606138880.187,-96.191,-30.273,-35.645,-268.555,0.000
1606138880.191,-77.637,-28.320,-37.109,-254.395,0.000
1606138880.195,8.789,-17.578,-39.062,53.711,0.000
1606138880.199,40.039,-13.672,-35.645,231.445,0.000
1606138880.203,-15.625,-23.926,-38.086,59.570,0.000
1606138880.207,-87.891,-33.691,-39.551,-235.840,0.000
1606138880.211,-94.238,-29.297,-48.340,-267.090,0.000
1606138880.215,-13.184,-25.879,-47.363,20.508,0.000
1606138880.219,47.852,-25.879,-27.832,249.512,0.000
1606138880.222,-2.441,-26.855,-27.344,120.117,0.000
1606138880.226,-89.844,-32.227,-33.691,-204.102,0.000
1606138880.230,-98.145,-34.180,-30.762,-286.621,0.000
1606138880.234,-22.949,-25.391,-29.297,-29.297,0.000
1606138880.238,41.504,-20.508,-23.926,226.074,0.000
1606138880.242,9.277,-28.809,-21.484,143.066,0.000
1606138880.246,-84.961,-35.645,-31.250,-192.383,0.000
1606138880.250,-110.352,-36.133,-32.227,-313.477,0.000
1606138880.254,-29.297,-26.367,-22.949,-65.918,0.000
1606138880.258,52.734,-17.090,-25.391,222.656,0.000
1606138880.262,29.785,-22.461,-36.133,180.176,0.000
1606138880.265,-73.242,-36.621,-31.738,-155.762,0.000
1606138880.269,-113.770,-35.156,-23.438,-320.312,0.000
1606138880.273,-43.457,-20.508,-26.367,-113.770,0.000
1606138880.277,36.133,-23.926,-25.879,190.918,0.000
1606138880.281,16.602,-34.180,-24.414,188.965,0.000
1606138880.285,-75.684,-38.574,-31.738,-129.395,0.000
1606138880.289,-115.234,-41.504,-30.273,-324.219,0.000
1606138880.293,-59.570,-33.691,-24.902,-161.621,0.000
1606138880.297,24.414,-23.438,-26.855,158.203,0.000
1606138880.301,25.879,-26.367,-23.438,219.238,0.000
1606138880.304,-63.477,-37.598,-22.949,-62.012,0.000
1606138880.308,-116.211,-41.016,-28.809,-300.781,0.000
1606138880.312,-73.730,-32.715,-26.367,-194.824,0.000
1606138880.316,11.719,-29.297,-19.043,130.859,0.000
1606138880.320,29.297,-31.250,-24.902,233.887,0.000
1606138880.324,-44.434,-30.762,-30.273,-14.648,0.000
1606138880.328,-107.910,-28.809,-30.762,-278.320,0.000
1606138880.332,-78.613,-26.855,-27.344,-224.609,0.000
1606138880.336,17.090,-28.809,-14.648,106.445,0.000
1606138880.340,48.828,-30.273,-10.742,257.812,0.000
1606138880.344,-17.090,-30.273,-7.324,37.598,0.000
1606138880.347,-94.238,-35.645,-15.625,-259.277,0.000
1606138880.351,-80.566,-35.645,-28.809,-243.652,0.000
1606138880.355,9.277,-32.715,-25.879,67.383,0.000
1606138880.359,46.875,-33.691,-24.902,229.492,0.000
1606138880.363,-17.578,-38.574,-28.320,50.293,0.000
1606138880.367,-96.191,-44.434,-35.645,-242.676,0.000
1606138880.371,-93.750,-42.969,-47.852,-276.855,0.000
1606138880.375,-13.184,-44.922,-34.668,9.277,0.000
1606138880.379,33.691,-46.875,-24.902,220.215,0.000
1606138880.383,-12.695,-43.945,-29.297,86.914,0.000
1606138880.387,-92.285,-49.316,-30.762,-226.074,0.000
1606138880.390,-95.215,-41.504,-29.297,-293.457,0.000
1606138880.394,-20.996,-36.133,-25.391,-32.227,0.000
1606138880.398,37.109,-36.133,-27.832,209.473,0.000
1606138880.402,5.371,-32.715,-34.668,127.441,0.000
1606138880.406,-84.473,-41.504,-37.598,-196.777,0.000
1606138880.410,-106.934,-26.367,-39.551,-314.941,0.000
1606138880.414,-32.715,-0.977,-35.156,-76.172,0.000
1606138880.418,32.227,-20.508,-28.320,189.453,0.000
1606138880.422,3.418,-34.180,-25.879,149.414,0.000
1606138880.426,-85.449,-41.992,-28.809,-160.645,0.000
1606138880.429,-115.723,-47.852,-31.738,-317.383,0.000
1606138880.433,-50.781,-38.086,-24.902,-116.699,0.000
1606138880.437,21.484,-37.598,-20.996,180.664,0.000
1606138880.441,11.230,-39.551,-20.996,192.871,0.000
1606138880.445,-63.477,-39.551,-18.555,-86.914,0.000
1606138880.449,-98.145,-43.457,-22.461,-269.043,0.000
1606138880.453,-51.758,-10.742,-25.879,-123.535,0.000
1606138880.457,1.465,-3.906,-20.020,153.809,0.000
1606138880.461,-0.977,-35.156,-17.090,192.383,0.000
1606138880.465,-69.336,-38.086,-16.113,-76.660,0.000
1606138880.469,-127.930,-39.551,-21.484,-306.152,0.000
1606138880.472,-83.984,-41.016,-22.949,-189.941,0.000
1606138880.476,9.766,-39.062,-20.020,133.789,0.000
1606138880.480,33.691,-31.250,-20.996,224.609,0.000
1606138880.484,-33.203,-36.133,-21.973,-29.785,0.000
1606138880.488,-96.191,-42.480,-18.066,-271.484,0.000
1606138880.492,-67.383,-26.855,-19.531,-196.289,0.000
1606138880.496,19.531,-22.949,-16.113,113.281,0.000
1606138880.500,44.922,-30.273,-17.578,242.676,0.000
1606138880.504,-28.809,-32.227,-20.020,16.113,0.000
1606138880.508,-106.445,-42.480,-24.902,-268.066,0.000
1606138880.512,-86.914,-35.645,-30.762,-244.141,0.000
1606138880.515,-1.953,-31.250,-26.855,57.617,0.000
1606138880.519,34.668,-28.809,-25.879,220.703,0.000
1606138880.523,-19.043,-31.250,-27.344,43.457,0.000
1606138880.527,-98.633,-40.039,-29.785,-257.812,0.000
1606138880.531,-90.820,-29.785,-24.902,-284.668,0.000
1606138880.535,-5.371,-24.902,-21.484,12.207,0.000
1606138880.539,39.551,-25.879,-23.926,222.168,0.000
1606138880.543,-13.184,-31.250,-23.926,77.637,0.000
1606138880.547,-102.539,-42.480,-28.320,-239.746,0.000
1606138880.551,-112.305,-30.762,-29.297,-304.688,0.000
1606138880.554,-35.645,-10.254,-20.508,-29.785,0.000
1606138880.558,18.066,-19.043,-26.855,208.984,0.000
1606138880.562,-16.113,-31.250,-35.645,115.234,0.000
1606138880.566,-102.539,-35.645,-42.480,-200.684,0.000
1606138880.570,-118.652,-30.273,-41.504,-301.758,0.000
1606138880.574,-42.480,-29.297,-31.250,-56.152,0.000
1606138880.578,21.484,-33.691,-28.320,206.543,0.000
1606138880.582,-2.441,-41.016,-32.715,165.039,0.000
1606138880.586,-80.078,-43.945,-33.203,-135.254,0.000
1606138880.590,-105.469,-39.062,-26.367,-291.504,0.000
1606138880.594,-38.574,-26.367,-21.484,-96.680,0.000
1606138880.597,36.621,-21.973,-21.484,195.312,0.000
1606138880.601,20.996,-29.785,-20.020,201.172,0.000
1606138880.605,-62.012,-35.645,-21.484,-100.586,0.000
1606138880.609,-101.074,-35.645,-26.367,-290.039,0.000
1606138880.613,-47.852,-36.621,-31.250,-133.301,0.000
1606138880.617,32.715,-34.180,-25.391,171.875,0.000
1606138880.621,26.855,-35.645,-28.809,213.379,0.000
1606138880.625,-57.129,-41.992,-31.250,-73.242,0.000
1606138880.629,-99.609,-34.668,-27.344,-289.062,0.000
1606138880.633,-51.270,-8.789,-29.785,-163.086,0.000
1606138880.637,28.320,-10.742,-25.879,151.855,0.000
1606138880.640,38.086,-26.855,-28.809,226.562,0.000
1606138880.644,-38.086,-32.715,-34.180,-33.203,0.000
1606138880.648,-105.957,-36.133,-30.762,-281.738,0.000
1606138880.652,-87.402,-29.297,-28.320,-220.703,0.000
1606138880.656,4.395,-29.297,-19.531,96.191,0.000
1606138880.660,38.086,-32.227,-13.672,228.027,0.000
1606138880.664,-28.809,-35.156,-22.461,9.277,0.000
1606138880.668,-104.492,-37.109,-32.227,-269.043,0.000
1606138880.672,-89.355,-31.738,-28.320,-247.559,0.000
1606138880.676,0.977,-27.344,-22.949,62.988,0.000
1606138880.679,37.109,-25.391,-24.902,231.445,0.000
1606138880.683,-20.508,-27.344,-26.367,45.898,0.000
1606138880.687,-96.680,-33.203,-29.297,-245.117,0.000
1606138880.691,-85.449,-30.762,-31.250,-261.719,0.000
1606138880.695,2.441,-26.855,-24.414,31.738,0.000
1606138880.699,52.734,-29.297,-20.508,248.047,0.000
1606138880.703,1.465,-35.156,-20.996,106.934,0.000
1606138880.707,-90.820,-41.016,-21.973,-220.215,0.000
1606138880.711,-93.750,-41.992,-29.785,-281.738,0.000
1606138880.715,-6.836,-30.273,-21.484,3.418,0.000
1606138880.719,48.828,-24.414,-9.766,244.629,0.000
1606138880.722,-0.488,-34.668,-24.902,139.160,0.000
1606138880.726,-88.379,-36.621,-33.203,-181.641,0.000
1606138880.730,-98.633,-39.062,-28.809,-292.480,0.000
1606138880.734,-25.879,-44.434,-31.250,-58.105,0.000
1606138880.738,45.410,-35.645,-23.438,216.309,0.000
1606138880.742,20.020,-30.762,-20.020,176.758,0.000
1606138880.746,-71.777,-31.250,-31.738,-146.973,0.000
1606138880.750,-102.051,-26.367,-29.785,-302.734,0.000
1606138880.754,-39.551,-27.832,-22.461,-101.074,0.000
1606138880.758,40.527,-28.320,-20.020,197.754,0.000
1606138880.762,28.320,-27.344,-22.949,195.801,0.000
1606138880.765,-69.336,-41.504,-27.344,-119.629,0.000
1606138880.769,-109.375,-48.340,-25.879,-292.480,0.000
1606138880.773,-55.176,-44.434,-23.438,-128.418,0.000
1606138880.777,24.902,-42.969,-21.484,174.316,0.000
1606138880.781,25.879,-35.156,-24.414,220.703,0.000
1606138880.785,-62.012,-36.133,-24.414,-71.777,0.000
1606138880.789,-113.770,-42.480,-24.902,-293.945,0.000
1606138880.793,-71.777,-41.992,-25.391,-171.875,0.000
1606138880.797,20.508,-35.645,-15.625,157.227,0.000
1606138880.801,34.180,-30.273,-12.695,254.883,0.000
1606138880.804,-40.527,-33.203,-21.973,-0.977,0.000
1606138880.808,-90.820,-34.180,-26.855,-251.465,0.000
1606138880.812,-51.270,-27.832,-27.344,-182.617,0.000
1606138880.816,42.969,-17.578,-25.879,135.254,0.000
1606138880.820,71.289,-15.625,-21.973,267.578,0.000
1606138880.824,-7.324,-26.367,-28.809,34.180,0.000
1606138880.828,-82.520,-35.156,-33.691,-253.418,0.000
1606138880.832,-58.105,-13.672,-30.762,-227.051,0.000
1606138880.836,25.879,4.395,-19.531,85.938,0.000
1606138880.840,58.594,-11.230,-11.719,254.395,0.000
1606138880.844,0.000,-22.461,-17.578,71.777,0.000
1606138880.847,-80.078,-34.668,-30.273,-227.051,0.000
1606138880.851,-77.637,-39.062,-37.598,-250.000,0.000
1606138880.855,10.254,-22.461,-30.762,50.781,0.000
1606138880.859,50.781,-16.113,-23.926,240.723,0.000
1606138880.863,-5.859,-19.531,-24.902,88.867,0.000
1606138880.867,-87.402,-30.273,-24.414,-203.125,0.000
1606138880.871,-93.750,-19.043,-24.902,-270.996,0.000
1606138880.875,-19.043,-8.301,-25.391,-13.184,0.000
1606138880.879,31.250,-22.949,-22.949,225.586,0.000
1606138880.883,0.977,-30.273,-22.461,135.742,0.000
1606138880.887,-89.355,-40.527,-33.691,-189.453,0.000
1606138880.890,-116.699,-40.039,-38.574,-302.246,0.000
1606138880.894,-46.875,-39.062,-32.715,-60.059,0.000
1606138880.898,25.879,-35.645,-28.809,213.867,0.000
1606138880.902,4.395,-33.691,-35.645,157.227,0.000
1606138880.906,-88.867,-40.527,-44.434,-174.805,0.000
1606138880.910,-110.352,-28.320,-37.109,-316.895,0.000
1606138880.914,-35.156,-22.949,-29.785,-90.820,0.000
1606138880.918,34.668,-36.133,-25.391,185.059,0.000
1606138880.922,19.043,-31.738,-24.414,178.223,0.000
1606138880.926,-68.359,-35.645,-30.762,-118.652,0.000
1606138880.929,-118.652,-36.621,-40.039,-327.637,0.000
1606138880.933,-57.617,-30.273,-35.645,-151.855,0.000
1606138880.937,35.156,-27.832,-28.320,174.316,0.000
1606138880.941,29.297,-26.855,-31.738,205.078,0.000
1606138880.945,-62.012,-34.180,-42.969,-92.285,0.000
1606138880.949,-110.352,-38.574,-48.340,-317.871,0.000
1606138880.953,-68.359,-37.598,-40.039,-184.082,0.000
1606138880.957,20.996,-32.715,-26.367,156.738,0.000
1606138880.961,40.527,-28.809,-20.508,248.047,0.000
1606138880.965,-41.992,-30.762,-27.344,-33.691,0.000
1606138880.969,-113.770,-37.598,-26.855,-305.176,0.000
1606138880.972,-86.426,-39.062,-29.785,-231.445,0.000
1606138880.976,0.000,-39.062,-36.621,89.355,0.000
1606138880.980,22.461,-41.504,-33.691,222.168,0.000
1606138880.984,-43.945,-38.086,-32.227,5.371,0.000
1606138880.988,-108.887,-39.551,-30.762,-270.996,0.000
1606138880.992,-86.914,-40.527,-26.855,-235.352,0.000
1606138880.996,0.488,-35.156,-22.461,90.332,0.000
1606138881.000,36.133,-36.133,-21.973,262.207,0.000
1606138881.004,-26.855,-38.086,-20.508,70.801,0.000
1606138881.008,-105.957,-37.109,-22.461,-227.051,0.000
1606138881.012,-97.168,-36.133,-28.809,-256.836,0.000
1606138881.015,-6.348,-28.320,-28.320,27.344,0.000
1606138881.019,44.434,-24.414,-20.020,234.375,0.000
1606138881.023,-7.324,-27.344,-24.414,90.332,0.000
1606138881.027,-89.844,-35.645,-35.645,-222.656,0.000
1606138881.031,-93.262,-44.434,-38.086,-287.598,0.000
1606138881.035,-12.695,-46.387,-37.598,-18.555,0.000
1606138881.039,46.387,-33.203,-31.250,221.191,0.000
1606138881.043,13.184,-25.879,-23.438,129.883,0.000
1606138881.047,-71.289,-41.992,-26.367,-198.730,0.000
1606138881.051,-88.867,-28.320,-39.062,-300.781,0.000
1606138881.054,-14.160,-9.277,-38.574,-51.758,0.000
1606138881.058,43.457,-26.367,-34.668,198.242,0.000
1606138881.062,16.113,-29.785,-33.203,143.066,0.000
1606138881.066,-72.754,-30.273,-35.156,-175.293,0.000
1606138881.070,-106.934,-28.320,-42.969,-315.430,0.000
1606138881.074,-41.992,-20.508,-33.691,-97.656,0.000
1606138881.078,22.949,-26.367,-17.090,189.941,0.000
1606138881.082,7.324,-33.691,-11.719,189.941,0.000
1606138881.086,-74.707,-28.809,-23.926,-118.164,0.000
1606138881.090,-124.023,-20.996,-42.480,-319.824,0.000
1606138881.094,-70.801,-20.020,-47.852,-159.668,0.000
1606138881.097,15.137,-19.043,-35.645,146.973,0.000
1606138881.101,19.043,-24.414,-24.902,193.848,0.000
1606138881.105,-67.871,-36.133,-37.598,-94.238,0.000
1606138881.109,-121.582,-38.086,-44.434,-323.242,0.000
1606138881.113,-73.730,-24.414,-37.598,-198.242,0.000
1606138881.117,22.949,-20.508,-25.879,132.812,0.000
1606138881.121,34.668,-20.508,-22.461,223.633,0.000
1606138881.125,-50.781,-25.391,-35.156,-44.922,0.000
