timestamps,TP9,AF7,AF8,TP10,Right AUX
1606129060.921,-0.488,0.000,0.000,-0.488,0.000
1606129060.925,0.488,0.000,0.000,0.977,0.000
1606129060.929,1.465,-1.465,-0.977,3.418,0.000
1606129060.933,-14.160,1.465,0.488,-28.809,0.000
1606129060.937,55.664,-8.789,-6.836,112.793,0.000
1606129060.941,-14.160,-37.109,-27.832,-37.598,0.000
1606129060.945,-233.887,-47.363,-40.039,-467.285,0.000
1606129060.949,-155.762,-38.086,-34.180,-290.527,0.000
1606129060.953,117.188,-20.996,-19.043,241.211,0.000
1606129060.957,210.449,-8.301,-16.113,412.598,0.000
1606129060.960,2.441,-21.484,-34.180,-11.230,0.000
1606129060.964,-225.586,-39.551,-46.875,-450.195,0.000
1606129060.968,-176.758,-30.762,-41.016,-343.750,0.000
1606129060.972,94.727,-11.230,-23.438,192.871,0.000
1606129060.976,223.633,-3.906,-11.230,435.547,0.000
1606129060.980,47.852,-15.137,-22.461,64.453,0.000
1606129060.984,-204.102,-35.156,-39.062,-420.898,0.000
1606129060.988,-206.543,-31.250,-40.527,-398.926,0.000
1606129060.992,58.594,-13.672,-22.461,130.371,0.000
1606129060.996,214.844,-9.766,-13.672,426.270,0.000
1606129060.999,65.918,-26.855,-25.879,118.164,0.000
1606129061.003,-194.336,-52.734,-35.645,-382.812,0.000
1606129061.007,-231.934,-47.363,-38.086,-434.570,0.000
1606129061.011,21.973,-19.531,-21.973,70.801,0.000
1606129061.015,212.402,-3.418,-8.301,433.594,0.000
1606129061.019,94.238,-12.207,-20.996,193.359,0.000
1606129061.023,-180.176,-42.969,-41.016,-337.402,0.000
1606129061.027,-250.977,-49.805,-41.504,-456.543,0.000
1606129061.031,-16.113,-22.461,-23.926,11.719,0.000
1606129061.035,195.312,-6.836,-17.578,414.062,0.000
1606129061.039,115.234,-25.879,-22.461,248.047,0.000
1606129061.042,-161.621,-49.316,-36.133,-287.598,0.000
1606129061.046,-265.625,-55.176,-43.945,-473.633,0.000
1606129061.050,-59.570,-30.762,-35.645,-55.176,0.000
1606129061.054,172.852,0.000,-20.508,376.953,0.000
1606129061.058,136.719,-9.766,-21.973,275.879,0.000
1606129061.062,-130.859,-34.668,-36.621,-254.883,0.000
1606129061.066,-261.230,-45.898,-45.898,-500.488,0.000
1606129061.070,-82.520,-30.762,-40.039,-133.789,0.000
1606129061.074,167.969,-10.742,-18.555,349.121,0.000
1606129061.078,165.039,-13.672,-11.719,343.262,0.000
1606129061.082,-102.539,-31.250,-30.273,-180.664,0.000
1606129061.085,-269.531,-38.086,-43.945,-503.418,0.000
1606129061.089,-128.418,-28.320,-35.645,-208.496,0.000
1606129061.093,138.672,-10.254,-21.484,297.852,0.000
1606129061.097,179.688,-11.719,-22.461,354.492,0.000
1606129061.101,-68.359,-41.016,-41.992,-142.090,0.000
1606129061.105,-253.906,-57.617,-47.852,-498.535,0.000
1606129061.109,-150.879,-47.363,-36.133,-265.137,0.000
1606129061.113,111.816,-17.090,-20.020,260.742,0.000
1606129061.117,189.453,-5.371,-8.789,393.555,0.000
1606129061.121,-34.668,-31.250,-21.973,-60.059,0.000
1606129061.124,-249.023,-51.270,-36.133,-474.121,0.000
1606129061.128,-182.617,-41.992,-30.762,-312.012,0.000
1606129061.132,93.262,-14.648,-19.043,228.516,0.000
1606129061.136,204.590,-11.719,-13.672,414.551,0.000
1606129061.140,3.906,-37.109,-30.273,5.371,0.000
1606129061.144,-229.004,-50.781,-42.969,-434.570,0.000
1606129061.148,-197.754,-45.410,-35.645,-338.379,0.000
1606129061.152,64.453,-16.113,-16.113,194.336,0.000
1606129061.156,196.289,0.977,-14.160,429.199,0.000
1606129061.160,30.273,-22.461,-22.949,80.078,0.000
1606129061.164,-219.727,-47.363,-33.203,-400.391,0.000
1606129061.167,-225.586,-41.992,-35.156,-398.438,0.000
1606129061.171,39.062,-15.137,-17.090,121.094,0.000
1606129061.175,209.473,-2.930,-6.836,440.918,0.000
1606129061.179,74.219,-18.555,-20.996,164.551,0.000
1606129061.183,-187.500,-45.410,-38.086,-348.145,0.000
1606129061.187,-233.398,-45.410,-38.086,-421.387,0.000
1606129061.191,7.812,-23.438,-21.484,68.359,0.000
1606129061.195,205.566,-13.184,-5.371,435.547,0.000
1606129061.199,104.980,-24.414,-13.672,213.379,0.000
1606129061.203,-164.551,-49.805,-41.504,-322.754,0.000
1606129061.207,-244.141,-56.641,-54.688,-467.285,0.000
1606129061.210,-23.438,-32.715,-28.809,-4.395,0.000
1606129061.214,193.359,-17.578,-7.812,412.109,0.000
1606129061.218,125.977,-25.879,-21.973,248.047,0.000
1606129061.222,-141.113,-46.875,-42.969,-270.020,0.000
1606129061.226,-250.488,-58.594,-48.828,-464.355,0.000
1606129061.230,-59.082,-39.551,-27.832,-87.891,0.000
1606129061.234,180.664,-19.043,-11.230,371.582,0.000
1606129061.238,149.902,5.371,-29.785,302.246,0.000
1606129061.242,-123.047,-6.836,-51.270,-229.492,0.000
1606129061.246,-261.230,-46.387,-47.363,-492.676,0.000
1606129061.249,-93.262,-32.715,-35.645,-155.273,0.000
1606129061.253,156.250,-10.254,-24.902,334.961,0.000
1606129061.257,171.387,-15.625,-23.926,349.121,0.000
1606129061.261,-87.402,-41.992,-39.551,-170.410,0.000
1606129061.265,-260.254,-54.688,-43.457,-493.164,0.000
1606129061.269,-121.582,-37.598,-23.926,-205.566,0.000
1606129061.273,142.578,-15.625,-11.719,307.617,0.000
1606129061.277,184.570,-15.137,-27.344,382.812,0.000
1606129061.281,-58.105,-41.504,-39.551,-95.215,0.000
1606129061.285,-253.906,-54.688,-43.457,-466.797,0.000
1606129061.289,-155.762,-29.297,-38.086,-254.395,0.000
1606129061.292,115.723,-13.672,-15.137,270.508,0.000
1606129061.296,195.801,-16.602,-13.184,410.156,0.000
1606129061.300,-23.438,-34.668,-29.297,-27.344,0.000
1606129061.304,-239.746,-53.711,-40.039,-453.125,0.000
1606129061.308,-182.129,-46.387,-31.250,-317.871,0.000
1606129061.312,83.984,-20.996,-12.207,216.797,0.000
1606129061.316,197.754,-4.883,-18.555,411.621,0.000
1606129061.320,8.789,-16.602,-27.344,29.785,0.000
1606129061.324,-229.980,-45.410,-34.668,-429.199,0.000
1606129061.328,-213.867,-55.176,-36.621,-381.348,0.000
1606129061.332,56.152,-29.785,-12.207,157.227,0.000
1606129061.335,216.309,-9.277,3.906,439.453,0.000
1606129061.339,54.688,-27.832,-13.184,106.445,0.000
1606129061.343,-201.660,-47.363,-32.715,-381.836,0.000
1606129061.347,-218.262,-29.785,-33.203,-400.391,0.000
1606129061.351,32.227,-4.883,-15.625,112.793,0.000
1606129061.355,201.660,-6.348,-10.742,436.035,0.000
1606129061.359,75.195,-18.066,-24.414,158.691,0.000
1606129061.363,-185.059,-40.527,-42.480,-356.445,0.000
1606129061.367,-243.164,-49.316,-48.340,-454.590,0.000
1606129061.371,-8.301,-28.320,-26.855,34.180,0.000
1606129061.374,204.102,-4.883,-7.324,422.852,0.000
1606129061.378,111.328,-13.672,-16.113,217.773,0.000
1606129061.382,-167.480,-41.992,-36.133,-312.988,0.000
1606129061.386,-256.348,-53.711,-37.109,-471.680,0.000
1606129061.390,-39.062,-32.715,-20.508,-37.598,0.000
1606129061.394,193.359,-14.648,-8.789,404.297,0.000
1606129061.398,121.582,-20.508,-17.090,249.512,0.000
1606129061.402,-160.645,-38.574,-35.156,-302.734,0.000
1606129061.406,-265.137,-45.410,-42.480,-477.051,0.000
1606129061.410,-77.637,-27.832,-26.855,-101.074,0.000
1606129061.414,170.410,-8.301,-3.906,370.605,0.000
1606129061.417,151.367,-12.695,-9.766,321.777,0.000
1606129061.421,-118.164,-42.969,-39.551,-220.703,0.000
1606129061.425,-270.020,-51.758,-47.363,-506.348,0.000
1606129061.429,-112.793,-17.090,-30.273,-172.852,0.000
1606129061.433,146.484,-1.953,-14.648,329.590,0.000
1606129061.437,169.922,-12.695,-19.531,356.934,0.000
1606129061.441,-86.914,-36.133,-31.738,-150.879,0.000
1606129061.445,-263.672,-49.805,-38.574,-492.676,0.000
1606129061.449,-142.578,-36.621,-38.086,-237.305,0.000
1606129061.453,120.117,-17.578,-22.949,283.203,0.000
1606129061.457,186.523,-9.766,-12.695,389.648,0.000
1606129061.460,-46.387,-32.715,-29.785,-86.914,0.000
1606129061.464,-259.277,-47.852,-50.293,-484.375,0.000
1606129061.468,-171.875,-25.879,-42.480,-294.434,0.000
1606129061.472,105.469,-8.789,-20.508,238.770,0.000
1606129061.476,196.777,-7.812,-10.254,411.621,0.000
1606129061.480,-17.578,-25.391,-23.926,-8.789,0.000
1606129061.484,-246.582,-48.340,-43.945,-450.684,0.000
1606129061.488,-203.125,-44.922,-36.621,-341.797,0.000
1606129061.492,71.289,-18.555,-19.043,200.195,0.000
1606129061.496,200.195,-6.348,-13.672,432.617,0.000
1606129061.499,19.043,-19.531,-25.391,56.152,0.000
1606129061.503,-224.609,-45.410,-41.992,-422.363,0.000
1606129061.507,-218.750,-31.250,-38.574,-386.230,0.000
1606129061.511,41.992,4.395,-24.414,141.113,0.000
1606129061.515,194.824,-9.277,-17.090,429.688,0.000
1606129061.519,47.852,-34.180,-28.320,120.117,0.000
1606129061.523,-204.590,-47.363,-47.852,-378.906,0.000
1606129061.527,-232.910,-47.852,-47.852,-421.387,0.000
1606129061.531,20.996,-29.297,-22.949,83.984,0.000
1606129061.535,203.613,-14.160,-7.812,434.570,0.000
1606129061.539,85.449,-20.996,-20.996,187.988,0.000
1606129061.542,-176.758,-42.480,-42.480,-335.449,0.000
1606129061.546,-244.629,-51.758,-39.551,-447.266,0.000
1606129061.550,-16.602,-30.273,-20.996,22.949,0.000
1606129061.554,191.895,-12.695,-12.207,421.387,0.000
1606129061.558,111.816,-21.973,-22.949,241.699,0.000
1606129061.562,-153.809,-45.898,-46.387,-298.828,0.000
1606129061.566,-253.906,-55.664,-49.805,-475.586,0.000
1606129061.570,-41.016,-35.645,-27.344,-41.992,0.000
1606129061.574,194.824,-13.672,-17.090,399.902,0.000
1606129061.578,153.320,-11.719,-17.090,297.363,0.000
1606129061.582,-121.094,-32.227,-31.250,-235.840,0.000
1606129061.585,-256.348,-48.340,-44.922,-482.422,0.000
1606129061.589,-78.125,-35.645,-32.227,-123.535,0.000
1606129061.593,173.828,-5.371,-18.555,356.445,0.000
1606129061.597,181.152,4.395,-15.625,341.797,0.000
1606129061.601,-80.566,-19.043,-26.367,-170.410,0.000
1606129061.605,-247.070,-41.016,-39.551,-475.586,0.000
1606129061.609,-108.398,-31.250,-26.367,-179.688,0.000
1606129061.613,150.391,-1.465,-2.441,332.031,0.000
1606129061.617,183.594,4.395,-8.301,383.301,0.000
1606129061.621,-72.266,-24.414,-26.855,-123.535,0.000
1606129061.624,-259.277,-45.898,-33.691,-484.375,0.000
1606129061.628,-149.902,-38.574,-33.691,-246.582,0.000
1606129061.632,117.676,-16.602,-18.555,283.691,0.000
1606129061.636,190.918,-10.254,-9.277,409.180,0.000
1606129061.640,-37.598,-34.180,-24.414,-52.246,0.000
1606129061.644,-250.000,-51.758,-39.062,-459.961,0.000
1606129061.648,-176.758,-42.969,-35.156,-299.805,0.000
1606129061.652,93.262,-16.602,-13.672,234.375,0.000
1606129061.656,198.242,-4.883,0.000,428.223,0.000
1606129061.660,-4.395,-25.391,-28.320,14.160,0.000
1606129061.664,-240.723,-43.457,-42.480,-444.336,0.000
1606129061.667,-205.566,-42.480,-30.273,-364.746,0.000
1606129061.671,65.918,-24.414,-20.508,170.410,0.000
1606129061.675,198.730,-16.113,-15.625,421.875,0.000
1606129061.679,22.461,-29.785,-31.738,70.801,0.000
1606129061.683,-224.121,-45.410,-46.875,-407.715,0.000
1606129061.687,-229.492,-45.410,-42.969,-410.645,0.000
1606129061.691,31.250,-23.926,-28.320,108.398,0.000
1606129061.695,194.336,-2.441,-20.996,424.316,0.000
1606129061.699,51.270,-16.113,-28.809,132.324,0.000
1606129061.703,-208.984,-45.898,-42.480,-378.418,0.000
1606129061.707,-254.395,-61.035,-50.293,-451.172,0.000
1606129061.710,-1.465,-42.969,-33.691,43.945,0.000
1606129061.714,201.660,-13.184,-12.695,419.922,0.000
1606129061.718,100.586,-16.113,-20.996,197.754,0.000
1606129061.722,-170.898,-40.527,-43.457,-332.031,0.000
1606129061.726,-244.141,-46.875,-40.039,-454.590,0.000
1606129061.730,-15.625,-21.973,-19.043,1.465,0.000
1606129061.734,194.336,-1.465,-15.625,405.762,0.000
1606129061.738,128.906,-10.254,-22.949,272.461,0.000
1606129061.742,-143.555,-39.062,-36.621,-263.672,0.000
1606129061.746,-252.441,-55.664,-42.480,-487.793,0.000
1606129061.749,-52.246,-38.086,-28.809,-81.055,0.000
1606129061.753,181.152,-11.230,-9.766,378.906,0.000
1606129061.757,158.691,-5.859,-18.555,312.500,0.000
1606129061.761,-104.980,-23.926,-37.109,-217.773,0.000
1606129061.765,-248.535,-41.016,-37.598,-483.398,0.000
1606129061.769,-92.773,-29.785,-25.879,-130.859,0.000
1606129061.773,152.344,-5.859,-11.719,366.211,0.000
1606129061.777,171.387,-5.859,-15.625,360.840,0.000
1606129061.781,-93.750,-27.344,-29.785,-174.316,0.000
1606129061.785,-261.719,-42.969,-43.945,-492.676,0.000
1606129061.789,-120.605,-24.902,-36.133,-198.730,0.000
1606129061.792,132.812,1.953,-17.578,298.828,0.000
1606129061.796,179.688,0.000,-13.672,365.723,0.000
1606129061.800,-58.105,-26.367,-32.715,-124.023,0.000
1606129061.804,-252.930,-44.922,-49.316,-501.465,0.000
1606129061.808,-152.832,-41.504,-39.551,-273.438,0.000
1606129061.812,113.281,-12.695,-21.973,260.254,0.000
1606129061.816,199.707,-1.953,-18.555,395.508,0.000
1606129061.820,-16.602,-23.926,-29.785,-42.969,0.000
1606129061.824,-238.281,-40.527,-37.109,-451.172,0.000
1606129061.828,-186.523,-37.109,-32.715,-317.871,0.000
1606129061.832,75.684,-13.672,-15.625,211.914,0.000
1606129061.835,189.453,-3.906,-9.277,422.852,0.000
1606129061.839,-5.371,-26.855,-23.438,24.902,0.000
1606129061.843,-243.164,-47.852,-39.551,-428.711,0.000
1606129061.847,-219.238,-36.621,-42.969,-384.277,0.000
1606129061.851,55.176,-10.742,-20.508,145.996,0.000
1606129061.855,203.613,-3.906,-2.930,431.641,0.000
1606129061.859,40.039,-22.949,-20.996,99.609,0.000
1606129061.863,-212.402,-46.875,-45.410,-392.578,0.000
1606129061.867,-231.934,-49.805,-41.992,-415.039,0.000
1606129061.871,25.391,-31.738,-23.438,94.727,0.000
1606129061.874,201.172,-12.695,-14.160,427.734,0.000
1606129061.878,72.266,-20.020,-17.578,164.062,0.000
1606129061.882,-194.824,-48.340,-34.180,-354.980,0.000
1606129061.886,-255.859,-57.129,-38.086,-443.848,0.000
1606129061.890,-15.137,-26.367,-20.020,36.133,0.000
1606129061.894,185.059,-11.230,-16.113,403.320,0.000
1606129061.898,88.379,-28.320,-25.879,197.266,0.000
1606129061.902,-185.547,-51.270,-43.457,-332.520,0.000
1606129061.906,-269.531,-57.129,-51.758,-489.258,0.000
1606129061.910,-41.016,-34.180,-31.738,-42.480,0.000
1606129061.914,188.965,-10.742,-9.277,395.508,0.000
1606129061.917,125.488,-20.508,-12.207,270.020,0.000
1606129061.921,-152.832,-43.945,-36.133,-272.949,0.000
1606129061.925,-270.508,-39.551,-42.969,-495.117,0.000
1606129061.929,-81.543,-20.508,-27.832,-93.262,0.000
1606129061.933,166.504,-7.324,-10.742,378.418,0.000
1606129061.937,160.645,-10.742,-9.766,323.730,0.000
1606129061.941,-110.352,-39.062,-34.180,-207.520,0.000
1606129061.945,-256.348,-48.828,-42.969,-483.887,0.000
1606129061.949,-90.332,-32.227,-25.879,-150.879,0.000
1606129061.953,163.574,-10.254,-7.324,350.586,0.000
1606129061.957,178.223,-11.719,-13.672,377.930,0.000
1606129061.960,-82.031,-38.086,-36.133,-140.625,0.000
1606129061.964,-253.906,-54.199,-42.969,-488.281,0.000
1606129061.968,-134.277,-41.016,-35.645,-230.469,0.000
1606129061.972,124.512,-15.137,-22.461,290.527,0.000
1606129061.976,187.500,-5.371,-13.672,391.602,0.000
1606129061.980,-46.875,-29.785,-26.367,-89.844,0.000
1606129061.984,-251.953,-54.688,-39.551,-481.934,0.000
1606129061.988,-171.387,-30.273,-29.297,-295.898,0.000
1606129061.992,98.633,2.930,-11.719,241.699,0.000
1606129061.996,188.477,-6.348,-3.418,410.645,0.000
1606129061.999,-32.227,-35.156,-28.809,-28.320,0.000
1606129062.003,-253.418,-57.129,-52.246,-459.961,0.000
1606129062.007,-194.824,-48.340,-41.504,-345.703,0.000
1606129062.011,75.684,-23.438,-20.508,181.152,0.000
1606129062.015,192.383,-15.137,-18.066,402.344,0.000
1606129062.019,9.277,-27.344,-35.156,27.344,0.000
1606129062.023,-231.934,-50.781,-39.551,-435.547,0.000
1606129062.027,-225.586,-42.480,-39.551,-408.691,0.000
1606129062.031,40.527,-15.137,-24.902,122.559,0.000
1606129062.035,193.359,-9.277,-13.184,415.527,0.000
1606129062.039,41.992,-22.949,-26.367,98.145,0.000
1606129062.042,-211.426,-45.898,-43.457,-397.461,0.000
1606129062.046,-237.793,-47.852,-44.434,-437.012,0.000
1606129062.050,22.949,-24.414,-18.555,75.684,0.000
1606129062.054,210.449,-8.301,-10.742,427.246,0.000
1606129062.058,89.844,-21.973,-19.043,173.340,0.000
1606129062.062,-180.664,-45.898,-33.203,-353.027,0.000
1606129062.066,-247.070,-45.410,-43.457,-459.961,0.000
1606129062.070,-18.066,-27.344,-33.203,14.160,0.000
1606129062.074,185.547,-16.113,-15.625,396.973,0.000
1606129062.078,110.840,-19.043,-17.578,222.168,0.000
1606129062.082,-160.156,-45.898,-45.410,-308.105,0.000
1606129062.085,-261.719,-62.500,-48.340,-482.910,0.000
1606129062.089,-53.711,-42.480,-26.855,-46.387,0.000
1606129062.093,180.664,-10.254,-6.836,396.973,0.000
1606129062.097,141.602,-16.602,-9.766,296.387,0.000
1606129062.101,-138.672,-46.387,-33.691,-250.488,0.000
1606129062.105,-275.879,-55.176,-39.551,-503.418,0.000
1606129062.109,-98.145,-36.133,-22.949,-126.953,0.000
1606129062.113,151.855,-14.160,-1.465,354.980,0.000
1606129062.117,141.113,-21.973,-11.719,320.801,0.000
1606129062.121,-126.953,-43.457,-36.621,-208.984,0.000
1606129062.124,-280.762,-54.199,-42.969,-500.000,0.000
1606129062.128,-134.766,-55.176,-23.926,-188.965,0.000
1606129062.132,126.953,-24.414,-3.418,319.336,0.000
1606129062.136,165.527,-14.160,-8.789,373.047,0.000
1606129062.140,-82.031,-39.062,-30.762,-124.023,0.000
1606129062.144,-263.672,-49.316,-40.039,-478.516,0.000
1606129062.148,-144.043,-35.156,-21.484,-238.281,0.000
1606129062.152,126.465,-8.301,2.441,284.668,0.000
1606129062.156,190.918,-1.465,-7.324,397.949,0.000
1606129062.160,-41.504,-22.949,-26.855,-65.918,0.000
1606129062.164,-250.000,-38.574,-33.203,-465.820,0.000
1606129062.167,-170.898,-23.926,-36.621,-294.434,0.000
1606129062.171,113.281,-4.395,-20.508,246.582,0.000
1606129062.175,212.402,-6.836,-6.836,424.316,0.000
1606129062.179,-1.465,-19.043,-20.996,-1.953,0.000
1606129062.183,-221.191,-36.621,-36.133,-433.594,0.000
1606129062.187,-186.035,-42.969,-38.574,-333.984,0.000
1606129062.191,76.660,-22.949,-22.461,205.566,0.000
1606129062.195,213.867,-7.812,-15.137,455.078,0.000
1606129062.199,38.086,-22.949,-28.809,94.238,0.000
1606129062.203,-214.355,-43.945,-43.457,-388.672,0.000
1606129062.207,-218.750,-45.898,-37.109,-378.906,0.000
1606129062.210,53.711,-26.367,-16.602,154.785,0.000
1606129062.214,222.656,-14.160,-12.207,460.449,0.000
1606129062.218,82.520,-29.297,-25.391,164.551,0.000
1606129062.222,-173.828,-57.617,-45.410,-339.844,0.000
1606129062.226,-218.750,-59.570,-43.457,-401.855,0.000
1606129062.230,22.949,-33.691,-21.973,98.633,0.000
1606129062.234,209.961,-17.090,-13.672,451.172,0.000
1606129062.238,103.516,-24.902,-23.438,222.168,0.000
1606129062.242,-163.574,-50.293,-40.527,-296.387,0.000
1606129062.246,-234.375,-58.105,-43.457,-432.617,0.000
1606129062.249,-12.207,-37.598,-26.367,13.672,0.000
1606129062.253,201.172,-17.578,-18.066,430.664,0.000
1606129062.257,143.555,-26.367,-19.043,288.086,0.000
1606129062.261,-125.488,-62.500,-24.902,-254.395,0.000
1606129062.265,-242.676,-72.754,-37.109,-458.496,0.000
1606129062.269,-40.527,-43.945,-31.250,-42.480,0.000
1606129062.273,198.730,-16.602,-13.184,417.969,0.000
1606129062.277,167.480,-21.484,-16.113,338.867,0.000
1606129062.281,-100.586,-50.781,-36.621,-198.242,0.000
1606129062.285,-246.094,-57.129,-43.945,-457.031,0.000
1606129062.289,-82.031,-35.645,-29.785,-115.723,0.000
1606129062.292,169.434,-15.625,-16.113,367.676,0.000
1606129062.296,182.617,-12.695,-14.160,371.094,0.000
1606129062.300,-73.730,-38.086,-28.320,-152.344,0.000
1606129062.304,-249.023,-54.688,-47.852,-481.445,0.000
1606129062.308,-111.816,-44.434,-32.227,-194.824,0.000
1606129062.312,152.344,-19.531,-17.090,318.359,0.000
1606129062.316,188.965,-13.672,-22.949,384.277,0.000
1606129062.320,-52.734,-35.645,-38.086,-99.609,0.000
1606129062.324,-243.164,-52.246,-48.828,-462.402,0.000
1606129062.328,-149.902,-42.969,-41.016,-265.137,0.000
1606129062.332,110.352,-24.902,-22.949,240.234,0.000
1606129062.335,193.848,-16.602,-14.160,384.277,0.000
1606129062.339,-29.785,-29.297,-32.227,-58.594,0.000
1606129062.343,-261.230,-50.781,-45.410,-486.328,0.000
1606129062.347,-197.754,-43.945,-37.598,-347.656,0.000
1606129062.351,83.496,-23.438,-21.484,200.195,0.000
1606129062.355,198.242,-17.090,-13.672,407.715,0.000
1606129062.359,-0.488,-40.039,-29.785,4.395,0.000
1606129062.363,-241.211,-65.430,-48.828,-451.660,0.000
1606129062.367,-217.285,-63.477,-46.387,-381.348,0.000
1606129062.371,56.152,-41.016,-20.020,160.645,0.000
1606129062.374,204.102,-22.949,-11.230,433.105,0.000
1606129062.378,44.922,-33.691,-29.297,94.238,0.000
1606129062.382,-212.891,-59.082,-47.363,-395.996,0.000
1606129062.386,-230.957,-55.176,-45.898,-409.668,0.000
1606129062.390,37.109,-21.973,-20.996,111.816,0.000
1606129062.394,209.961,-7.812,-12.207,442.383,0.000
1606129062.398,71.777,-24.414,-24.902,166.992,0.000
1606129062.402,-197.266,-50.781,-40.527,-353.516,0.000
1606129062.406,-246.094,-62.988,-42.480,-441.406,0.000
1606129062.410,3.906,-42.480,-27.832,41.992,0.000
1606129062.414,201.660,-11.230,-17.578,422.852,0.000
1606129062.417,104.492,-17.090,-22.461,224.121,0.000
1606129062.421,-164.062,-44.434,-41.504,-312.988,0.000
1606129062.425,-250.000,-50.781,-45.410,-473.145,0.000
1606129062.429,-38.086,-30.762,-31.250,-29.297,0.000
1606129062.433,185.547,-4.883,-20.020,402.832,0.000
1606129062.437,140.137,-6.348,-19.531,271.484,0.000
1606129062.441,-129.395,-33.691,-37.109,-276.367,0.000
1606129062.445,-248.047,-42.969,-46.875,-493.652,0.000
1606129062.449,-67.383,-44.434,-34.180,-103.027,0.000
1606129062.453,165.527,-25.879,-13.672,357.422,0.000
1606129062.457,150.391,-12.695,-10.254,305.664,0.000
1606129062.460,-124.023,-39.062,-30.273,-227.051,0.000
1606129062.464,-275.391,-52.246,-42.969,-514.648,0.000
1606129062.468,-112.305,-34.668,-33.203,-187.012,0.000
1606129062.472,145.996,-4.395,-12.207,320.801,0.000
1606129062.476,172.363,1.953,-8.789,357.422,0.000
1606129062.480,-85.938,-25.391,-25.879,-148.926,0.000
1606129062.484,-268.066,-42.480,-39.551,-489.746,0.000
1606129062.488,-135.254,-28.809,-32.227,-227.051,0.000
1606129062.492,137.207,0.488,-7.812,300.293,0.000
1606129062.496,197.754,5.371,0.488,398.926,0.000
1606129062.499,-40.039,-21.484,-19.531,-82.031,0.000
1606129062.503,-253.418,-41.016,-32.227,-474.121,0.000
1606129062.507,-167.480,-32.715,-24.902,-283.203,0.000
1606129062.511,107.910,-9.277,-15.137,249.023,0.000
1606129062.515,201.172,-4.395,-11.719,417.969,0.000
1606129062.519,-7.324,-26.855,-22.461,-10.254,0.000
1606129062.523,-229.980,-39.551,-35.645,-446.777,0.000
1606129062.527,-185.547,-36.621,-37.598,-335.938,0.000
1606129062.531,74.219,-21.484,-25.879,200.195,0.000
1606129062.535,195.801,-8.301,-11.230,432.617,0.000
1606129062.539,15.625,-20.508,-27.344,50.781,0.000
1606129062.542,-232.910,-42.480,-42.969,-429.199,0.000
1606129062.546,-231.445,-50.781,-37.109,-394.531,0.000
1606129062.550,39.551,-36.621,-25.879,133.301,0.000
1606129062.554,204.590,-13.184,-18.066,422.363,0.000
1606129062.558,54.199,-17.090,-27.344,108.398,0.000
1606129062.562,-207.031,-40.039,-42.969,-394.531,0.000
1606129062.566,-238.770,-41.504,-43.457,-429.688,0.000
1606129062.570,13.184,-20.020,-19.531,86.426,0.000
1606129062.574,199.707,-3.906,-7.324,430.664,0.000
1606129062.578,80.566,-11.230,-17.578,175.293,0.000
1606129062.582,-198.242,-33.203,-38.574,-351.562,0.000
1606129062.585,-265.625,-45.898,-44.922,-459.473,0.000
1606129062.589,-31.738,-35.156,-22.461,13.184,0.000
1606129062.593,166.504,-5.371,-10.254,406.738,0.000
1606129062.597,84.473,-6.348,-14.160,226.562,0.000
1606129062.601,-180.664,-36.621,-37.598,-312.500,0.000
1606129062.605,-276.367,-47.363,-48.340,-489.258,0.000
1606129062.609,-63.965,-25.879,-27.832,-58.105,0.000
1606129062.613,171.875,1.953,-14.160,386.719,0.000
1606129062.617,128.906,-2.930,-18.555,290.039,0.000
1606129062.621,-136.230,-36.621,-37.109,-240.234,0.000
1606129062.624,-256.836,-45.898,-44.434,-480.469,0.000
1606129062.628,-74.707,-22.461,-28.809,-109.863,0.000
1606129062.632,170.898,3.418,-6.348,375.000,0.000
1606129062.636,162.598,2.930,-7.324,349.609,0.000
1606129062.640,-101.074,-26.367,-34.668,-183.105,0.000
1606129062.644,-265.625,-43.945,-44.922,-484.375,0.000
1606129062.648,-121.094,-49.316,-34.180,-181.641,0.000
1606129062.652,145.020,-30.762,-16.602,320.801,0.000
1606129062.656,175.293,-11.230,-12.207,374.023,0.000
1606129062.660,-77.637,-31.738,-29.785,-127.930,0.000
1606129062.664,-253.418,-43.457,-40.039,-475.586,0.000
1606129062.667,-137.695,-32.715,-24.414,-236.816,0.000
1606129062.671,123.047,-10.742,-6.836,276.855,0.000
1606129062.675,191.895,-6.836,-12.207,394.043,0.000
1606129062.679,-35.645,-26.367,-25.879,-70.801,0.000
1606129062.683,-247.559,-41.992,-30.762,-476.562,0.000
1606129062.687,-170.410,-47.852,-20.996,-306.152,0.000
1606129062.691,97.168,-24.902,-6.348,237.793,0.000
1606129062.695,200.684,3.418,-5.371,427.246,0.000
1606129062.699,2.930,-14.648,-16.113,8.789,0.000
1606129062.703,-229.492,-36.621,-27.344,-437.988,0.000
1606129062.707,-202.148,-37.109,-26.855,-353.027,0.000
1606129062.710,55.176,-26.367,-14.160,179.688,0.000
1606129062.714,195.312,-11.719,0.488,432.129,0.000
1606129062.718,26.367,-16.602,-15.137,74.707,0.000
1606129062.722,-224.609,-33.691,-35.156,-405.273,0.000
1606129062.726,-220.703,-40.039,-18.555,-390.137,0.000
1606129062.730,43.945,-34.180,-10.254,132.812,0.000
1606129062.734,204.590,-11.230,-13.184,436.035,0.000
1606129062.738,58.105,-16.602,-26.855,137.695,0.000
1606129062.742,-206.055,-44.922,-47.363,-375.488,0.000
1606129062.746,-240.234,-44.922,-46.875,-438.477,0.000
1606129062.749,4.395,-23.438,-20.508,61.523,0.000
1606129062.753,179.199,-13.184,-4.883,413.086,0.000
1606129062.757,70.312,-20.020,-20.996,176.270,0.000
1606129062.761,-207.031,-46.387,-43.945,-349.121,0.000
1606129062.765,-286.621,-57.129,-42.969,-483.398,0.000
1606129062.769,-48.340,-29.785,-18.555,-31.738,0.000
1606129062.773,171.387,-7.812,-2.441,385.742,0.000
1606129062.777,100.098,-15.625,-16.113,231.934,0.000
1606129062.781,-170.898,-40.527,-35.645,-304.199,0.000
1606129062.785,-278.809,-59.570,-39.551,-492.676,0.000
1606129062.789,-77.637,-50.781,-26.367,-80.078,0.000
1606129062.792,162.598,-14.648,-10.254,371.094,0.000
1606129062.796,128.906,-11.230,-16.602,300.293,0.000
1606129062.800,-145.996,-41.016,-36.133,-238.770,0.000
1606129062.804,-280.273,-54.199,-42.480,-510.254,0.000
1606129062.808,-99.121,-36.621,-31.250,-151.855,0.000
1606129062.812,155.273,-13.184,-12.695,344.238,0.000
1606129062.816,163.574,-11.230,-3.906,344.238,0.000
1606129062.820,-92.285,-28.809,-26.855,-176.270,0.000
1606129062.824,-257.324,-41.992,-42.480,-489.746,0.000
1606129062.828,-118.652,-40.527,-28.320,-204.590,0.000
1606129062.832,142.578,-23.438,-14.648,304.688,0.000
1606129062.835,190.430,-11.230,-15.137,385.742,0.000
1606129062.839,-43.457,-29.297,-22.949,-104.004,0.000
1606129062.843,-233.398,-46.387,-25.391,-471.680,0.000
1606129062.847,-145.996,-41.992,-21.973,-251.465,0.000
1606129062.851,119.629,-15.625,-3.418,286.133,0.000
1606129062.855,206.543,1.465,0.977,432.129,0.000
1606129062.859,-13.672,-19.043,-18.555,-22.949,0.000
1606129062.863,-228.516,-33.691,-27.344,-439.453,0.000
1606129062.867,-170.898,-34.668,-21.973,-299.805,0.000
1606129062.871,93.262,-20.508,-7.812,227.539,0.000
1606129062.874,213.379,5.371,-2.930,424.316,0.000
1606129062.878,13.184,-15.625,-22.461,24.902,0.000
1606129062.882,-229.004,-43.457,-37.109,-426.758,0.000
1606129062.886,-212.402,-35.645,-31.250,-361.328,0.000
1606129062.890,53.223,-14.160,-18.066,163.574,0.000
1606129062.894,193.359,-8.301,-13.184,424.316,0.000
1606129062.898,17.090,-20.020,-27.344,80.078,0.000
1606129062.902,-231.934,-33.203,-45.410,-410.645,0.000
1606129062.906,-237.793,-34.180,-44.922,-424.316,0.000
1606129062.910,22.461,-8.301,-32.227,95.215,0.000
1606129062.914,201.172,16.113,-21.484,431.152,0.000
1606129062.917,83.008,1.465,-32.227,153.320,0.000
1606129062.921,-181.641,-31.250,-43.457,-367.188,0.000
1606129062.925,-246.582,-42.969,-30.273,-451.660,0.000
1606129062.929,-20.996,-40.039,-16.602,29.297,0.000
1606129062.933,166.504,-25.879,-9.277,402.832,0.000
1606129062.937,69.336,-28.809,-13.184,206.055,0.000
1606129062.941,-196.289,-53.711,-26.855,-320.312,0.000
1606129062.945,-277.832,-55.176,-27.344,-477.051,0.000
1606129062.949,-64.453,-34.668,-13.672,-39.062,0.000
1606129062.953,156.250,-18.066,2.930,376.953,0.000
1606129062.957,104.492,-22.461,-6.348,262.695,0.000
1606129062.960,-161.621,-46.875,-28.320,-270.020,0.000
1606129062.964,-268.066,-60.547,-33.691,-497.559,0.000
1606129062.968,-69.336,-58.594,-20.996,-100.586,0.000
1606129062.972,172.363,-24.902,-1.953,367.676,0.000
1606129062.976,154.297,-12.207,-4.883,314.941,0.000
1606129062.980,-120.605,-44.434,-29.297,-213.379,0.000
1606129062.984,-275.879,-56.641,-38.086,-487.793,0.000
1606129062.988,-114.746,-46.387,-27.832,-166.016,0.000
1606129062.992,143.066,-20.020,-9.766,329.102,0.000
1606129062.996,167.969,-14.160,-7.812,359.863,0.000
1606129062.999,-87.402,-40.527,-27.344,-149.414,0.000
1606129063.003,-266.602,-47.363,-36.621,-491.699,0.000
1606129063.007,-144.043,-63.965,-31.738,-229.980,0.000
1606129063.011,126.465,-56.152,-13.184,293.945,0.000
1606129063.015,186.035,-17.090,-11.230,387.207,0.000
1606129063.019,-59.570,-30.762,-33.691,-94.727,0.000
1606129063.023,-259.277,-51.758,-40.039,-479.492,0.000
1606129063.027,-157.227,-37.598,-24.414,-277.832,0.000
1606129063.031,112.305,-7.324,-11.230,254.395,0.000
1606129063.035,202.637,-0.488,-0.488,421.387,0.000
1606129063.039,-12.695,-19.531,-19.043,-9.766,0.000
1606129063.042,-236.328,-45.898,-41.992,-444.824,0.000
1606129063.046,-180.176,-44.434,-25.879,-331.543,0.000
1606129063.050,83.984,-15.625,-15.625,208.008,0.000
1606129063.054,204.102,-3.906,-11.719,440.918,0.000
1606129063.058,15.625,-27.832,-21.973,55.664,0.000
1606129063.062,-228.027,-49.805,-38.086,-421.387,0.000
1606129063.066,-211.914,-48.828,-35.156,-376.465,0.000
1606129063.070,61.035,-25.391,-15.137,157.227,0.000
1606129063.074,216.797,-3.418,-1.953,438.477,0.000
1606129063.078,55.176,-20.996,-21.973,110.840,0.000
1606129063.082,-202.148,-47.852,-40.039,-384.277,0.000
1606129063.085,-227.051,-48.340,-40.039,-417.969,0.000
1606129063.089,23.926,-19.531,-31.250,79.590,0.000
1606129063.093,199.707,-4.883,-16.113,426.758,0.000
1606129063.097,77.637,-17.578,-19.043,175.781,0.000
1606129063.101,-190.430,-35.156,-46.387,-351.074,0.000
1606129063.105,-253.906,-48.828,-47.363,-457.520,0.000
1606129063.109,-20.996,-62.988,-26.367,20.996,0.000
1606129063.113,182.129,-38.574,-17.578,413.574,0.000
1606129063.117,99.121,-18.066,-23.438,227.539,0.000
1606129063.121,-170.898,-34.668,-38.574,-306.641,0.000
1606129063.124,-272.461,-40.527,-44.434,-482.910,0.000
1606129063.128,-66.895,-24.902,-38.086,-60.547,0.000
1606129063.132,163.574,-4.395,-23.926,373.047,0.000
1606129063.136,116.699,-7.324,-22.949,264.648,0.000
1606129063.140,-162.109,-36.133,-49.316,-277.344,0.000
1606129063.144,-291.016,-43.457,-60.547,-514.648,0.000
1606129063.148,-104.004,-34.180,-40.039,-139.160,0.000
1606129063.152,148.926,-14.160,-21.484,343.750,0.000
1606129063.156,151.855,2.441,-19.043,326.172,0.000
1606129063.160,-109.863,-26.367,-35.645,-199.707,0.000
1606129063.164,-267.090,-46.387,-47.363,-489.258,0.000
1606129063.167,-115.234,-27.344,-35.156,-168.457,0.000
1606129063.171,147.461,-4.395,-14.648,334.473,0.000
1606129063.175,179.199,-4.395,-11.719,384.766,0.000
1606129063.179,-70.312,-34.668,-32.227,-106.445,0.000
1606129063.183,-249.023,-47.363,-52.734,-455.566,0.000
1606129063.187,-135.742,-23.438,-45.410,-223.145,0.000
1606129063.191,125.977,6.348,-19.043,287.598,0.000
1606129063.195,183.594,8.301,-9.277,394.043,0.000
1606129063.199,-56.641,-20.508,-34.180,-83.984,0.000
1606129063.203,-263.672,-42.480,-55.664,-489.258,0.000
1606129063.207,-184.570,-46.387,-53.223,-314.453,0.000
1606129063.210,81.055,-29.785,-48.340,217.285,0.000
1606129063.214,171.875,-11.719,-41.504,395.020,0.000
1606129063.218,-27.832,-20.508,-47.363,-15.137,0.000
1606129063.222,-249.023,-40.039,-62.988,-454.590,0.000
1606129063.226,-208.008,-33.691,-56.641,-355.469,0.000
1606129063.230,66.406,-11.719,-35.645,179.199,0.000
1606129063.234,197.266,-1.465,-29.297,416.016,0.000
1606129063.238,15.137,-17.578,-44.922,52.246,0.000
1606129063.242,-237.305,-40.039,-56.641,-426.270,0.000
1606129063.246,-233.887,-41.504,-51.758,-408.203,0.000
1606129063.249,37.598,-29.297,-36.133,117.188,0.000
1606129063.253,187.988,-20.996,-26.367,421.875,0.000
1606129063.257,34.668,-31.738,-34.180,122.559,0.000
1606129063.261,-221.191,-47.852,-44.434,-379.395,0.000
1606129063.265,-253.418,-47.852,-41.992,-435.547,0.000
1606129063.269,0.000,-22.461,-25.879,67.383,0.000
1606129063.273,199.707,1.465,-12.695,428.711,0.000
1606129063.277,92.285,-11.230,-24.414,192.383,0.000
1606129063.281,-178.223,-38.086,-45.898,-336.426,0.000
1606129063.285,-242.188,-46.387,-44.922,-462.891,0.000
1606129063.289,-4.395,-36.133,-23.438,4.395,0.000
1606129063.292,211.914,-16.602,-17.578,412.598,0.000
1606129063.296,132.812,-24.902,-30.762,249.512,0.000
1606129063.300,-144.043,-44.434,-50.293,-290.039,0.000
1606129063.304,-245.117,-47.852,-51.270,-479.004,0.000
1606129063.308,-44.434,-36.621,-31.250,-65.430,0.000
1606129063.312,194.824,-9.277,-16.113,382.812,0.000
1606129063.316,167.969,-6.836,-20.508,295.410,0.000
1606129063.320,-107.910,-36.621,-42.480,-239.746,0.000
1606129063.324,-253.418,-48.340,-47.852,-492.188,0.000
1606129063.328,-83.496,-34.668,-33.691,-141.113,0.000
1606129063.332,169.434,-12.695,-18.066,344.727,0.000
1606129063.335,176.758,-9.766,-10.742,346.680,0.000
1606129063.339,-81.543,-31.250,-27.344,-169.434,0.000
1606129063.343,-246.094,-38.086,-31.738,-479.980,0.000
1606129063.347,-104.980,-38.574,-16.602,-181.641,0.000
1606129063.351,154.785,-16.602,-12.695,320.801,0.000
1606129063.355,196.777,0.488,-12.695,383.789,0.000
1606129063.359,-55.176,-28.809,-26.367,-104.492,0.000
1606129063.363,-257.324,-50.293,-41.504,-480.957,0.000
1606129063.367,-154.297,-38.574,-37.598,-262.207,0.000
1606129063.371,119.629,-6.836,-14.160,271.973,0.000
1606129063.374,203.125,0.000,-10.254,409.180,0.000
1606129063.378,-20.996,-24.414,-31.738,-42.480,0.000
1606129063.382,-240.234,-35.645,-39.062,-459.473,0.000
1606129063.386,-177.246,-41.016,-28.809,-310.547,0.000
1606129063.390,91.309,-43.457,-9.766,217.773,0.000
1606129063.394,209.961,-8.789,-5.859,412.109,0.000
1606129063.398,15.137,-8.301,-27.832,20.996,0.000
1606129063.402,-231.934,-33.691,-44.434,-433.105,0.000
1606129063.406,-202.148,-26.855,-34.180,-361.328,0.000
1606129063.410,68.359,-9.277,-11.230,172.363,0.000
1606129063.414,204.102,-6.348,-6.348,425.781,0.000
1606129063.417,40.039,-20.508,-19.531,84.961,0.000
1606129063.421,-214.844,-33.691,-35.645,-400.391,0.000
1606129063.425,-229.492,-44.922,-34.668,-407.715,0.000
1606129063.429,32.715,-35.645,-15.625,121.582,0.000
1606129063.433,198.242,-1.465,-2.441,440.430,0.000
1606129063.437,48.340,-11.230,-20.020,143.066,0.000
1606129063.441,-220.215,-40.527,-38.086,-373.535,0.000
1606129063.445,-266.113,-51.758,-35.645,-444.336,0.000
1606129063.449,-20.508,-36.621,-11.719,47.363,0.000
1606129063.453,173.340,-9.277,6.348,421.387,0.000
1606129063.457,72.266,-18.066,-15.137,208.984,0.000
1606129063.460,-193.359,-46.875,-36.133,-326.172,0.000
1606129063.464,-274.902,-49.316,-34.668,-475.098,0.000
1606129063.468,-53.711,-32.715,-20.996,-22.949,0.000
1606129063.472,167.969,-14.648,-12.695,396.484,0.000
1606129063.476,111.816,-18.555,-21.973,254.883,0.000
1606129063.480,-158.691,-47.363,-37.598,-281.738,0.000
1606129063.484,-270.020,-54.688,-44.922,-495.605,0.000
1606129063.488,-68.359,-71.289,-34.668,-103.027,0.000
1606129063.492,173.828,-60.059,-14.648,363.281,0.000
1606129063.496,153.809,-18.066,-17.090,312.012,0.000
1606129063.499,-109.863,-30.762,-36.133,-220.215,0.000
1606129063.503,-251.953,-41.016,-45.898,-495.117,0.000
1606129063.507,-85.449,-27.832,-31.250,-154.785,0.000
1606129063.511,176.758,-5.371,-11.719,347.168,0.000
1606129063.515,180.664,-4.395,-22.461,339.844,0.000
1606129063.519,-81.055,-32.227,-46.387,-183.105,0.000
1606129063.523,-237.793,-38.574,-42.480,-479.004,0.000
1606129063.527,-108.398,-46.875,-20.996,-208.496,0.000
1606129063.531,145.508,-33.203,-18.555,304.199,0.000
1606129063.535,197.754,0.488,-21.484,395.020,0.000
1606129063.539,-39.062,-18.555,-34.668,-86.914,0.000
1606129063.542,-244.629,-36.621,-48.828,-475.586,0.000
1606129063.546,-150.879,-27.344,-36.621,-276.855,0.000
1606129063.550,122.070,-2.930,-14.648,254.395,0.000
1606129063.554,212.402,5.371,-14.160,411.133,0.000
1606129063.558,-11.719,-23.438,-31.250,-29.297,0.000
1606129063.562,-247.559,-42.480,-40.527,-462.402,0.000
1606129063.566,-188.477,-36.133,-31.250,-333.496,0.000
1606129063.570,86.914,-13.184,-12.695,210.938,0.000
1606129063.574,201.660,1.953,-8.301,426.270,0.000
1606129063.578,9.277,-21.973,-31.738,33.203,0.000
1606129063.582,-231.445,-40.039,-46.387,-431.641,0.000
1606129063.585,-221.680,-45.898,-38.574,-390.625,0.000
1606129063.589,44.922,-35.156,-22.461,141.113,0.000
1606129063.593,197.266,-10.254,-18.555,427.246,0.000
1606129063.597,37.109,-20.996,-29.297,100.586,0.000
1606129063.601,-221.680,-46.387,-43.457,-392.578,0.000
1606129063.605,-251.465,-55.176,-47.363,-429.688,0.000
1606129063.609,0.000,-35.645,-30.273,76.660,0.000
1606129063.613,185.059,-19.531,-18.555,432.129,0.000
1606129063.617,71.289,-24.414,-24.414,181.641,0.000
1606129063.621,-209.961,-39.551,-44.434,-362.305,0.000
1606129063.624,-275.879,-51.758,-48.828,-474.609,0.000
1606129063.628,-30.273,-41.504,-33.203,9.277,0.000
1606129063.632,175.293,-7.812,-23.438,403.809,0.000
1606129063.636,82.520,-17.090,-24.414,213.379,0.000
1606129063.640,-192.871,-49.805,-42.480,-322.266,0.000
1606129063.644,-281.738,-56.152,-47.852,-491.699,0.000
1606129063.648,-58.105,-37.598,-29.785,-53.711,0.000
1606129063.652,175.293,-11.719,-10.742,388.184,0.000
1606129063.656,125.977,-15.625,-16.113,276.855,0.000
1606129063.660,-145.020,-39.062,-29.785,-256.348,0.000
1606129063.664,-269.531,-45.898,-40.527,-491.699,0.000
1606129063.667,-87.891,-42.480,-35.645,-113.770,0.000
1606129063.671,155.273,-30.762,-19.531,359.863,0.000
1606129063.675,148.438,-18.555,-21.973,321.289,0.000
1606129063.679,-114.746,-38.086,-38.574,-208.984,0.000
1606129063.683,-271.484,-47.852,-47.852,-504.395,0.000
1606129063.687,-115.234,-28.320,-33.691,-188.477,0.000
1606129063.691,148.438,-6.836,-16.113,318.848,0.000
1606129063.695,180.176,-9.277,-15.137,365.234,0.000
1606129063.699,-74.219,-34.668,-24.902,-143.066,0.000
1606129063.703,-264.160,-50.293,-34.180,-494.141,0.000
1606129063.707,-146.973,-38.574,-26.855,-243.652,0.000
1606129063.710,125.488,-14.648,-8.789,287.109,0.000
1606129063.714,193.359,-6.836,-5.859,404.297,0.000
1606129063.718,-39.551,-32.715,-29.785,-62.500,0.000
1606129063.722,-245.117,-44.922,-41.016,-461.914,0.000
1606129063.726,-162.109,-30.762,-29.785,-286.133,0.000
1606129063.730,104.980,-11.230,-16.602,243.164,0.000
1606129063.734,198.730,-8.301,-9.277,418.945,0.000
1606129063.738,-5.859,-22.949,-26.855,-2.441,0.000
1606129063.742,-228.516,-38.086,-42.480,-451.172,0.000
1606129063.746,-187.012,-36.621,-34.180,-350.586,0.000
1606129063.749,82.031,-13.184,-18.555,188.965,0.000
1606129063.753,219.238,0.977,-6.348,431.641,0.000
1606129063.757,40.527,-14.648,-20.020,64.941,0.000
1606129063.761,-214.844,-38.086,-46.387,-422.852,0.000
1606129063.765,-217.285,-41.992,-42.480,-404.785,0.000
1606129063.769,44.434,-27.832,-21.973,124.512,0.000
1606129063.773,204.102,-8.789,-11.230,428.711,0.000
1606129063.777,54.199,-17.578,-21.484,120.117,0.000
1606129063.781,-212.891,-44.922,-39.062,-389.160,0.000
1606129063.785,-250.488,-49.316,-47.363,-442.871,0.000
1606129063.789,2.441,-27.832,-30.273,54.688,0.000
1606129063.792,193.848,-5.371,-6.348,418.457,0.000
1606129063.796,77.148,-17.578,-26.367,177.734,0.000
1606129063.800,-198.242,-43.945,-53.711,-357.422,0.000
1606129063.804,-270.996,-44.922,-57.129,-476.562,0.000
1606129063.808,-38.574,-36.621,-40.039,-6.348,0.000
1606129063.812,185.059,-21.973,-16.113,413.086,0.000
1606129063.816,125.000,-16.113,-20.996,262.207,0.000
1606129063.820,-149.902,-31.250,-39.062,-290.039,0.000
1606129063.824,-268.066,-40.039,-42.480,-500.488,0.000
1606129063.828,-65.918,-27.344,-28.809,-78.125,0.000
1606129063.832,165.039,-10.742,-15.137,381.348,0.000
1606129063.835,121.094,-16.113,-19.531,289.062,0.000
1606129063.839,-150.879,-39.551,-30.762,-244.629,0.000
1606129063.843,-282.227,-48.828,-36.133,-489.258,0.000
1606129063.847,-113.281,-37.109,-35.156,-133.301,0.000
1606129063.851,140.137,-17.578,-17.578,354.980,0.000
1606129063.855,156.250,-17.090,-10.742,348.633,0.000
1606129063.859,-100.586,-38.574,-25.391,-180.664,0.000
1606129063.863,-261.230,-47.363,-33.203,-496.094,0.000
1606129063.867,-118.652,-47.363,-35.645,-208.008,0.000
1606129063.871,144.043,-33.203,-23.438,305.176,0.000
1606129063.874,182.617,-8.301,-15.137,380.859,0.000
1606129063.878,-71.777,-23.438,-30.762,-110.840,0.000
1606129063.882,-263.184,-41.016,-45.898,-483.887,0.000
1606129063.886,-159.668,-31.738,-35.645,-269.043,0.000
1606129063.890,109.863,-8.301,-12.207,266.602,0.000
1606129063.894,187.012,-1.953,-10.742,406.738,0.000
1606129063.898,-43.945,-26.367,-34.668,-59.570,0.000
1606129063.902,-267.578,-52.734,-46.387,-489.258,0.000
1606129063.906,-205.566,-53.711,-40.039,-339.844,0.000
1606129063.910,76.172,-24.902,-20.508,210.449,0.000
1606129063.914,190.918,-2.441,-11.719,415.039,0.000
1606129063.917,-12.207,-23.926,-35.645,3.418,0.000
1606129063.921,-250.000,-46.875,-51.270,-459.473,0.000
1606129063.925,-221.191,-42.969,-39.062,-384.277,0.000
1606129063.929,52.246,-18.066,-17.090,164.062,0.000
1606129063.933,198.242,-1.465,-12.207,433.594,0.000
1606129063.937,32.715,-16.602,-27.832,84.961,0.000
1606129063.941,-214.844,-37.109,-32.715,-403.809,0.000
1606129063.945,-218.750,-32.227,-34.180,-404.785,0.000
1606129063.949,42.969,-20.508,-23.438,124.023,0.000
1606129063.953,215.820,-10.254,-1.953,452.148,0.000
1606129063.957,75.195,-12.207,-12.695,164.551,0.000
1606129063.960,-196.289,-40.039,-40.039,-358.398,0.000
1606129063.964,-241.211,-46.875,-41.016,-436.035,0.000
1606129063.968,5.859,-28.320,-20.020,59.570,0.000
1606129063.972,208.496,-8.789,-9.277,431.641,0.000
1606129063.976,110.840,-12.695,-20.996,212.891,0.000
1606129063.980,-166.016,-37.109,-37.598,-327.637,0.000
1606129063.984,-253.418,-44.922,-42.480,-478.027,0.000
1606129063.988,-33.203,-23.926,-31.250,-21.973,0.000
1606129063.992,187.988,1.953,-17.090,406.738,0.000
1606129063.996,123.535,-6.836,-24.902,262.695,0.000
1606129063.999,-150.391,-38.574,-44.434,-286.621,0.000
1606129064.003,-266.602,-53.711,-54.688,-500.488,0.000
1606129064.007,-71.777,-44.434,-39.062,-101.074,0.000
1606129064.011,169.922,-17.090,-15.625,366.211,0.000
1606129064.015,151.855,-12.207,-18.555,309.082,0.000
1606129064.019,-120.117,-40.527,-40.039,-236.328,0.000
1606129064.023,-273.926,-49.316,-49.316,-515.625,0.000
1606129064.027,-104.980,-34.180,-36.621,-162.598,0.000
1606129064.031,148.926,-13.672,-21.973,324.219,0.000
1606129064.035,161.621,-11.230,-18.066,334.473,0.000
1606129064.039,-91.309,-28.809,-32.227,-171.387,0.000
1606129064.042,-265.137,-47.363,-48.340,-506.836,0.000
1606129064.046,-133.789,-51.270,-40.527,-238.770,0.000
1606129064.050,136.719,-24.902,-16.113,291.016,0.000
1606129064.054,184.082,-6.348,-13.672,389.648,0.000
1606129064.058,-68.848,-28.809,-25.391,-97.168,0.000
1606129064.062,-266.113,-48.828,-36.133,-485.840,0.000
1606129064.066,-171.387,-48.340,-32.227,-285.156,0.000
1606129064.070,100.098,-24.902,-6.348,258.789,0.000
1606129064.074,192.871,-8.789,-8.301,421.387,0.000
1606129064.078,-24.414,-32.715,-33.203,-23.926,0.000
1606129064.082,-249.512,-47.852,-40.039,-453.125,0.000
1606129064.085,-190.918,-40.039,-33.203,-325.195,0.000
1606129064.089,85.938,-26.367,-21.484,220.703,0.000
1606129064.093,207.520,-10.742,-13.672,447.266,0.000
1606129064.097,20.996,-20.508,-23.926,53.223,0.000
1606129064.101,-224.609,-42.480,-37.109,-414.551,0.000
1606129064.105,-211.426,-47.852,-36.133,-368.164,0.000
1606129064.109,64.941,-19.531,-19.531,176.270,0.000
1606129064.113,219.238,-1.465,-10.742,462.402,0.000
1606129064.117,54.688,-14.648,-23.926,107.910,0.000
1606129064.121,-204.590,-36.621,-41.016,-401.855,0.000
1606129064.124,-227.539,-45.410,-37.598,-428.223,0.000
1606129064.128,29.297,-24.414,-17.578,94.727,0.000
1606129064.132,209.473,-2.930,-3.906,440.918,0.000
1606129064.136,83.496,-12.695,-8.301,172.363,0.000
1606129064.140,-191.406,-43.457,-29.297,-359.863,0.000
1606129064.144,-256.836,-56.641,-35.156,-470.215,0.000
1606129064.148,-20.508,-28.809,-15.625,16.602,0.000
1606129064.152,189.453,0.977,-6.836,419.922,0.000
1606129064.156,99.121,-12.695,-19.531,229.004,0.000
1606129064.160,-182.617,-45.898,-34.180,-315.430,0.000
1606129064.164,-279.297,-51.270,-39.551,-487.305,0.000
1606129064.167,-62.012,-25.391,-32.715,-49.316,0.000
1606129064.171,172.363,-8.301,-12.207,397.949,0.000
1606129064.175,125.488,-14.648,-13.672,286.621,0.000
1606129064.179,-146.484,-42.480,-37.109,-260.742,0.000
1606129064.183,-272.461,-54.688,-41.016,-497.070,0.000
1606129064.187,-83.008,-41.504,-27.832,-109.863,0.000
1606129064.191,167.969,-23.926,-13.184,370.605,0.000
1606129064.195,162.598,-12.695,-11.719,336.426,0.000
1606129064.199,-103.027,-36.133,-30.762,-195.801,0.000
1606129064.203,-269.531,-53.711,-44.434,-497.559,0.000
1606129064.207,-117.188,-37.109,-30.273,-185.059,0.000
1606129064.210,154.297,-10.742,-7.324,330.566,0.000
1606129064.214,188.477,-9.766,-11.230,378.906,0.000
1606129064.218,-70.801,-40.527,-36.133,-145.020,0.000
1606129064.222,-256.348,-59.570,-46.875,-499.512,0.000
1606129064.226,-135.742,-47.363,-35.645,-234.863,0.000
1606129064.230,137.695,-24.414,-19.531,302.246,0.000
1606129064.234,209.473,-11.230,-14.160,412.109,0.000
1606129064.238,-30.762,-22.949,-31.250,-70.801,0.000
1606129064.242,-248.535,-39.551,-47.363,-477.539,0.000
1606129064.246,-170.898,-34.180,-38.086,-301.758,0.000
1606129064.249,108.398,-6.836,-16.602,243.652,0.000
1606129064.253,208.496,-0.488,-12.207,416.992,0.000
1606129064.257,-6.836,-22.461,-31.250,-14.648,0.000
1606129064.261,-240.234,-41.992,-48.828,-459.961,0.000
1606129064.265,-199.219,-39.062,-41.504,-352.051,0.000
1606129064.269,76.172,-15.137,-17.090,202.148,0.000
1606129064.273,201.660,-3.906,-12.695,443.359,0.000
1606129064.277,21.973,-28.320,-23.438,78.125,0.000
1606129064.281,-227.051,-54.199,-37.598,-408.203,0.000
1606129064.285,-238.770,-41.992,-38.574,-404.297,0.000
1606129064.289,26.367,-15.625,-20.508,133.301,0.000
1606129064.292,196.777,-10.254,-9.766,444.336,0.000
1606129064.296,41.016,-21.484,-23.438,126.953,0.000
1606129064.300,-230.957,-42.480,-43.457,-396.484,0.000
1606129064.304,-254.883,-43.945,-44.434,-444.824,0.000
1606129064.308,5.371,-19.531,-32.227,68.359,0.000
1606129064.312,193.848,-7.812,-19.531,428.223,0.000
1606129064.316,75.195,-22.461,-30.762,185.059,0.000
1606129064.320,-194.336,-43.945,-47.852,-351.562,0.000
1606129064.324,-254.883,-46.387,-44.434,-477.539,0.000
1606129064.328,-19.531,-30.762,-28.809,-17.090,0.000
1606129064.332,193.848,-12.207,-20.996,397.461,0.000
1606129064.335,116.699,-14.648,-29.785,239.258,0.000
1606129064.339,-159.180,-40.527,-47.363,-306.152,0.000
1606129064.343,-261.719,-45.410,-50.293,-500.977,0.000
1606129064.347,-58.105,-22.949,-26.367,-81.055,0.000
1606129064.351,176.270,-5.371,-8.789,374.512,0.000
1606129064.355,139.648,-14.648,-24.902,282.715,0.000
1606129064.359,-139.648,-36.621,-46.387,-262.207,0.000
1606129064.363,-274.902,-42.969,-48.340,-510.254,0.000
1606129064.367,-97.168,-24.414,-29.297,-143.555,0.000
1606129064.371,155.762,-1.465,-14.648,346.680,0.000
1606129064.374,166.992,-4.883,-20.996,340.820,0.000
1606129064.378,-100.098,-30.762,-33.691,-187.988,0.000
1606129064.382,-274.902,-42.969,-44.922,-510.742,0.000
1606129064.386,-132.324,-30.273,-36.133,-211.914,0.000
1606129064.390,139.160,-9.766,-15.625,314.453,0.000
1606129064.394,179.199,-3.906,-20.020,377.441,0.000
1606129064.398,-77.637,-26.367,-42.480,-131.348,0.000
1606129064.402,-273.926,-44.434,-49.805,-500.000,0.000
1606129064.406,-168.457,-40.039,-41.504,-266.602,0.000
1606129064.410,110.840,-14.648,-19.043,273.438,0.000
1606129064.414,189.941,-8.301,-13.184,411.133,0.000
1606129064.417,-42.480,-41.992,-33.691,-55.664,0.000
1606129064.421,-265.625,-65.918,-37.109,-476.562,0.000
1606129064.425,-196.289,-61.523,-24.902,-322.754,0.000
1606129064.429,84.961,-32.227,-11.230,229.492,0.000
1606129064.433,194.824,-16.113,-9.277,430.176,0.000
1606129064.437,-6.836,-34.180,-28.320,11.230,0.000
1606129064.441,-240.723,-57.129,-46.387,-446.777,0.000
1606129064.445,-205.078,-54.199,-35.645,-369.141,0.000
1606129064.449,72.754,-23.926,-8.789,175.293,0.000
1606129064.453,210.449,-9.766,-9.277,435.059,0.000
1606129064.457,37.598,-26.855,-27.344,83.984,0.000
1606129064.460,-211.426,-53.223,-32.227,-406.250,0.000
1606129064.464,-222.168,-49.805,-30.762,-412.598,0.000
1606129064.468,39.062,-22.461,-18.555,116.699,0.000
1606129064.472,210.938,-6.348,-3.418,442.871,0.000
1606129064.476,78.125,-15.137,-14.160,152.832,0.000
1606129064.480,-186.523,-33.691,-33.203,-367.188,0.000
1606129064.484,-242.188,-40.527,-40.039,-444.824,0.000
1606129064.488,7.324,-22.949,-21.484,58.105,0.000
1606129064.492,210.449,-6.348,-11.230,437.500,0.000
1606129064.496,101.074,-25.391,-26.367,211.426,0.000
1606129064.499,-173.828,-53.711,-42.480,-324.219,0.000
1606129064.503,-256.348,-44.922,-46.387,-471.191,0.000
1606129064.507,-33.691,-22.949,-31.250,-14.648,0.000
1606129064.511,189.453,-12.695,-20.996,411.621,0.000
1606129064.515,128.906,-15.137,-26.367,271.973,0.000
1606129064.519,-153.809,-43.945,-42.969,-276.367,0.000
1606129064.523,-272.949,-53.223,-44.922,-494.629,0.000
1606129064.527,-72.266,-32.227,-31.250,-88.867,0.000
1606129064.531,173.340,-10.742,-18.555,378.418,0.000
1606129064.535,152.344,-4.883,-20.508,317.383,0.000
1606129064.539,-113.281,-22.461,-38.574,-222.656,0.000
1606129064.542,-264.160,-43.945,-44.434,-499.512,0.000
1606129064.546,-111.328,-38.086,-27.832,-156.738,0.000
1606129064.550,152.832,-8.789,-1.465,347.656,0.000
1606129064.554,168.457,-5.371,0.488,361.816,0.000
1606129064.558,-104.004,-42.969,-29.785,-171.875,0.000
1606129064.562,-276.855,-56.152,-42.969,-503.906,0.000
1606129064.566,-139.160,-48.340,-30.762,-218.750,0.000
1606129064.570,131.348,-33.203,-13.672,306.152,0.000
1606129064.574,185.547,-16.602,-4.883,394.531,0.000
1606129064.578,-63.477,-32.715,-24.414,-100.098,0.000
1606129064.582,-264.648,-52.246,-36.133,-490.723,0.000
1606129064.585,-169.434,-41.992,-26.367,-284.180,0.000
1606129064.589,99.121,-15.137,-11.719,260.742,0.000
1606129064.593,190.918,-12.695,-7.324,418.945,0.000
1606129064.597,-33.691,-36.621,-24.414,-36.133,0.000
1606129064.601,-263.672,-45.898,-40.039,-471.191,0.000
1606129064.605,-202.148,-42.480,-32.715,-341.309,0.000
1606129064.609,80.078,-29.785,-13.184,212.402,0.000
1606129064.613,202.148,-14.160,-8.789,431.641,0.000
1606129064.617,6.836,-26.855,-20.996,30.762,0.000
1606129064.621,-233.398,-42.969,-29.785,-441.895,0.000
1606129064.624,-217.285,-43.945,-30.273,-398.926,0.000
1606129064.628,54.199,-35.156,-18.555,144.043,0.000
1606129064.632,208.984,-18.555,-0.488,438.965,0.000
1606129064.636,46.875,-19.531,-13.672,103.516,0.000
1606129064.640,-210.449,-40.039,-44.434,-398.926,0.000
1606129064.644,-233.398,-45.898,-42.969,-417.480,0.000
1606129064.648,27.344,-24.902,-17.578,105.957,0.000
1606129064.652,208.496,-2.441,-8.789,444.824,0.000
1606129064.656,75.684,-6.836,-26.367,172.852,0.000
1606129064.660,-194.336,-37.598,-37.598,-355.469,0.000
1606129064.664,-250.488,-47.852,-31.250,-454.102,0.000
1606129064.667,-5.371,-28.809,-20.508,34.180,0.000
1606129064.671,204.590,-5.859,0.488,431.152,0.000
1606129064.675,114.258,-9.766,1.465,237.793,0.000
1606129064.679,-165.039,-34.668,-25.391,-308.105,0.000
1606129064.683,-261.230,-42.969,-39.062,-480.469,0.000
1606129064.687,-36.133,-20.020,-21.973,-33.691,0.000
1606129064.691,192.871,-4.395,-6.348,412.109,0.000
1606129064.695,141.602,-4.883,-6.348,296.875,0.000
1606129064.699,-137.207,-30.762,-23.926,-253.906,0.000
1606129064.703,-276.367,-55.664,-40.039,-497.070,0.000
1606129064.707,-87.891,-35.645,-26.367,-107.422,0.000
1606129064.710,161.133,-7.324,-8.301,377.930,0.000
1606129064.714,154.297,-3.906,-9.277,334.473,0.000
1606129064.718,-115.723,-29.297,-30.762,-203.125,0.000
1606129064.722,-276.855,-47.363,-41.504,-499.023,0.000
1606129064.726,-115.234,-32.227,-26.855,-174.805,0.000
1606129064.730,154.297,-5.859,-15.625,336.426,0.000
1606129064.734,178.223,-7.324,-16.113,365.234,0.000
1606129064.738,-83.008,-38.574,-29.785,-151.855,0.000
1606129064.742,-268.555,-59.570,-47.363,-502.441,0.000
1606129064.746,-145.996,-48.340,-39.062,-252.930,0.000
1606129064.749,137.207,-16.113,-10.742,290.527,0.000
1606129064.753,208.008,-3.906,-5.859,411.621,0.000
1606129064.757,-40.527,-23.926,-28.320,-84.961,0.000
1606129064.761,-263.672,-47.363,-48.340,-493.652,0.000
1606129064.765,-181.641,-47.363,-46.387,-307.129,0.000
1606129064.769,96.680,-21.973,-29.297,238.770,0.000
1606129064.773,194.824,-5.371,-20.020,421.387,0.000
1606129064.777,-19.043,-21.973,-36.133,-4.395,0.000
1606129064.781,-250.977,-48.340,-46.875,-445.801,0.000
1606129064.785,-200.684,-46.875,-36.621,-343.262,0.000
1606129064.789,83.008,-10.742,-20.508,200.684,0.000
1606129064.792,210.449,-2.930,-17.090,442.871,0.000
1606129064.796,23.438,-23.926,-33.691,59.082,0.000
1606129064.800,-223.145,-41.504,-46.387,-422.363,0.000
1606129064.804,-228.027,-43.457,-44.434,-392.090,0.000
1606129064.808,40.527,-10.742,-27.344,145.508,0.000
1606129064.812,208.496,-0.488,-15.625,450.684,0.000
1606129064.816,55.664,-24.902,-24.902,133.301,0.000
1606129064.820,-207.520,-39.062,-42.969,-381.836,0.000
1606129064.824,-243.164,-40.527,-43.457,-433.105,0.000
1606129064.828,10.254,-20.508,-17.090,85.449,0.000
1606129064.832,208.984,1.953,-6.348,457.031,0.000
1606129064.835,99.121,-7.812,-24.414,192.383,0.000
1606129064.839,-177.734,-39.551,-41.504,-356.934,0.000
1606129064.843,-243.652,-43.945,-43.457,-469.727,0.000
1606129064.847,-0.977,-14.648,-33.203,9.766,0.000
1606129064.851,214.355,-2.930,-21.484,419.922,0.000
1606129064.855,137.695,-17.578,-23.438,241.211,0.000
1606129064.859,-139.648,-38.086,-41.016,-305.664,0.000
1606129064.863,-250.000,-45.410,-45.410,-491.211,0.000
1606129064.867,-43.945,-23.926,-24.902,-68.359,0.000
1606129064.871,194.824,-2.441,-15.137,391.602,0.000
1606129064.874,146.973,-12.695,-26.367,299.316,0.000
1606129064.878,-135.742,-37.598,-36.133,-253.906,0.000
1606129064.882,-267.578,-42.480,-35.156,-497.559,0.000
1606129064.886,-91.797,-23.438,-21.973,-125.977,0.000
1606129064.890,164.062,-8.789,-13.184,348.633,0.000
1606129064.894,171.387,-16.113,-8.789,340.820,0.000
1606129064.898,-99.121,-28.320,-19.531,-182.617,0.000
1606129064.902,-276.367,-38.574,-37.598,-510.742,0.000
1606129064.906,-133.789,-32.227,-31.738,-210.938,0.000
1606129064.910,135.742,-9.766,-10.742,314.941,0.000
1606129064.914,167.969,-11.230,-8.301,370.605,0.000
1606129064.917,-93.262,-39.551,-29.785,-140.137,0.000
1606129064.921,-292.480,-60.059,-42.969,-511.719,0.000
1606129064.925,-178.711,-42.969,-37.109,-274.902,0.000
1606129064.929,102.051,-6.836,-18.555,267.578,0.000
1606129064.933,180.664,-6.836,-12.695,404.785,0.000
1606129064.937,-49.316,-38.086,-29.297,-65.430,0.000
1606129064.941,-272.461,-59.082,-40.039,-493.164,0.000
1606129064.945,-205.078,-49.316,-35.156,-335.938,0.000
1606129064.949,69.824,-20.996,-25.391,212.402,0.000
1606129064.953,181.641,-11.719,-20.508,416.992,0.000
1606129064.957,-18.066,-26.855,-33.691,0.977,0.000
1606129064.960,-252.441,-44.922,-51.270,-458.496,0.000
1606129064.964,-214.844,-37.109,-40.039,-376.953,0.000
1606129064.968,67.383,-10.254,-12.695,169.922,0.000
1606129064.972,208.984,-2.441,-8.789,435.059,0.000
1606129064.976,36.133,-15.625,-23.926,74.707,0.000
1606129064.980,-219.238,-37.598,-36.621,-423.828,0.000
1606129064.984,-228.516,-42.969,-41.992,-417.480,0.000
1606129064.988,38.086,-13.672,-21.973,116.211,0.000
1606129064.992,194.336,6.836,0.000,421.875,0.000
1606129064.996,37.109,-19.531,-2.930,124.512,0.000
1606129064.999,-228.027,-49.316,-20.020,-387.207,0.000
1606129065.003,-272.461,-50.293,-24.902,-457.031,0.000
1606129065.007,-22.461,-27.832,-4.395,36.133,0.000
1606129065.011,186.035,-6.348,13.672,413.574,0.000
1606129065.015,74.707,-16.602,8.301,190.430,0.000
1606129065.019,-214.355,-42.480,-7.812,-342.285,0.000
1606129065.023,-295.410,-48.340,-16.113,-486.816,0.000
1606129065.027,-67.871,-25.879,-10.742,-40.527,0.000
1606129065.031,155.273,-0.488,7.324,385.254,0.000
1606129065.035,96.191,-10.254,7.812,250.977,0.000
1606129065.039,-173.340,-40.527,-22.461,-288.574,0.000
1606129065.042,-281.250,-46.875,-44.434,-499.023,0.000
1606129065.046,-73.730,-28.809,-27.344,-85.449,0.000
1606129065.050,178.711,-14.160,-11.230,391.113,0.000
1606129065.054,162.598,-11.230,-20.020,337.402,0.000
1606129065.058,-102.051,-30.273,-41.504,-200.684,0.000
1606129065.062,-234.375,-46.875,-46.875,-466.797,0.000
1606129065.066,-55.664,-27.344,-29.297,-106.445,0.000
1606129065.070,210.449,-0.488,-18.066,403.320,0.000
1606129065.074,236.328,-10.742,-21.973,421.875,0.000
1606129065.078,-20.508,-41.992,-39.551,-97.656,0.000
1606129065.082,-191.895,-57.129,-52.246,-424.316,0.000
1606129065.085,-48.340,-42.480,-37.598,-132.324,0.000
1606129065.089,226.562,-17.578,-20.996,398.926,0.000
1606129065.093,276.367,-20.996,-22.461,478.516,0.000
1606129065.097,27.344,-42.480,-39.551,-20.020,0.000
1606129065.101,-173.828,-56.152,-49.316,-406.738,0.000
1606129065.105,-66.895,-41.016,-40.039,-201.172,0.000
1606129065.109,212.891,-10.254,-20.020,345.215,0.000
1606129065.113,284.180,-8.789,-15.137,493.652,0.000
1606129065.117,57.129,-30.273,-37.598,38.574,0.000
1606129065.121,-160.645,-47.363,-50.781,-380.371,0.000
1606129065.124,-105.957,-41.992,-43.457,-246.582,0.000
1606129065.128,162.598,-20.020,-22.461,295.410,0.000
1606129065.132,283.203,-10.254,-11.230,515.625,0.000
1606129065.136,88.379,-32.715,-34.668,108.398,0.000
1606129065.140,-160.645,-55.664,-56.152,-365.234,0.000
1606129065.144,-146.973,-52.246,-43.457,-305.664,0.000
1606129065.148,119.141,-15.137,-15.625,232.422,0.000
1606129065.152,270.020,-1.953,-14.648,514.648,0.000
1606129065.156,104.004,-30.273,-27.344,181.152,0.000
1606129065.160,-158.691,-48.828,-36.621,-319.824,0.000
1606129065.164,-175.781,-45.898,-33.691,-339.844,0.000
1606129065.167,81.543,-11.719,-13.184,173.828,0.000
1606129065.171,261.230,3.906,-4.883,506.836,0.000
1606129065.175,130.859,-26.855,-14.160,233.887,0.000
1606129065.179,-147.949,-50.293,-34.668,-294.922,0.000
1606129065.183,-211.914,-53.711,-48.340,-395.996,0.000
1606129065.187,31.738,-28.809,-34.668,88.379,0.000
1606129065.191,238.770,-7.812,-19.531,477.051,0.000
1606129065.195,148.438,-14.160,-23.438,274.414,0.000
1606129065.199,-126.953,-35.156,-40.527,-265.625,0.000
1606129065.203,-220.215,-47.363,-43.457,-435.059,0.000
1606129065.207,-1.953,-26.367,-27.832,3.418,0.000
1606129065.210,225.098,-5.371,-13.672,441.406,0.000
1606129065.214,176.758,-14.160,-18.555,317.871,0.000
1606129065.218,-101.074,-37.109,-40.527,-230.957,0.000
1606129065.222,-231.934,-50.293,-47.852,-469.238,0.000
1606129065.226,-44.922,-26.855,-29.297,-79.590,0.000
1606129065.230,197.266,-5.371,-13.184,392.578,0.000
1606129065.234,180.176,-11.230,-20.508,338.867,0.000
1606129065.238,-92.773,-36.621,-40.039,-200.684,0.000
1606129065.242,-252.441,-54.688,-52.246,-493.164,0.000
1606129065.246,-97.168,-34.668,-40.039,-164.062,0.000
1606129065.249,161.133,-16.113,-22.461,343.750,0.000
1606129065.253,189.453,-16.602,-23.438,375.488,0.000
1606129065.257,-68.359,-31.738,-39.062,-142.578,0.000
1606129065.261,-260.254,-51.270,-49.316,-498.535,0.000
1606129065.265,-139.648,-40.527,-39.062,-241.699,0.000
1606129065.269,139.160,10.254,-15.625,299.805,0.000
1606129065.273,202.148,10.742,-5.371,410.156,0.000
1606129065.277,-41.992,-31.250,-30.762,-78.125,0.000
1606129065.281,-258.301,-50.293,-47.363,-481.934,0.000
1606129065.285,-173.828,-42.480,-29.785,-292.480,0.000
1606129065.289,109.375,-10.742,-7.812,254.395,0.000
1606129065.292,203.125,-7.324,-8.789,424.316,0.000
1606129065.296,-20.020,-32.715,-22.461,-13.672,0.000
1606129065.300,-259.766,-58.105,-33.203,-455.566,0.000
1606129065.304,-212.402,-52.734,-29.785,-341.309,0.000
1606129065.308,68.359,-19.531,-9.766,203.613,0.000
1606129065.312,198.242,-6.348,-9.277,439.453,0.000
1606129065.316,17.578,-24.414,-27.832,64.453,0.000
1606129065.320,-226.074,-45.898,-44.434,-415.527,0.000
1606129065.324,-217.285,-46.387,-41.504,-384.766,0.000
1606129065.328,54.688,-20.020,-15.625,156.738,0.000
1606129065.332,213.867,-0.488,-2.441,458.984,0.000
1606129065.335,62.988,-15.137,-19.531,138.184,0.000
1606129065.339,-186.035,-38.574,-32.227,-360.352,0.000
1606129065.343,-219.727,-40.039,-30.762,-406.738,0.000
1606129065.347,20.508,-18.555,-18.555,83.008,0.000
1606129065.351,207.031,-3.906,-11.230,435.059,0.000
1606129065.355,90.332,-15.625,-22.949,189.453,0.000
1606129065.359,-184.082,-41.992,-34.180,-340.820,0.000
1606129065.363,-258.301,-49.805,-33.203,-462.402,0.000
1606129065.367,-20.996,-22.949,-19.531,9.766,0.000
1606129065.371,206.543,3.906,-10.742,423.340,0.000
1606129065.374,128.418,-7.812,-24.902,242.188,0.000
1606129065.378,-155.762,-34.180,-39.062,-314.453,0.000
1606129065.382,-259.277,-42.480,-43.945,-493.652,0.000
1606129065.386,-45.898,-24.414,-27.344,-58.594,0.000
1606129065.390,191.406,-4.883,-7.812,395.996,0.000
1606129065.394,144.043,-6.836,-20.508,298.828,0.000
1606129065.398,-135.742,-28.809,-36.133,-246.094,0.000
1606129065.402,-273.438,-43.945,-43.945,-506.348,0.000
1606129065.406,-94.727,-34.668,-35.645,-139.160,0.000
1606129065.410,156.738,-17.090,-15.625,353.027,0.000
1606129065.414,150.879,-15.625,-17.090,339.844,0.000
1606129065.417,-111.328,-34.668,-38.086,-186.035,0.000
1606129065.421,-272.949,-52.246,-44.922,-499.512,0.000
1606129065.425,-135.254,-43.457,-30.762,-200.684,0.000
1606129065.429,126.465,-21.484,-17.578,318.359,0.000
1606129065.433,164.551,-17.578,-20.508,379.883,0.000
1606129065.437,-88.867,-41.992,-39.062,-128.906,0.000
1606129065.441,-281.250,-61.035,-52.246,-498.047,0.000
1606129065.445,-166.504,-48.340,-42.969,-258.789,0.000
1606129065.449,106.445,-23.926,-20.020,280.762,0.000
1606129065.453,183.594,-14.648,-17.578,406.738,0.000
1606129065.457,-43.457,-38.086,-35.156,-65.430,0.000
1606129065.460,-256.348,-53.711,-43.945,-478.027,0.000
1606129065.464,-184.570,-45.410,-37.598,-313.965,0.000
1606129065.468,92.285,-28.809,-23.926,231.445,0.000
1606129065.472,203.125,-19.531,-20.996,428.223,0.000
1606129065.476,-3.906,-32.715,-35.645,5.859,0.000
1606129065.480,-234.375,-46.387,-49.805,-455.566,0.000
1606129065.484,-201.660,-43.457,-44.434,-372.070,0.000
1606129065.488,71.289,-16.602,-21.973,175.293,0.000
1606129065.492,212.891,-1.953,-16.602,437.988,0.000
1606129065.496,32.227,-23.438,-29.785,74.707,0.000
1606129065.499,-229.492,-49.805,-43.457,-425.781,0.000
1606129065.503,-236.328,-49.805,-37.109,-423.340,0.000
1606129065.507,31.250,-12.207,-16.113,113.770,0.000
1606129065.511,199.219,2.441,-9.766,431.641,0.000
1606129065.515,57.617,-23.926,-23.926,128.906,0.000
1606129065.519,-210.938,-43.945,-45.410,-393.555,0.000
1606129065.523,-255.859,-45.898,-51.270,-461.914,0.000
1606129065.527,-1.465,-25.391,-36.621,41.016,0.000
1606129065.531,203.613,-5.859,-22.461,427.246,0.000
1606129065.535,89.355,-15.625,-28.809,184.082,0.000
1606129065.539,-192.383,-42.480,-51.758,-365.723,0.000
1606129065.542,-266.602,-50.293,-55.176,-488.770,0.000
1606129065.546,-29.297,-20.020,-31.250,-31.738,0.000
1606129065.550,206.543,7.324,-17.578,393.555,0.000
1606129065.554,132.324,-6.836,-20.508,247.070,0.000
1606129065.558,-149.414,-38.086,-35.156,-292.480,0.000
1606129065.562,-260.742,-51.758,-47.852,-500.977,0.000
1606129065.566,-54.688,-30.762,-28.809,-85.449,0.000
1606129065.570,183.594,-11.230,-9.277,381.348,0.000
1606129065.574,153.809,-16.113,-17.578,308.105,0.000
1606129065.578,-122.559,-42.480,-39.062,-233.398,0.000
1606129065.582,-268.066,-57.617,-41.504,-502.930,0.000
1606129065.585,-96.191,-25.391,-26.855,-153.809,0.000
1606129065.589,149.902,2.441,-19.531,330.566,0.000
1606129065.593,156.250,-17.090,-11.230,333.496,0.000
1606129065.597,-106.445,-46.875,-29.785,-188.965,0.000
1606129065.601,-283.203,-59.570,-46.875,-513.184,0.000
1606129065.605,-145.508,-42.969,-28.320,-226.074,0.000
1606129065.609,121.582,-18.555,-5.859,296.387,0.000
1606129065.613,171.387,-20.020,-10.254,385.254,0.000
1606129065.617,-74.707,-41.504,-33.203,-102.539,0.000
1606129065.621,-278.809,-54.688,-47.363,-493.164,0.000
1606129065.624,-176.270,-40.527,-31.250,-284.180,0.000
1606129065.628,109.863,-4.883,-2.441,263.672,0.000
1606129065.632,196.289,-4.883,-13.672,409.668,0.000
1606129065.636,-31.738,-34.180,-35.156,-42.480,0.000
1606129065.640,-259.766,-50.781,-48.828,-470.703,0.000
1606129065.644,-201.172,-49.316,-42.480,-342.285,0.000
1606129065.648,83.984,-20.020,-18.555,208.008,0.000
1606129065.652,203.125,-5.371,-14.648,426.758,0.000
1606129065.656,8.789,-32.715,-32.715,28.809,0.000
1606129065.660,-235.352,-55.176,-44.922,-440.918,0.000
1606129065.664,-210.938,-49.316,-41.016,-389.160,0.000
1606129065.667,74.707,-31.250,-20.996,154.785,0.000
1606129065.671,214.355,-20.508,-18.066,432.617,0.000
1606129065.675,39.062,-30.762,-39.551,91.309,0.000
1606129065.679,-213.379,-47.852,-58.105,-404.297,0.000
1606129065.683,-228.027,-47.852,-51.758,-421.387,0.000
1606129065.687,30.273,-27.344,-31.738,94.727,0.000
1606129065.691,210.449,-7.812,-18.555,435.059,0.000
1606129065.695,83.008,-11.230,-25.391,174.805,0.000
1606129065.699,-194.336,-36.133,-42.969,-350.098,0.000
1606129065.703,-259.766,-47.852,-46.387,-447.754,0.000
1606129065.707,-18.555,-25.879,-30.273,32.715,0.000
1606129065.710,191.406,-3.906,-14.160,420.898,0.000
1606129065.714,97.656,-16.602,-22.949,226.562,0.000
1606129065.718,-186.523,-49.805,-41.992,-314.453,0.000
1606129065.722,-274.902,-59.082,-45.898,-480.469,0.000
1606129065.726,-57.617,-36.133,-29.785,-38.086,0.000
1606129065.730,165.039,-16.602,-14.648,394.531,0.000
1606129065.734,112.305,-21.973,-17.578,265.625,0.000
1606129065.738,-157.715,-44.434,-38.086,-274.414,0.000
1606129065.742,-276.367,-56.641,-40.039,-498.047,0.000
1606129065.746,-88.867,-40.039,-22.461,-109.863,0.000
1606129065.749,157.227,-20.020,-17.090,362.793,0.000
1606129065.753,147.461,-18.555,-18.555,323.730,0.000
1606129065.757,-114.258,-39.551,-28.809,-195.801,0.000
1606129065.761,-276.367,-59.570,-45.410,-492.676,0.000
1606129065.765,-114.746,-41.992,-31.738,-176.270,0.000
1606129065.769,157.227,-6.836,-5.859,330.566,0.000
1606129065.773,176.758,-4.395,-5.371,364.746,0.000
1606129065.777,-83.008,-31.738,-28.809,-147.949,0.000
1606129065.781,-269.531,-52.734,-39.062,-496.094,0.000
1606129065.785,-145.508,-40.039,-23.438,-241.211,0.000
1606129065.789,129.883,-9.766,-4.395,287.598,0.000
1606129065.792,191.406,-6.836,-1.953,392.578,0.000
1606129065.796,-52.246,-34.180,-22.461,-88.379,0.000
1606129065.800,-266.602,-56.641,-46.387,-488.281,0.000
1606129065.804,-181.641,-47.363,-42.480,-303.223,0.000
1606129065.808,95.215,-20.020,-21.484,241.211,0.000
1606129065.812,190.918,-7.812,-12.207,412.109,0.000
1606129065.816,-11.230,-21.484,-20.508,-15.625,0.000
1606129065.820,-231.934,-41.016,-33.691,-452.148,0.000
1606129065.824,-196.777,-40.527,-35.645,-349.609,0.000
1606129065.828,72.266,-19.531,-17.090,187.988,0.000
1606129065.832,201.172,-5.859,-8.789,424.805,0.000
1606129065.835,17.578,-26.367,-26.855,53.223,0.000
1606129065.839,-232.422,-52.734,-46.387,-426.758,0.000
1606129065.843,-229.004,-54.688,-42.480,-400.391,0.000
1606129065.847,42.969,-21.484,-20.508,130.371,0.000
1606129065.851,196.777,-3.906,-13.184,425.293,0.000
1606129065.855,39.551,-22.949,-21.484,114.258,0.000
1606129065.859,-220.703,-48.828,-31.738,-390.625,0.000
1606129065.863,-250.977,-53.223,-35.156,-437.012,0.000
1606129065.867,10.742,-19.531,-15.625,76.660,0.000
1606129065.871,200.195,-2.441,-2.930,427.246,0.000
1606129065.874,85.449,-13.184,-14.648,183.105,0.000
1606129065.878,-179.199,-32.715,-28.809,-336.914,0.000
1606129065.882,-250.977,-43.457,-26.367,-458.496,0.000
1606129065.886,-21.484,-26.855,-15.137,6.348,0.000
1606129065.890,198.242,-9.766,-11.719,409.180,0.000
1606129065.894,123.535,-15.137,-11.719,241.699,0.000
1606129065.898,-154.785,-35.156,-26.855,-297.852,0.000
1606129065.902,-256.836,-47.363,-37.109,-484.863,0.000
1606129065.906,-51.758,-32.227,-15.625,-67.871,0.000
1606129065.910,178.711,-7.812,-3.418,378.418,0.000
1606129065.914,142.090,-7.324,-11.719,293.945,0.000
1606129065.917,-129.883,-35.645,-24.902,-249.512,0.000
1606129065.921,-265.625,-56.641,-38.086,-508.789,0.000
1606129065.925,-83.496,-33.691,-28.320,-142.578,0.000
1606129065.929,172.852,13.184,-6.348,342.285,0.000
1606129065.933,168.457,12.695,-7.812,328.613,0.000
1606129065.937,-92.285,-24.902,-28.809,-194.336,0.000
1606129065.941,-263.184,-48.340,-47.852,-504.395,0.000
1606129065.945,-130.859,-39.551,-42.480,-206.055,0.000
1606129065.949,137.207,-11.719,-18.555,304.199,0.000
1606129065.953,171.875,-13.184,-19.531,361.328,0.000
1606129065.957,-84.961,-40.527,-42.480,-141.602,0.000
1606129065.960,-280.762,-59.082,-53.223,-502.930,0.000
1606129065.964,-176.270,-47.852,-44.434,-274.902,0.000
1606129065.968,97.656,-19.531,-20.020,252.441,0.000
1606129065.972,167.480,-14.648,-17.578,381.836,0.000
1606129065.976,-70.312,-38.574,-41.504,-83.008,0.000
1606129065.980,-283.203,-59.082,-47.852,-491.211,0.000
1606129065.984,-206.055,-48.828,-41.992,-327.148,0.000
1606129065.988,74.219,-20.996,-21.484,215.332,0.000
1606129065.992,183.594,-15.625,-8.301,413.574,0.000
1606129065.996,-17.578,-35.645,-30.762,4.883,0.000
1606129065.999,-253.418,-57.617,-46.387,-450.684,0.000
1606129066.003,-221.191,-55.176,-35.645,-372.070,0.000
1606129066.007,55.664,-14.160,-17.090,172.852,0.000
1606129066.011,198.242,0.488,-10.254,430.176,0.000
1606129066.015,23.438,-32.715,-22.949,71.289,0.000
1606129066.019,-230.469,-56.641,-40.039,-412.109,0.000
1606129066.023,-235.352,-58.105,-34.668,-409.180,0.000
1606129066.027,33.203,-30.762,-13.184,108.887,0.000
1606129066.031,205.078,-13.672,-9.766,425.781,0.000
1606129066.035,71.289,-35.156,-27.832,133.301,0.000
1606129066.039,-203.125,-63.965,-49.316,-381.836,0.000
1606129066.042,-251.465,-62.500,-50.781,-451.660,0.000
1606129066.046,7.812,-35.156,-24.902,45.898,0.000
1606129066.050,208.008,-15.625,-8.301,415.527,0.000
1606129066.054,111.328,-20.508,-19.043,202.148,0.000
1606129066.058,-164.062,-41.504,-38.086,-320.312,0.000
1606129066.062,-251.953,-53.223,-39.062,-464.355,0.000
1606129066.066,-21.484,-17.578,-19.531,-9.766,0.000
1606129066.070,199.219,12.695,-10.254,413.574,0.000
1606129066.074,128.418,-12.695,-12.695,271.973,0.000
1606129066.078,-147.461,-43.945,-35.156,-268.066,0.000
1606129066.082,-262.207,-50.781,-49.316,-473.145,0.000
1606129066.085,-68.359,-34.180,-27.344,-68.359,0.000
1606129066.089,179.199,-11.719,-7.324,395.020,0.000
1606129066.093,164.551,-7.324,-9.277,335.449,0.000
1606129066.097,-104.980,-31.738,-29.785,-201.660,0.000
1606129066.101,-252.930,-46.875,-38.574,-476.562,0.000
1606129066.105,-85.449,-29.297,-20.020,-131.836,0.000
1606129066.109,172.852,7.812,-4.395,360.840,0.000
1606129066.113,185.547,6.348,-11.230,366.699,0.000
1606129066.117,-80.566,-35.645,-38.574,-158.203,0.000
1606129066.121,-253.906,-51.758,-48.828,-483.887,0.000
1606129066.124,-123.047,-35.156,-35.156,-211.426,0.000
1606129066.128,139.648,-11.719,-20.020,293.457,0.000
1606129066.132,191.406,-5.371,-22.461,372.559,0.000
1606129066.136,-57.617,-24.414,-40.039,-116.211,0.000
1606129066.140,-266.602,-49.316,-47.363,-499.023,0.000
1606129066.144,-168.945,-42.969,-43.945,-298.828,0.000
1606129066.148,100.098,-14.160,-23.926,229.980,0.000
1606129066.152,172.852,-11.230,-22.949,377.441,0.000
1606129066.156,-51.758,-37.598,-48.340,-69.824,0.000
1606129066.160,-276.855,-55.176,-61.035,-501.953,0.000
1606129066.164,-214.844,-45.410,-52.734,-372.559,0.000
1606129066.167,67.871,-22.949,-29.297,182.129,0.000
1606129066.171,191.406,-11.230,-16.602,406.738,0.000
1606129066.175,-2.930,-26.855,-29.785,8.301,0.000
1606129066.179,-250.977,-47.363,-46.387,-458.008,0.000
1606129066.183,-229.492,-41.992,-48.340,-402.344,0.000
1606129066.187,45.410,-15.625,-28.320,142.090,0.000
1606129066.191,196.289,-8.301,-9.277,427.246,0.000
1606129066.195,28.809,-30.762,-24.902,94.238,0.000
1606129066.199,-231.934,-54.199,-48.340,-402.832,0.000
1606129066.203,-250.488,-67.383,-44.922,-429.199,0.000
1606129066.207,11.230,-39.062,-25.879,80.566,0.000
1606129066.210,191.895,-6.348,-11.719,422.363,0.000
1606129066.214,68.359,-20.996,-16.602,166.992,0.000
1606129066.218,-198.242,-45.898,-37.109,-351.562,0.000
1606129066.222,-253.906,-51.758,-43.945,-447.266,0.000
1606129066.226,-6.348,-29.297,-25.879,43.945,0.000
1606129066.230,196.289,-7.324,-15.137,437.012,0.000
1606129066.234,105.469,-14.160,-22.949,232.422,0.000
1606129066.238,-163.574,-38.574,-37.109,-305.176,0.000
1606129066.242,-260.254,-50.293,-43.457,-469.238,0.000
1606129066.246,-45.410,-33.691,-28.320,-35.156,0.000
1606129066.249,189.941,-9.766,-9.277,404.785,0.000
1606129066.253,149.902,-13.672,-12.695,291.992,0.000
1606129066.257,-119.141,-39.551,-37.109,-252.441,0.000
1606129066.261,-253.418,-44.922,-45.410,-478.516,0.000
1606129066.265,-64.453,-26.367,-24.902,-89.355,0.000
1606129066.269,183.594,-3.906,-10.742,377.930,0.000
1606129066.273,168.457,-7.812,-11.230,338.379,0.000
1606129066.277,-107.910,-36.133,-28.809,-193.359,0.000
1606129066.281,-270.508,-44.922,-42.480,-492.188,0.000
1606129066.285,-115.723,-31.738,-33.203,-170.410,0.000
1606129066.289,149.414,-16.113,-15.137,340.332,0.000
1606129066.292,175.781,-13.672,-15.137,373.535,0.000
1606129066.296,-85.938,-38.086,-36.621,-141.113,0.000
1606129066.300,-276.855,-57.129,-47.852,-494.141,0.000
1606129066.304,-154.785,-40.527,-29.785,-239.746,0.000
1606129066.308,119.629,-17.578,-11.230,289.551,0.000
1606129066.312,184.570,-13.184,-11.719,399.902,0.000
1606129066.316,-58.594,-33.203,-29.297,-81.543,0.000
1606129066.320,-276.367,-51.758,-42.480,-484.863,0.000
1606129066.324,-192.383,-43.457,-29.297,-288.574,0.000
1606129066.328,83.496,-15.137,-9.277,246.094,0.000
1606129066.332,186.035,-5.859,-12.207,416.992,0.000
1606129066.335,-25.879,-31.738,-28.320,-10.254,0.000
1606129066.339,-263.184,-58.105,-45.410,-464.355,0.000
1606129066.343,-214.844,-51.270,-32.227,-361.816,0.000
1606129066.347,69.824,-29.297,-11.230,183.105,0.000
1606129066.351,204.590,-18.555,-6.836,429.199,0.000
1606129066.355,19.531,-28.809,-16.602,58.594,0.000
1606129066.359,-227.051,-48.340,-38.086,-428.223,0.000
1606129066.363,-228.027,-50.293,-39.551,-406.250,0.000
1606129066.367,38.574,-22.949,-18.066,134.766,0.000
1606129066.371,207.031,-7.812,-3.418,445.312,0.000
1606129066.374,51.758,-29.297,-17.090,128.906,0.000
1606129066.378,-215.820,-53.223,-38.574,-382.812,0.000
1606129066.382,-247.559,-47.852,-41.992,-426.758,0.000
1606129066.386,12.207,-29.785,-28.320,73.242,0.000
1606129066.390,203.613,-19.531,-17.578,431.641,0.000
1606129066.394,82.520,-24.902,-20.996,192.871,0.000
1606129066.398,-183.594,-49.316,-37.598,-324.219,0.000
1606129066.402,-251.465,-50.293,-40.039,-441.895,0.000
1606129066.406,-19.531,-27.344,-22.461,12.695,0.000
1606129066.410,191.406,-16.113,-12.695,416.016,0.000
1606129066.414,111.328,-22.949,-18.555,251.465,0.000
1606129066.417,-161.133,-42.969,-29.297,-288.574,0.000
1606129066.421,-268.066,-55.664,-42.969,-487.305,0.000
1606129066.425,-57.129,-34.180,-35.645,-65.430,0.000
1606129066.429,183.594,-1.465,-15.625,391.113,0.000
1606129066.433,144.531,-10.742,-20.996,300.293,0.000
1606129066.437,-128.418,-38.574,-35.645,-234.375,0.000
1606129066.441,-271.484,-49.805,-34.180,-485.840,0.000
1606129066.445,-100.586,-40.039,-29.297,-129.883,0.000
1606129066.449,153.320,-13.184,-20.508,350.098,0.000
1606129066.453,152.832,-12.207,-20.996,333.496,0.000
1606129066.457,-107.910,-40.039,-41.016,-191.895,0.000
1606129066.460,-266.113,-49.316,-48.340,-499.023,0.000
1606129066.464,-122.070,-27.832,-33.691,-199.219,0.000
1606129066.468,141.602,-4.395,-24.414,308.105,0.000
1606129066.472,190.430,-2.441,-23.438,373.047,0.000
1606129066.476,-56.152,-20.508,-39.551,-120.117,0.000
1606129066.480,-248.047,-39.551,-45.898,-490.723,0.000
1606129066.484,-134.277,-28.809,-33.691,-266.602,0.000
1606129066.488,135.254,-2.441,-20.996,271.973,0.000
1606129066.492,207.520,3.418,-17.090,407.227,0.000
1606129066.496,-20.996,-20.020,-33.691,-54.199,0.000
1606129066.499,-239.258,-42.480,-49.805,-476.074,0.000
1606129066.503,-166.504,-36.621,-40.527,-319.336,0.000
1606129066.507,114.746,-13.672,-24.902,229.004,0.000
1606129066.511,213.379,-12.695,-29.297,419.922,0.000
1606129066.515,-1.953,-37.109,-41.992,7.324,0.000
1606129066.519,-246.582,-55.664,-50.781,-449.707,0.000
1606129066.523,-215.820,-41.992,-41.504,-371.582,0.000
1606129066.527,64.941,-17.090,-12.695,175.293,0.000
1606129066.531,208.008,-9.277,-10.254,438.965,0.000
1606129066.535,32.227,-18.555,-33.203,81.055,0.000
1606129066.539,-224.121,-35.645,-44.434,-410.645,0.000
1606129066.542,-233.398,-39.062,-30.762,-407.715,0.000
1606129066.546,25.879,-23.926,-24.902,113.770,0.000
1606129066.550,190.430,-10.254,-27.344,431.152,0.000
1606129066.554,47.852,-23.926,-31.250,145.508,0.000
1606129066.558,-214.844,-50.293,-46.387,-375.977,0.000
1606129066.562,-258.789,-52.734,-41.504,-451.660,0.000
1606129066.566,3.418,-27.344,-17.578,52.246,0.000
1606129066.570,203.613,-8.301,-5.859,432.617,0.000
1606129066.574,80.566,-21.973,-20.020,206.543,0.000
1606129066.578,-187.988,-46.875,-40.527,-334.473,0.000
1606129066.582,-262.695,-49.805,-42.969,-475.098,0.000
1606129066.585,-39.062,-31.250,-32.715,-20.020,0.000
1606129066.589,188.965,-12.695,-19.043,405.273,0.000
1606129066.593,123.047,-21.484,-27.832,264.648,0.000
1606129066.597,-156.250,-45.410,-41.992,-281.250,0.000
1606129066.601,-265.625,-55.664,-43.945,-488.281,0.000
1606129066.605,-62.988,-36.621,-25.879,-81.543,0.000
1606129066.609,175.781,-17.578,-5.371,378.418,0.000
1606129066.613,148.926,-18.555,-13.184,313.477,0.000
1606129066.617,-119.141,-33.203,-33.691,-221.680,0.000
1606129066.621,-269.531,-53.223,-39.062,-500.488,0.000
1606129066.624,-108.398,-38.574,-19.043,-159.180,0.000
1606129066.628,154.785,-3.418,-4.883,339.355,0.000
1606129066.632,172.363,-7.324,-15.137,351.074,0.000
1606129066.636,-96.191,-40.527,-38.574,-171.387,0.000
1606129066.640,-267.578,-58.105,-48.340,-504.395,0.000
1606129066.644,-126.953,-38.574,-29.297,-224.609,0.000
1606129066.648,145.996,-6.348,-15.137,299.316,0.000
1606129066.652,196.289,-5.859,-24.414,383.301,0.000
1606129066.656,-57.617,-34.180,-42.480,-104.980,0.000
1606129066.660,-256.348,-48.828,-47.852,-486.816,0.000
1606129066.664,-164.062,-33.203,-28.809,-279.785,0.000
1606129066.667,97.168,-19.043,-15.137,254.883,0.000
1606129066.671,183.105,-24.414,-12.695,409.180,0.000
1606129066.675,-31.738,-32.715,-21.973,-31.250,0.000
1606129066.679,-254.395,-47.852,-38.086,-465.820,0.000
1606129066.683,-202.637,-45.898,-28.320,-349.121,0.000
1606129066.687,83.496,-14.160,-10.742,210.449,0.000
1606129066.691,186.035,-0.488,-14.160,401.855,0.000
1606129066.695,-21.484,-20.020,-34.180,-4.395,0.000
1606129066.699,-239.258,-40.039,-46.387,-425.781,0.000
1606129066.703,-222.656,-37.598,-43.457,-387.207,0.000
1606129066.707,48.340,-15.625,-21.484,150.391,0.000
1606129066.710,206.055,-1.953,-12.695,437.500,0.000
1606129066.714,45.410,-21.484,-26.855,101.074,0.000
1606129066.718,-216.309,-48.340,-41.016,-402.344,0.000
1606129066.722,-237.793,-43.945,-43.945,-427.246,0.000
1606129066.726,30.273,-18.066,-26.367,93.262,0.000
1606129066.730,222.168,-1.953,-13.672,437.988,0.000
1606129066.734,92.773,-14.648,-22.949,172.852,0.000
1606129066.738,-186.035,-43.457,-38.574,-348.145,0.000
1606129066.742,-243.652,-47.363,-39.551,-442.871,0.000
1606129066.746,0.488,-29.785,-22.949,35.645,0.000
1606129066.749,206.055,-16.602,-6.836,428.711,0.000
1606129066.753,115.234,-19.531,-12.695,241.699,0.000
1606129066.757,-166.016,-46.387,-28.809,-300.781,0.000
1606129066.761,-265.625,-54.688,-34.180,-471.191,0.000
1606129066.765,-49.805,-37.598,-28.320,-39.062,0.000
1606129066.769,176.270,-30.273,-19.043,399.414,0.000
1606129066.773,127.441,-26.855,-24.414,290.527,0.000
1606129066.777,-144.043,-41.992,-40.527,-250.488,0.000
1606129066.781,-266.602,-48.828,-46.387,-484.375,0.000
1606129066.785,-82.031,-32.227,-31.250,-111.816,0.000
1606129066.789,169.922,-11.719,-11.230,364.258,0.000
1606129066.792,166.016,-11.230,-10.254,333.008,0.000
1606129066.796,-102.051,-39.062,-26.367,-198.242,0.000
1606129066.800,-264.160,-51.270,-41.016,-494.629,0.000
1606129066.804,-112.305,-32.227,-35.156,-179.688,0.000
1606129066.808,151.855,-9.277,-20.508,322.266,0.000
1606129066.812,181.641,-7.324,-20.508,363.281,0.000
1606129066.816,-74.219,-28.809,-33.203,-144.043,0.000
1606129066.820,-259.277,-47.363,-42.969,-494.141,0.000
1606129066.824,-143.555,-41.992,-36.133,-247.559,0.000
1606129066.828,127.441,-20.508,-20.996,282.227,0.000
1606129066.832,198.242,-14.648,-13.184,399.902,0.000
1606129066.835,-30.273,-31.250,-26.855,-71.289,0.000
1606129066.839,-230.957,-41.504,-41.016,-474.609,0.000
1606129066.843,-157.715,-30.762,-33.203,-299.805,0.000
1606129066.847,107.422,-5.371,-16.602,239.258,0.000
1606129066.851,209.961,0.488,-7.812,420.898,0.000
1606129066.855,-1.465,-23.438,-27.344,-1.953,0.000
1606129066.859,-240.234,-51.270,-46.875,-457.031,0.000
1606129066.863,-202.637,-49.316,-41.992,-359.375,0.000
1606129066.867,69.824,-16.602,-25.391,187.012,0.000
1606129066.871,205.078,1.953,-13.184,429.688,0.000
1606129066.874,23.438,-19.043,-20.508,63.477,0.000
1606129066.878,-230.469,-46.387,-37.598,-414.551,0.000
1606129066.882,-227.051,-54.688,-37.598,-397.461,0.000
1606129066.886,39.551,-32.715,-13.184,132.324,0.000
1606129066.890,201.172,-8.301,-6.836,440.918,0.000
1606129066.894,59.570,-13.672,-25.879,141.113,0.000
1606129066.898,-194.824,-36.621,-38.574,-364.258,0.000
1606129066.902,-226.562,-40.039,-30.762,-418.457,0.000
1606129066.906,29.785,-20.020,-12.207,85.938,0.000
1606129066.910,221.680,-7.324,2.930,442.871,0.000
1606129066.914,103.027,-14.648,-3.418,204.590,0.000
1606129066.917,-168.457,-41.016,-28.320,-322.266,0.000
1606129066.921,-242.676,-50.293,-38.086,-459.473,0.000
1606129066.925,-25.879,-27.344,-22.461,-2.930,0.000
1606129066.929,189.453,-7.324,-8.301,413.086,0.000
1606129066.933,121.094,-19.531,-14.648,253.418,0.000
1606129066.937,-160.156,-49.316,-38.574,-288.574,0.000
1606129066.941,-267.090,-60.059,-47.852,-482.910,0.000
1606129066.945,-61.035,-43.945,-27.832,-61.523,0.000
1606129066.949,177.246,-15.625,-4.395,392.578,0.000
1606129066.953,149.414,-9.766,-8.301,302.246,0.000
1606129066.957,-127.930,-39.551,-31.738,-235.840,0.000
1606129066.960,-266.602,-49.316,-39.062,-486.328,0.000
1606129066.964,-90.820,-27.832,-26.367,-127.930,0.000
1606129066.968,154.785,-12.207,-15.625,354.492,0.000
1606129066.972,155.762,-20.020,-20.508,349.121,0.000
1606129066.976,-107.910,-42.480,-36.621,-174.316,0.000
1606129066.980,-283.203,-52.246,-45.410,-481.934,0.000
1606129066.984,-133.789,-37.598,-32.715,-180.664,0.000
1606129066.988,142.090,-11.719,-7.324,334.473,0.000
1606129066.992,167.480,-4.395,-4.883,400.879,0.000
1606129066.996,-87.891,-28.809,-26.855,-103.516,0.000
1606129066.999,-279.785,-48.340,-38.574,-478.027,0.000
1606129067.003,-172.852,-39.062,-26.367,-255.859,0.000
1606129067.007,104.980,-12.695,-6.348,279.785,0.000
1606129067.011,187.500,-4.883,-10.254,416.992,0.000
1606129067.015,-44.434,-28.809,-34.668,-46.387,0.000
1606129067.019,-262.695,-48.828,-47.363,-475.098,0.000
1606129067.023,-188.965,-41.992,-43.457,-326.172,0.000
1606129067.027,91.797,-14.648,-22.461,224.609,0.000
1606129067.031,204.102,-4.395,-9.277,429.688,0.000
1606129067.035,5.859,-28.320,-25.391,16.602,0.000
1606129067.039,-228.027,-41.504,-44.434,-440.430,0.000
1606129067.042,-203.613,-37.598,-41.016,-363.770,0.000
1606129067.046,65.918,-12.207,-24.902,177.734,0.000
1606129067.050,212.402,18.555,-9.766,441.406,0.000
1606129067.054,47.852,-9.766,-20.020,95.703,0.000
1606129067.058,-212.402,-50.293,-49.805,-400.391,0.000
1606129067.062,-226.074,-48.340,-41.504,-409.180,0.000
1606129067.066,38.574,-26.367,-18.066,111.328,0.000
1606129067.070,199.707,-14.648,-13.184,433.105,0.000
1606129067.074,55.664,-27.832,-27.832,153.320,0.000
1606129067.078,-207.520,-46.875,-45.410,-364.258,0.000
1606129067.082,-257.324,-50.781,-41.992,-447.754,0.000
1606129067.085,-12.695,-20.508,-21.484,47.363,0.000
1606129067.089,187.500,7.324,-12.695,426.270,0.000
1606129067.093,85.449,-20.996,-25.879,205.078,0.000
1606129067.097,-193.848,-51.270,-41.016,-332.520,0.000
1606129067.101,-274.414,-48.828,-43.457,-473.145,0.000
1606129067.105,-47.363,-32.715,-27.344,-27.832,0.000
1606129067.109,174.805,-14.648,-14.160,393.555,0.000
1606129067.113,116.211,-20.996,-21.484,259.766,0.000
1606129067.117,-159.180,-46.387,-35.156,-281.250,0.000
1606129067.121,-282.227,-52.734,-38.086,-498.535,0.000
1606129067.124,-86.426,-30.273,-20.020,-100.098,0.000
1606129067.128,162.109,-4.883,-5.371,370.605,0.000
1606129067.132,142.578,-11.230,-14.160,309.570,0.000
1606129067.136,-127.930,-39.551,-36.133,-228.516,0.000
1606129067.140,-275.879,-57.617,-43.945,-504.395,0.000
1606129067.144,-117.676,-51.758,-38.086,-169.434,0.000
1606129067.148,140.137,-1.465,-30.273,328.613,0.000
1606129067.152,165.527,19.531,-30.762,352.539,0.000
1606129067.156,-91.797,-28.809,-41.016,-162.598,0.000
1606129067.160,-268.066,-49.316,-40.039,-487.305,0.000
1606129067.164,-123.047,-33.203,-27.344,-210.449,0.000
1606129067.167,153.320,-5.371,-17.578,309.570,0.000
1606129067.171,195.312,-4.883,-21.484,399.414,0.000
1606129067.175,-47.852,-28.809,-35.645,-86.426,0.000
1606129067.179,-250.977,-40.527,-43.457,-477.051,0.000
1606129067.183,-160.645,-42.480,-36.621,-287.598,0.000
1606129067.187,114.746,0.488,-22.949,248.535,0.000
1606129067.191,205.078,13.672,-20.020,410.156,0.000
1606129067.195,-13.184,-34.668,-37.598,-28.809,0.000
1606129067.199,-237.305,-49.316,-51.758,-458.496,0.000
1606129067.203,-189.453,-39.062,-41.504,-326.660,0.000
1606129067.207,81.543,-16.602,-20.508,212.891,0.000
1606129067.210,205.566,-6.836,-10.254,433.105,0.000
1606129067.214,11.719,-26.855,-22.949,49.316,0.000
1606129067.218,-234.375,-48.340,-39.551,-427.734,0.000
1606129067.222,-218.262,-50.781,-45.410,-385.742,0.000
1606129067.226,58.105,-9.766,-26.855,155.273,0.000
1606129067.230,220.215,23.438,-5.859,450.684,0.000
1606129067.234,67.383,-10.254,-21.484,121.582,0.000
1606129067.238,-198.730,-42.480,-41.016,-385.254,0.000
1606129067.242,-230.957,-43.945,-34.668,-419.922,0.000
1606129067.246,29.785,-20.996,-12.207,95.215,0.000
1606129067.249,213.867,-3.906,2.441,440.430,0.000
1606129067.253,85.938,-20.508,-18.066,178.711,0.000
1606129067.257,-186.035,-47.363,-41.016,-350.098,0.000
1606129067.261,-250.488,-49.316,-35.156,-458.496,0.000
1606129067.265,-15.137,-24.414,-20.020,19.043,0.000
1606129067.269,192.871,-6.836,-13.184,415.039,0.000
1606129067.273,109.375,-18.555,-24.414,229.980,0.000
1606129067.277,-157.227,-43.945,-42.480,-305.176,0.000
1606129067.281,-253.418,-52.246,-41.504,-474.121,0.000
1606129067.285,-43.945,-27.344,-24.414,-38.086,0.000
1606129067.289,183.105,-3.906,-17.090,400.879,0.000
1606129067.292,137.695,-13.184,-23.438,291.016,0.000
1606129067.296,-134.766,-41.504,-36.133,-250.977,0.000
1606129067.300,-259.277,-46.875,-41.504,-488.281,0.000
1606129067.304,-67.871,-32.715,-27.832,-106.934,0.000
1606129067.308,166.016,-16.113,-8.789,371.582,0.000
1606129067.312,147.461,-17.090,-15.625,334.961,0.000
1606129067.316,-119.629,-42.969,-39.551,-195.801,0.000
1606129067.320,-276.855,-49.805,-46.875,-486.816,0.000
1606129067.324,-125.977,-38.086,-29.785,-175.293,0.000
1606129067.328,135.254,-18.555,-13.672,332.520,0.000
1606129067.332,174.316,-11.230,-21.973,380.371,0.000
1606129067.335,-83.008,-37.109,-41.992,-134.277,0.000
1606129067.339,-285.645,-61.035,-42.969,-486.816,0.000
1606129067.343,-173.828,-53.711,-27.832,-250.977,0.000
1606129067.347,96.680,-28.320,-21.484,264.160,0.000
1606129067.351,176.758,-21.484,-23.926,389.160,0.000
1606129067.355,-50.293,-36.133,-41.992,-76.660,0.000
1606129067.359,-266.602,-50.293,-52.734,-483.398,0.000
1606129067.363,-173.828,-43.457,-39.062,-305.664,0.000
1606129067.367,106.445,-13.184,-19.531,242.676,0.000
1606129067.371,207.520,0.000,-16.602,421.875,0.000
1606129067.374,6.348,-31.738,-32.227,0.488,0.000
1606129067.378,-227.051,-54.199,-45.410,-441.895,0.000
1606129067.382,-190.430,-46.875,-39.062,-346.680,0.000
1606129067.386,82.031,-21.973,-18.555,193.359,0.000
1606129067.390,212.402,-8.789,-14.648,436.523,0.000
1606129067.394,29.297,-23.926,-26.855,68.848,0.000
1606129067.398,-222.656,-46.387,-37.598,-411.621,0.000
1606129067.402,-221.191,-48.828,-31.250,-391.113,0.000
1606129067.406,41.992,-20.996,-15.625,135.742,0.000
1606129067.410,201.172,-6.348,-15.137,440.918,0.000
1606129067.414,57.129,-23.926,-20.020,135.254,0.000
1606129067.417,-211.914,-48.340,-39.062,-379.395,0.000
1606129067.421,-249.023,-57.129,-49.316,-438.477,0.000
1606129067.425,12.207,-30.273,-25.879,62.500,0.000
1606129067.429,188.965,9.277,-16.602,421.875,0.000
1606129067.433,78.125,-5.859,-31.738,195.312,0.000
1606129067.437,-186.035,-48.828,-44.434,-324.219,0.000
1606129067.441,-260.254,-52.734,-39.551,-454.102,0.000
1606129067.445,-25.391,-32.227,-20.508,8.789,0.000
1606129067.449,196.289,-12.207,-8.301,420.898,0.000
1606129067.453,119.629,-22.461,-23.926,247.559,0.000
1606129067.457,-148.926,-41.016,-39.062,-279.297,0.000
1606129067.460,-244.141,-34.668,-28.320,-458.496,0.000
1606129067.464,-43.457,-21.484,-15.137,-61.523,0.000
1606129067.468,192.871,2.441,-12.207,391.602,0.000
1606129067.472,161.133,-0.488,-19.043,311.523,0.000
1606129067.476,-108.887,-38.086,-36.133,-228.516,0.000
1606129067.480,-251.465,-47.852,-43.457,-483.398,0.000
1606129067.484,-83.496,-24.414,-26.367,-126.465,0.000
1606129067.488,161.133,-7.812,-14.160,352.051,0.000
1606129067.492,163.086,-14.648,-12.207,346.680,0.000
1606129067.496,-104.980,-39.062,-33.203,-173.828,0.000
1606129067.499,-275.879,-52.246,-45.410,-494.629,0.000
1606129067.503,-128.906,-41.016,-26.855,-201.172,0.000
1606129067.507,137.207,2.930,-5.371,326.660,0.000
1606129067.511,173.828,15.137,-6.836,392.578,0.000
1606129067.515,-80.078,-36.133,-34.180,-118.164,0.000
1606129067.519,-274.902,-58.594,-43.457,-487.305,0.000
1606129067.523,-166.504,-42.969,-31.250,-262.207,0.000
1606129067.527,108.398,-20.508,-16.602,269.043,0.000
1606129067.531,180.176,-15.625,-16.602,402.344,0.000
1606129067.535,-48.340,-37.109,-32.715,-56.152,0.000
1606129067.539,-260.742,-54.199,-39.551,-470.703,0.000
1606129067.542,-194.824,-46.875,-30.762,-325.195,0.000
1606129067.546,80.078,-24.414,-19.043,215.332,0.000
1606129067.550,196.777,-13.184,-9.277,420.898,0.000
1606129067.554,3.418,-27.344,-24.414,20.996,0.000
1606129067.558,-234.375,-47.852,-46.387,-442.871,0.000
1606129067.562,-213.867,-52.734,-42.969,-379.883,0.000
1606129067.566,59.082,-20.508,-22.461,160.156,0.000
1606129067.570,214.355,5.859,-11.719,441.895,0.000
1606129067.574,39.551,-21.973,-28.320,74.707,0.000
1606129067.578,-224.121,-48.340,-49.316,-434.082,0.000
1606129067.582,-231.934,-47.363,-43.457,-415.039,0.000
1606129067.585,29.785,-30.762,-24.414,98.633,0.000
1606129067.589,216.309,-18.066,-18.066,429.199,0.000
1606129067.593,61.035,-27.832,-30.273,119.629,0.000
1606129067.597,-217.773,-46.387,-45.898,-412.598,0.000
1606129067.601,-242.676,-53.223,-49.316,-460.938,0.000
1606129067.605,-0.488,-26.855,-38.574,20.996,0.000
1606129067.609,204.102,3.418,-24.902,405.273,0.000
1606129067.613,109.375,-17.090,-26.855,203.613,0.000
1606129067.617,-163.574,-43.457,-41.992,-326.172,0.000
1606129067.621,-256.836,-53.711,-43.945,-478.027,0.000
1606129067.624,-43.945,-37.598,-31.738,-30.762,0.000
1606129067.628,178.223,-3.418,-20.020,401.855,0.000
1606129067.632,114.746,-11.230,-24.902,267.090,0.000
1606129067.636,-166.504,-47.363,-43.457,-277.344,0.000
1606129067.640,-287.109,-58.105,-49.805,-491.699,0.000
1606129067.644,-94.238,-46.387,-33.203,-100.098,0.000
1606129067.648,149.414,-10.254,-16.602,366.211,0.000
1606129067.652,135.742,-2.441,-20.996,314.453,0.000
1606129067.656,-135.742,-48.828,-37.109,-221.680,0.000
1606129067.660,-287.109,-66.895,-43.457,-498.047,0.000
1606129067.664,-118.652,-45.410,-29.785,-159.668,0.000
1606129067.667,141.113,-22.949,-19.531,333.008,0.000
1606129067.671,160.156,-19.531,-20.996,349.609,0.000
1606129067.675,-103.516,-38.086,-36.621,-167.969,0.000
1606129067.679,-275.879,-51.270,-42.969,-504.395,0.000
1606129067.683,-146.484,-41.016,-26.367,-236.816,0.000
1606129067.687,116.211,-21.484,-9.766,294.434,0.000
1606129067.691,160.645,-12.207,-19.531,366.699,0.000
1606129067.695,-84.961,-29.785,-39.551,-125.488,0.000
1606129067.699,-277.832,-51.758,-52.246,-494.141,0.000
1606129067.703,-192.383,-51.758,-44.922,-309.082,0.000
1606129067.707,89.355,-19.043,-19.531,238.770,0.000
1606129067.710,189.941,3.418,-14.648,412.598,0.000
1606129067.714,-24.414,-21.973,-31.250,-28.320,0.000
1606129067.718,-249.023,-51.270,-50.781,-465.332,0.000
1606129067.722,-195.801,-52.734,-49.805,-344.238,0.000
1606129067.726,84.473,-23.926,-25.391,205.078,0.000
1606129067.730,206.543,-9.766,-18.066,435.547,0.000
1606129067.734,16.113,-26.855,-32.715,50.781,0.000
1606129067.738,-231.934,-45.898,-46.875,-425.293,0.000
1606129067.742,-226.562,-48.340,-46.387,-383.789,0.000
1606129067.746,48.340,-28.809,-21.484,156.250,0.000
1606129067.749,204.590,-14.648,-9.277,442.871,0.000
1606129067.753,35.156,-28.809,-26.855,112.305,0.000
1606129067.757,-218.262,-44.434,-39.062,-388.672,0.000
1606129067.761,-237.793,-44.434,-32.227,-420.410,0.000
1606129067.765,19.043,-20.996,-16.602,87.402,0.000
1606129067.769,207.520,-6.836,-4.395,435.059,0.000
1606129067.773,83.984,-21.973,-17.090,180.664,0.000
1606129067.777,-188.477,-42.969,-39.062,-340.820,0.000
1606129067.781,-250.977,-49.316,-37.109,-446.289,0.000
1606129067.785,-10.742,-33.691,-20.020,22.949,0.000
1606129067.789,208.008,0.977,-17.090,419.434,0.000
1606129067.792,125.000,-1.953,-25.391,238.770,0.000
1606129067.796,-155.273,-47.852,-40.039,-305.664,0.000
1606129067.800,-251.953,-63.965,-51.758,-490.723,0.000
1606129067.804,-37.598,-38.086,-44.922,-65.918,0.000
1606129067.808,202.637,-5.859,-30.762,388.672,0.000
1606129067.812,159.668,-16.602,-27.344,279.297,0.000
1606129067.816,-128.906,-43.945,-38.574,-269.043,0.000
1606129067.820,-262.207,-49.316,-40.039,-498.047,0.000
1606129067.824,-78.125,-38.574,-28.809,-125.977,0.000
1606129067.828,163.086,-19.043,-15.137,344.238,0.000
1606129067.832,148.438,-17.090,-10.742,315.918,0.000
1606129067.835,-118.652,-37.598,-26.367,-211.426,0.000
1606129067.839,-276.855,-47.852,-39.062,-510.254,0.000
1606129067.843,-129.395,-36.621,-30.762,-197.754,0.000
1606129067.847,134.277,-20.020,-17.578,308.594,0.000
1606129067.851,175.781,-16.602,-20.996,361.328,0.000
1606129067.855,-77.148,-39.551,-31.738,-141.602,0.000
1606129067.859,-274.902,-57.129,-42.480,-500.488,0.000
1606129067.863,-162.109,-45.410,-40.527,-255.859,0.000
1606129067.867,108.887,-26.367,-14.648,276.855,0.000
1606129067.871,174.316,-21.484,-12.695,391.602,0.000
1606129067.874,-54.688,-32.715,-38.574,-73.730,0.000
1606129067.878,-262.207,-51.758,-45.410,-474.609,0.000
1606129067.882,-185.059,-50.293,-36.621,-304.688,0.000
1606129067.886,93.750,-18.555,-20.020,237.793,0.000
1606129067.890,197.266,-8.789,-9.766,427.246,0.000
1606129067.894,-8.301,-36.621,-27.832,9.277,0.000
1606129067.898,-232.910,-55.664,-43.945,-437.500,0.000
1606129067.902,-192.871,-47.363,-36.133,-344.238,0.000
1606129067.906,80.078,-24.414,-17.090,199.219,0.000
1606129067.910,208.984,-12.207,-14.648,454.590,0.000
1606129067.914,31.738,-22.949,-30.762,99.609,0.000
1606129067.917,-213.867,-49.316,-41.016,-382.812,0.000
1606129067.921,-213.379,-45.410,-38.086,-374.512,0.000
1606129067.925,58.105,-20.996,-23.438,155.273,0.000
1606129067.929,220.215,-31.250,-16.602,461.426,0.000
1606129067.933,69.824,-37.598,-27.832,155.762,0.000
1606129067.937,-193.359,-49.316,-46.875,-359.863,0.000
1606129067.941,-235.840,-52.246,-41.992,-425.293,0.000
1606129067.945,11.719,-22.949,-23.926,76.172,0.000
1606129067.949,201.660,-5.371,-17.578,436.523,0.000
1606129067.953,88.379,-18.066,-33.691,198.730,0.000
1606129067.957,-183.594,-42.480,-51.758,-332.520,0.000
1606129067.960,-260.742,-44.922,-48.340,-462.402,0.000
1606129067.964,-30.273,-23.438,-33.691,-8.789,0.000
1606129067.968,193.359,-3.418,-21.973,399.414,0.000
1606129067.972,126.465,-4.395,-28.809,242.676,0.000
1606129067.976,-148.438,-28.320,-46.875,-296.387,0.000
1606129067.980,-256.836,-41.504,-53.711,-496.582,0.000
1606129067.984,-51.758,-31.738,-38.086,-84.473,0.000
1606129067.988,187.988,11.719,-21.484,375.977,0.000
1606129067.992,162.598,27.344,-24.414,308.105,0.000
1606129067.996,-110.352,-21.973,-48.828,-225.586,0.000
1606129067.999,-253.418,-42.480,-56.641,-485.352,0.000
1606129068.003,-82.520,-23.926,-32.227,-129.883,0.000
1606129068.007,171.387,-1.953,-19.043,361.816,0.000
1606129068.011,174.805,-4.883,-20.996,364.746,0.000
1606129068.015,-90.820,-28.809,-32.227,-156.738,0.000
1606129068.019,-264.160,-45.410,-47.852,-478.027,0.000
1606129068.023,-129.395,-40.527,-32.715,-187.012,0.000
1606129068.027,141.602,8.301,-8.301,336.914,0.000
1606129068.031,188.965,23.926,-19.531,407.715,0.000
1606129068.035,-63.965,-24.902,-42.480,-94.727,0.000
1606129068.039,-269.043,-47.363,-48.828,-475.098,0.000
1606129068.042,-167.969,-46.387,-39.062,-271.484,0.000
1606129068.046,107.422,-22.461,-27.344,256.836,0.000
1606129068.050,185.547,-15.137,-27.344,406.738,0.000
1606129068.054,-37.598,-37.598,-43.945,-49.316,0.000
1606129068.058,-258.789,-50.781,-53.711,-481.445,0.000
1606129068.062,-197.266,-44.922,-51.270,-343.750,0.000
1606129068.066,83.984,-1.953,-32.715,206.055,0.000
1606129068.070,209.473,27.832,-21.484,423.828,0.000
1606129068.074,11.230,-15.137,-38.574,16.113,0.000
1606129068.078,-229.980,-47.852,-58.594,-448.730,0.000
1606129068.082,-196.289,-41.504,-49.805,-375.977,0.000
1606129068.085,82.520,-7.812,-21.484,173.828,0.000
1606129068.089,226.562,14.648,-16.602,449.219,0.000
1606129068.093,56.152,-15.625,-33.691,101.074,0.000
1606129068.097,-206.543,-46.875,-51.758,-395.996,0.000
1606129068.101,-226.074,-48.340,-44.922,-408.203,0.000
1606129068.105,36.133,-21.484,-16.113,114.746,0.000
1606129068.109,207.520,-5.859,-8.301,444.824,0.000
1606129068.113,70.312,-23.926,-28.809,168.945,0.000
1606129068.117,-201.660,-47.852,-42.480,-355.469,0.000
1606129068.121,-250.488,-43.457,-31.738,-440.918,0.000
1606129068.124,-0.977,-21.973,-9.277,53.711,0.000
1606129068.128,201.172,3.906,-3.906,439.941,0.000
1606129068.132,102.051,-6.836,-24.414,232.422,0.000
1606129068.136,-175.781,-46.875,-47.852,-312.500,0.000
1606129068.140,-265.137,-49.316,-43.457,-470.703,0.000
1606129068.144,-42.969,-25.391,-24.414,-23.438,0.000
1606129068.148,186.523,-5.371,-15.625,412.598,0.000
1606129068.152,132.324,-9.766,-24.902,283.691,0.000
1606129068.156,-151.855,-36.621,-51.270,-270.508,0.000
1606129068.160,-276.367,-39.551,-53.223,-490.234,0.000
1606129068.164,-77.148,-19.043,-29.785,-90.820,0.000
1606129068.167,177.246,12.207,-18.066,378.906,0.000
1606129068.171,160.156,14.648,-27.344,315.430,0.000
1606129068.175,-119.141,-29.297,-48.340,-232.422,0.000
1606129068.179,-270.508,-41.504,-52.246,-512.695,0.000
1606129068.183,-104.492,-20.996,-32.715,-179.199,0.000
1606129068.187,155.273,-7.812,-20.508,318.359,0.000
1606129068.191,175.781,-7.324,-28.320,346.191,0.000
1606129068.195,-77.637,-18.066,-44.922,-160.156,0.000
1606129068.199,-254.395,-37.109,-52.246,-500.488,0.000
1606129068.203,-123.047,-26.367,-34.668,-229.004,0.000
1606129068.207,148.438,0.977,-20.508,301.758,0.000
1606129068.210,203.125,1.953,-21.973,398.438,0.000
1606129068.214,-40.039,-24.902,-38.574,-83.496,0.000
1606129068.218,-251.465,-49.316,-57.129,-479.004,0.000
1606129068.222,-166.016,-39.551,-45.410,-290.527,0.000
1606129068.226,112.305,-8.789,-19.043,257.324,0.000
1606129068.230,202.148,-12.207,-23.926,422.852,0.000
1606129068.234,-20.508,-35.156,-42.480,-26.367,0.000
1606129068.238,-251.465,-52.246,-43.945,-460.938,0.000
1606129068.242,-202.148,-48.828,-34.180,-341.309,0.000
1606129068.246,80.078,-23.926,-12.695,202.148,0.000
1606129068.249,209.961,-15.137,0.488,432.617,0.000
1606129068.253,11.719,-36.133,-12.207,49.316,0.000
1606129068.257,-247.070,-58.105,-36.133,-425.781,0.000
1606129068.261,-237.305,-56.152,-36.133,-392.090,0.000
1606129068.265,39.551,-30.273,-11.719,138.184,0.000
1606129068.269,203.613,13.184,-1.953,433.105,0.000
1606129068.273,47.852,-0.977,-15.137,107.910,0.000
1606129068.277,-217.285,-55.176,-32.715,-408.691,0.000
1606129068.281,-247.559,-54.199,-41.016,-451.660,0.000
1606129068.285,14.648,-24.414,-28.320,61.035,0.000
1606129068.289,213.379,-5.859,-7.324,416.992,0.000
1606129068.292,91.797,-18.066,-18.555,163.086,0.000
1606129068.296,-181.152,-50.781,-41.992,-374.023,0.000
1606129068.300,-229.492,-54.199,-39.062,-483.398,0.000
1606129068.304,7.324,-29.297,-26.367,-1.465,0.000
1606129068.308,208.984,-0.488,-18.555,394.531,0.000
1606129068.312,119.141,-8.789,-21.973,206.055,0.000
1606129068.316,-156.250,-50.781,-43.945,-335.449,0.000
1606129068.320,-254.395,-56.152,-55.176,-510.254,0.000
1606129068.324,-42.480,-29.297,-28.320,-71.289,0.000
1606129068.328,197.754,-9.766,-9.766,386.719,0.000
1606129068.332,149.414,-22.461,-13.672,287.109,0.000
1606129068.335,-137.695,-50.781,-31.738,-256.836,0.000
1606129068.339,-277.832,-64.941,-41.016,-506.348,0.000
1606129068.343,-97.656,-48.828,-21.484,-129.395,0.000
1606129068.347,161.621,-18.555,-2.930,364.746,0.000
1606129068.351,154.297,-22.461,-5.371,341.797,0.000
1606129068.355,-118.164,-52.734,-23.438,-191.406,0.000
1606129068.359,-277.832,-67.871,-34.180,-496.582,0.000
1606129068.363,-130.859,-59.082,-30.762,-187.500,0.000
1606129068.367,132.812,-26.855,-13.184,330.566,0.000
1606129068.371,166.504,-17.578,-7.812,386.230,0.000
1606129068.374,-89.844,-46.875,-28.809,-126.953,0.000
1606129068.378,-284.668,-67.871,-39.062,-489.746,0.000
1606129068.382,-174.316,-53.711,-21.973,-250.000,0.000
1606129068.386,101.562,-19.531,-9.766,281.250,0.000
1606129068.390,169.922,-19.531,-10.742,400.879,0.000
1606129068.394,-60.547,-42.480,-24.902,-67.871,0.000
1606129068.398,-273.926,-53.711,-43.457,-478.027,0.000
1606129068.402,-196.777,-56.152,-35.645,-317.871,0.000
1606129068.406,87.402,-29.297,-8.789,226.074,0.000
1606129068.410,188.965,0.000,-6.348,413.574,0.000
1606129068.414,-17.578,-29.785,-24.414,-9.766,0.000
1606129068.417,-249.023,-60.059,-40.039,-464.355,0.000
1606129068.421,-217.773,-54.199,-34.668,-382.324,0.000
1606129068.425,62.012,-28.809,-13.672,160.645,0.000
1606129068.429,206.055,-7.812,-8.789,422.363,0.000
1606129068.433,26.367,-24.414,-29.297,55.664,0.000
1606129068.437,-220.703,-54.199,-41.504,-422.852,0.000
1606129068.441,-220.215,-54.199,-28.320,-402.344,0.000
1606129068.445,43.945,-20.996,-20.508,124.023,0.000
1606129068.449,213.379,17.578,-15.625,442.871,0.000
1606129068.453,67.871,0.977,-21.484,143.555,0.000
1606129068.457,-203.613,-48.828,-42.480,-371.094,0.000
1606129068.460,-248.047,-49.805,-37.598,-437.988,0.000
1606129068.464,-0.977,-23.926,-15.137,63.477,0.000
1606129068.468,196.777,-12.207,1.465,428.711,0.000
1606129068.472,91.309,-21.973,-8.301,200.195,0.000
1606129068.476,-189.453,-46.387,-34.180,-336.426,0.000
1606129068.480,-270.996,-54.688,-41.016,-470.703,0.000
1606129068.484,-48.340,-35.645,-25.879,-7.324,0.000
1606129068.488,167.969,-13.672,-13.672,409.180,0.000
1606129068.492,96.680,-19.531,-23.438,258.789,0.000
1606129068.496,-184.570,-47.363,-35.645,-285.156,0.000
1606129068.499,-291.504,-54.199,-37.109,-484.375,0.000
1606129068.503,-86.914,-37.109,-22.949,-73.730,0.000
1606129068.507,152.344,0.977,-4.883,383.301,0.000
1606129068.511,129.395,-0.977,-11.719,301.270,0.000
1606129068.515,-140.137,-42.969,-36.133,-242.188,0.000
1606129068.519,-278.809,-54.688,-47.363,-511.230,0.000
1606129068.523,-106.445,-42.480,-34.668,-166.504,0.000
1606129068.527,152.344,-23.438,-19.531,329.590,0.000
1606129068.531,162.109,-18.555,-15.625,327.637,0.000
1606129068.535,-98.145,-33.203,-27.832,-193.848,0.000
1606129068.539,-267.090,-45.898,-42.480,-511.719,0.000
1606129068.542,-130.859,-33.691,-29.785,-223.145,0.000
1606129068.546,136.719,-10.254,-5.371,302.734,0.000
1606129068.550,174.805,-3.418,-13.184,379.395,0.000
1606129068.554,-85.938,-34.668,-30.762,-123.535,0.000
1606129068.558,-291.504,-62.012,-41.016,-506.348,0.000
1606129068.562,-191.406,-52.246,-32.227,-289.551,0.000
1606129068.566,89.844,-23.926,-9.766,254.883,0.000
1606129068.570,181.641,-6.836,-7.324,409.180,0.000
1606129068.574,-41.992,-30.273,-18.555,-42.480,0.000
1606129068.578,-278.320,-44.922,-28.809,-482.910,0.000
1606129068.582,-237.793,-28.320,-30.762,-371.582,0.000
1606129068.585,30.273,-11.230,-16.602,161.621,0.000
1606129068.589,138.672,-5.371,-5.859,365.723,0.000
1606129068.593,-71.289,-16.602,-21.484,-51.270,0.000
1606129068.597,-324.707,-34.668,-28.320,-521.484,0.000
1606129068.601,-316.406,-38.086,-14.648,-466.797,0.000
1606129068.605,-54.199,-16.113,6.348,60.547,0.000
1606129068.609,87.402,-2.930,20.508,332.031,0.000
1606129068.613,-77.637,-18.555,2.930,-15.625,0.000
1606129068.617,-348.633,-39.062,-18.066,-537.109,0.000
1606129068.621,-392.090,-41.504,-15.625,-573.730,0.000
1606129068.624,-138.184,-21.973,1.465,-57.129,0.000
1606129068.628,47.363,0.000,10.742,283.691,0.000
1606129068.632,-82.520,-2.930,3.418,12.695,0.000
1606129068.636,-354.492,-29.785,-9.277,-517.578,0.000
1606129068.640,-410.645,-40.527,-14.648,-617.188,0.000
1606129068.644,-165.527,-24.902,0.000,-127.930,0.000
1606129068.648,46.875,4.883,11.719,266.113,0.000
1606129068.652,-45.898,4.395,0.977,68.359,0.000
1606129068.656,-325.195,-32.715,-14.648,-471.191,0.000
1606129068.660,-405.273,-44.434,-16.113,-629.883,0.000
1606129068.664,-169.922,-25.879,3.418,-174.316,0.000
1606129068.667,64.453,0.977,19.531,273.438,0.000
1606129068.671,14.160,1.953,9.766,152.832,0.000
1606129068.675,-267.090,-29.297,-16.113,-396.484,0.000
1606129068.679,-392.090,-51.270,-17.578,-615.234,0.000
1606129068.683,-197.754,-44.922,-2.930,-216.309,0.000
1606129068.687,53.223,-16.113,6.836,262.695,0.000
1606129068.691,40.039,-8.301,-1.465,217.285,0.000
1606129068.695,-225.586,-26.367,-25.391,-319.824,0.000
1606129068.699,-365.234,-32.227,-29.785,-597.168,0.000
1606129068.703,-197.754,-28.320,-17.090,-253.418,0.000
1606129068.707,73.730,-13.672,-10.254,266.113,0.000
1606129068.710,117.676,-7.324,-13.184,311.523,0.000
1606129068.714,-129.883,-27.832,-33.691,-190.918,0.000
1606129068.718,-309.082,-43.457,-52.734,-536.621,0.000
1606129068.722,-174.805,-41.504,-40.527,-264.160,0.000
1606129068.726,107.910,-8.301,-25.879,283.691,0.000
1606129068.730,170.898,18.555,-37.109,383.301,0.000
1606129068.734,-64.941,-30.273,-55.664,-106.445,0.000
1606129068.738,-259.277,-64.941,-58.105,-496.582,0.000
1606129068.742,-164.551,-57.129,-52.734,-296.387,0.000
1606129068.746,118.652,-34.668,-43.945,249.512,0.000
1606129068.749,223.633,-14.160,-42.969,427.246,0.000
1606129068.753,21.484,-32.227,-55.664,6.348,0.000
1606129068.757,-199.707,-56.152,-68.359,-428.711,0.000
1606129068.761,-147.461,-55.664,-65.918,-316.406,0.000
1606129068.765,136.719,-30.762,-41.504,234.863,0.000
1606129068.769,272.949,-17.578,-37.109,477.051,0.000
1606129068.773,94.238,-35.156,-63.477,101.562,0.000
1606129068.777,-147.949,-59.570,-83.008,-385.254,0.000
1606129068.781,-136.719,-60.547,-71.777,-354.004,0.000
1606129068.785,129.395,-33.691,-46.387,187.988,0.000
1606129068.789,290.039,-22.949,-32.715,490.234,0.000
1606129068.792,145.508,-34.668,-49.316,177.734,0.000
1606129068.796,-115.234,-53.711,-72.754,-329.590,0.000
1606129068.800,-152.344,-62.988,-74.219,-372.070,0.000
1606129068.804,101.562,-41.016,-50.781,151.367,0.000
1606129068.808,286.621,-16.602,-30.762,517.578,0.000
1606129068.812,163.574,-23.438,-41.992,270.508,0.000
1606129068.816,-108.887,-48.340,-59.082,-263.672,0.000
1606129068.820,-177.246,-54.199,-54.688,-369.141,0.000
1606129068.824,55.176,-35.645,-38.086,109.863,0.000
1606129068.828,266.113,-23.438,-32.227,501.465,0.000
1606129068.832,179.688,-31.738,-41.504,323.730,0.000
1606129068.835,-96.191,-58.594,-57.129,-216.797,0.000
1606129068.839,-195.312,-74.219,-58.105,-395.996,0.000
1606129068.843,10.254,-52.734,-34.668,30.273,0.000
1606129068.847,239.258,-28.320,-17.578,476.074,0.000
1606129068.851,196.289,-28.809,-21.973,376.465,0.000
1606129068.855,-83.008,-56.641,-40.039,-177.734,0.000
1606129068.859,-217.285,-69.336,-41.992,-426.758,0.000
1606129068.863,-32.227,-41.992,-29.297,-46.875,0.000
1606129068.867,214.355,-31.250,-12.695,438.965,0.000
1606129068.871,213.379,-38.086,-4.883,416.504,0.000
1606129068.874,-51.270,-53.223,-30.762,-117.188,0.000
1606129068.878,-216.797,-65.918,-50.293,-432.129,0.000
1606129068.882,-63.477,-46.875,-34.668,-123.535,0.000
1606129068.886,207.031,-23.438,-22.461,391.113,0.000
1606129068.890,242.676,-24.414,-26.367,439.453,0.000
1606129068.894,-9.766,-48.828,-35.645,-68.359,0.000
1606129068.898,-201.660,-61.035,-46.387,-432.129,0.000
1606129068.902,-90.332,-47.852,-38.086,-195.801,0.000
1606129068.906,188.965,-21.973,-20.020,342.285,0.000
1606129068.910,252.930,-18.555,-20.020,463.867,0.000
1606129068.914,18.555,-35.645,-32.715,-5.371,0.000
1606129068.917,-194.336,-53.223,-38.086,-416.016,0.000
1606129068.921,-135.254,-55.664,-37.598,-263.184,0.000
1606129068.925,146.973,-30.273,-24.414,283.203,0.000
1606129068.929,252.441,-16.113,-15.625,480.469,0.000
1606129068.933,44.922,-24.902,-22.461,59.082,0.000
1606129068.937,-181.152,-47.363,-33.203,-395.020,0.000
1606129068.941,-154.297,-46.875,-35.645,-314.453,0.000
1606129068.945,111.816,-14.648,-21.484,226.562,0.000
1606129068.949,243.652,-7.324,-13.672,490.723,0.000
1606129068.953,60.547,-21.973,-20.996,122.559,0.000
1606129068.957,-203.125,-36.133,-38.574,-384.277,0.000
1606129068.960,-219.727,-43.457,-47.363,-380.859,0.000
1606129068.964,43.457,-20.020,-25.879,145.508,0.000
1606129068.968,215.332,-3.906,-5.859,465.820,0.000
1606129068.972,76.660,-24.902,-22.949,170.898,0.000
1606129068.976,-188.965,-47.852,-47.363,-354.004,0.000
1606129068.980,-229.492,-45.898,-42.480,-427.246,0.000
1606129068.984,24.902,-21.484,-22.949,78.125,0.000
1606129068.988,216.797,-5.859,-13.672,449.219,0.000
1606129068.992,105.469,-13.672,-21.484,218.750,0.000
1606129068.996,-162.598,-38.086,-42.969,-316.895,0.000
1606129068.999,-241.211,-50.293,-52.734,-462.402,0.000
1606129069.003,-15.137,-26.367,-29.785,0.488,0.000
1606129069.007,210.938,-2.441,-2.441,434.082,0.000
1606129069.011,141.113,-14.648,-8.789,276.855,0.000
1606129069.015,-135.742,-41.016,-28.809,-276.367,0.000
1606129069.019,-248.047,-45.410,-38.086,-482.910,0.000
1606129069.023,-54.199,-30.762,-22.949,-80.566,0.000
1606129069.027,178.711,-13.672,-10.742,378.418,0.000
1606129069.031,148.926,-16.602,-25.879,305.664,0.000
1606129069.035,-126.465,-44.922,-43.457,-238.281,0.000
1606129069.039,-271.484,-49.316,-46.387,-506.348,0.000
1606129069.042,-98.633,-32.715,-28.320,-152.344,0.000
1606129069.046,154.785,-14.160,-7.324,346.191,0.000
1606129069.050,167.480,-5.859,-6.348,355.469,0.000
1606129069.054,-99.609,-27.832,-28.320,-174.805,0.000
1606129069.058,-283.203,-43.457,-36.621,-509.766,0.000
1606129069.062,-145.508,-36.621,-26.367,-224.121,0.000
1606129069.066,125.977,-16.602,-8.301,300.293,0.000
1606129069.070,177.246,-8.301,-10.254,379.395,0.000
1606129069.074,-68.848,-37.598,-41.504,-121.582,0.000
1606129069.078,-255.371,-56.641,-45.898,-490.234,0.000
1606129069.082,-155.762,-37.598,-32.227,-276.367,0.000
1606129069.085,100.098,-9.277,-19.531,248.047,0.000
1606129069.089,201.172,-3.418,-14.648,413.574,0.000
1606129069.093,0.488,-29.785,-30.273,-13.184,0.000
1606129069.097,-212.891,-47.852,-47.852,-437.500,0.000
1606129069.101,-125.488,-31.738,-47.852,-286.621,0.000
1606129069.105,163.086,-17.090,-28.809,273.438,0.000
1606129069.109,282.715,9.277,-18.066,494.141,0.000
1606129069.113,96.191,2.441,-37.109,96.680,0.000
1606129069.117,-147.461,-41.016,-51.270,-376.953,0.000
1606129069.121,-130.371,-42.480,-44.922,-307.617,0.000
1606129069.124,146.973,-18.066,-27.832,242.676,0.000
1606129069.128,294.434,-6.836,-12.695,513.672,0.000
1606129069.132,126.465,-16.602,-29.297,173.340,0.000
1606129069.136,-134.277,-41.016,-53.223,-333.496,0.000
1606129069.140,-159.180,-50.293,-57.617,-356.934,0.000
1606129069.144,98.145,-26.367,-40.039,169.922,0.000
1606129069.148,269.043,7.812,-26.367,509.766,0.000
1606129069.152,134.277,-4.395,-38.574,235.840,0.000
1606129069.156,-137.207,-42.969,-50.293,-296.875,0.000
1606129069.160,-193.848,-46.875,-42.480,-394.531,0.000
1606129069.164,42.969,-27.832,-26.367,100.098,0.000
1606129069.167,244.141,-4.395,-22.949,491.699,0.000
1606129069.171,148.438,-16.113,-28.809,282.227,0.000
1606129069.175,-126.953,-45.898,-36.133,-264.648,0.000
1606129069.179,-218.262,-44.922,-27.344,-425.293,0.000
1606129069.183,0.977,-21.973,-12.695,21.484,0.000
1606129069.187,224.121,-12.695,-5.859,452.637,0.000
1606129069.191,166.016,-24.902,-12.695,324.707,0.000
1606129069.195,-116.699,-45.898,-35.156,-231.445,0.000
1606129069.199,-249.512,-47.852,-36.621,-463.867,0.000
1606129069.203,-58.105,-27.344,-21.973,-71.289,0.000
1606129069.207,190.918,-2.441,-11.230,405.762,0.000
1606129069.210,179.199,10.742,-15.625,364.746,0.000
1606129069.214,-95.703,-28.320,-34.180,-186.035,0.000
1606129069.218,-243.164,-55.664,-34.180,-473.633,0.000
1606129069.222,-80.078,-34.668,-15.137,-131.836,0.000
1606129069.226,175.293,-11.230,-3.906,373.535,0.000
1606129069.230,196.289,-13.672,-15.137,399.414,0.000
1606129069.234,-63.965,-39.062,-32.715,-122.559,0.000
1606129069.238,-249.023,-51.270,-44.922,-474.609,0.000
1606129069.242,-130.371,-39.551,-43.457,-220.703,0.000
1606129069.246,138.184,-12.207,-21.484,306.641,0.000
1606129069.249,195.801,-6.348,-18.555,407.715,0.000
1606129069.253,-44.922,-36.133,-41.992,-77.637,0.000
1606129069.257,-253.418,-53.711,-57.617,-477.051,0.000
1606129069.261,-161.133,-43.457,-44.434,-292.969,0.000
1606129069.265,119.629,-16.113,-18.066,256.836,0.000
1606129069.269,202.148,-5.859,-15.625,436.523,0.000
1606129069.273,-12.695,-20.508,-35.645,-0.488,0.000
1606129069.277,-243.652,-41.504,-53.711,-449.707,0.000
1606129069.281,-198.730,-41.504,-47.852,-344.727,0.000
1606129069.285,86.426,-13.184,-22.949,208.984,0.000
1606129069.289,216.797,-2.930,-14.160,455.078,0.000
1606129069.292,44.922,-24.414,-37.109,83.008,0.000
1606129069.296,-204.102,-44.922,-57.617,-414.062,0.000
1606129069.300,-225.586,-44.922,-52.246,-414.551,0.000
1606129069.304,39.062,-22.461,-31.250,121.582,0.000
1606129069.308,190.918,-2.441,-20.020,418.457,0.000
1606129069.312,26.855,-20.020,-21.973,95.215,0.000
1606129069.316,-236.328,-48.340,-47.363,-419.434,0.000
1606129069.320,-267.090,-44.434,-51.270,-462.891,0.000
1606129069.324,-9.766,-23.926,-24.414,60.059,0.000
1606129069.328,181.641,-14.648,-24.414,420.410,0.000
1606129069.332,68.359,-23.926,-34.180,177.734,0.000
1606129069.335,-205.078,-46.875,-42.480,-354.004,0.000
1606129069.339,-272.949,-54.199,-46.875,-475.098,0.000
1606129069.343,-30.762,-33.691,-27.832,9.766,0.000
1606129069.347,184.082,-9.766,-11.719,420.898,0.000
1606129069.351,105.957,-18.555,-21.484,245.117,0.000
1606129069.355,-167.480,-55.176,-38.086,-304.199,0.000
1606129069.359,-263.184,-63.477,-38.086,-492.188,0.000
1606129069.363,-45.410,-41.992,-25.391,-60.547,0.000
1606129069.367,192.383,-15.137,-6.836,399.414,0.000
1606129069.371,153.809,-18.555,-10.254,304.199,0.000
1606129069.374,-129.395,-47.852,-43.945,-258.789,0.000
1606129069.378,-264.648,-54.688,-54.688,-511.230,0.000
1606129069.382,-80.078,-40.527,-39.062,-123.535,0.000
1606129069.386,169.434,-21.973,-18.555,371.094,0.000
1606129069.390,168.457,-9.766,-16.602,355.469,0.000
1606129069.394,-97.168,-29.785,-37.109,-181.641,0.000
1606129069.398,-265.137,-52.246,-45.898,-498.047,0.000
1606129069.402,-119.141,-41.016,-38.574,-185.059,0.000
1606129069.406,149.414,-13.672,-27.344,340.332,0.000
1606129069.410,183.594,-11.719,-23.926,398.438,0.000
1606129069.414,-69.336,-34.180,-34.668,-115.234,0.000
1606129069.417,-263.672,-47.852,-46.875,-489.746,0.000
1606129069.421,-150.391,-34.180,-33.203,-250.977,0.000
1606129069.425,130.859,-5.859,-14.160,302.246,0.000
1606129069.429,203.613,-7.324,-16.602,436.035,0.000
1606129069.433,-31.738,-31.250,-27.344,-44.434,0.000
1606129069.437,-246.582,-43.945,-42.480,-465.820,0.000
1606129069.441,-173.340,-37.109,-39.062,-305.664,0.000
1606129069.445,103.027,-7.812,-17.090,249.023,0.000
1606129069.449,215.332,3.906,-12.207,452.637,0.000
1606129069.453,5.859,-18.555,-30.762,19.531,0.000
1606129069.457,-235.840,-33.691,-54.688,-458.008,0.000
1606129069.460,-195.312,-28.320,-51.270,-370.605,0.000
1606129069.464,84.961,-11.230,-19.531,187.988,0.000
1606129069.468,202.637,-3.906,-8.301,428.711,0.000
1606129069.472,3.906,-21.973,-17.578,35.645,0.000
1606129069.476,-260.742,-45.410,-26.855,-475.098,0.000
1606129069.480,-282.715,-51.758,-37.598,-485.352,0.000
1606129069.484,-31.738,-41.992,-17.090,37.109,0.000
1606129069.488,129.395,-32.715,32.715,365.234,0.000
1606129069.492,-27.344,-41.992,36.621,67.871,0.000
1606129069.496,-316.406,-72.266,13.672,-468.262,0.000
1606129069.499,-361.328,-72.266,18.555,-533.203,0.000
1606129069.503,-109.863,-46.387,39.062,-23.438,0.000
1606129069.507,88.379,-35.156,57.129,356.934,0.000
1606129069.511,-13.184,-54.199,51.270,140.137,0.000
1606129069.515,-296.875,-74.219,18.555,-407.715,0.000
1606129069.519,-376.953,-74.707,20.996,-542.969,0.000
1606129069.523,-133.301,-53.711,49.805,-53.223,0.000
1606129069.527,95.703,-38.086,55.664,383.789,0.000
1606129069.531,34.180,-57.129,41.992,242.188,0.000
1606129069.535,-228.027,-79.590,15.137,-294.922,0.000
1606129069.539,-327.637,-83.008,2.441,-498.535,0.000
1606129069.542,-116.211,-60.059,10.254,-82.520,0.000
1606129069.546,139.160,-33.691,25.391,398.438,0.000
1606129069.550,122.559,-31.738,22.461,333.984,0.000
1606129069.554,-140.625,-49.805,-3.418,-212.891,0.000
1606129069.558,-280.273,-62.500,-18.066,-482.422,0.000
1606129069.562,-111.816,-46.875,-3.906,-125.977,0.000
1606129069.566,153.320,-19.043,10.254,378.418,0.000
1606129069.570,177.246,-11.230,8.301,386.719,0.000
1606129069.574,-87.402,-33.203,-12.695,-149.902,0.000
1606129069.578,-261.230,-49.316,-27.832,-489.746,0.000
1606129069.582,-132.812,-33.691,-18.555,-210.938,0.000
1606129069.585,132.324,-17.578,-13.184,311.035,0.000
1606129069.589,185.059,-20.996,-15.137,392.578,0.000
1606129069.593,-65.430,-38.086,-20.508,-106.445,0.000
1606129069.597,-266.602,-55.176,-25.879,-494.629,0.000
1606129069.601,-173.828,-44.922,-25.391,-285.156,0.000
1606129069.605,101.562,-15.137,-14.160,263.184,0.000
1606129069.609,187.988,-6.348,-2.930,420.898,0.000
1606129069.613,-41.016,-31.738,-16.602,-38.086,0.000
1606129069.617,-264.160,-52.246,-32.227,-473.145,0.000
1606129069.621,-198.730,-47.363,-32.715,-332.031,0.000
1606129069.624,77.148,-26.855,-12.695,225.586,0.000
1606129069.628,193.848,-23.926,-1.953,444.824,0.000
1606129069.632,-1.465,-41.504,-16.113,37.109,0.000
1606129069.636,-242.676,-55.176,-30.762,-432.129,0.000
1606129069.640,-216.797,-50.781,-27.344,-375.000,0.000
1606129069.644,52.246,-28.809,-11.230,163.086,0.000
1606129069.648,201.660,-23.926,-4.883,441.895,0.000
1606129069.652,36.621,-42.969,-23.438,96.191,0.000
1606129069.656,-223.633,-56.152,-40.039,-414.551,0.000
1606129069.660,-237.305,-49.316,-42.969,-439.941,0.000
1606129069.664,30.762,-24.414,-20.508,97.168,0.000
1606129069.667,209.961,-7.812,0.000,440.430,0.000
1606129069.671,78.125,-18.066,-20.020,154.785,0.000
1606129069.675,-202.637,-57.129,-42.969,-389.648,0.000
1606129069.679,-268.066,-70.801,-44.434,-490.234,0.000
1606129069.683,-16.113,-45.410,-23.438,12.695,0.000
1606129069.687,196.777,-17.090,-4.395,416.504,0.000
1606129069.691,88.379,-22.461,-13.672,190.430,0.000
1606129069.695,-193.359,-48.828,-33.691,-366.211,0.000
1606129069.699,-271.973,-49.316,-41.992,-504.395,0.000
1606129069.703,-60.059,-35.156,-30.762,-58.105,0.000
1606129069.707,171.875,-10.254,-12.207,392.090,0.000
1606129069.710,120.117,-10.254,-16.602,274.902,0.000
