timestamps,TP9,AF7,AF8,TP10,Right AUX
1606131592.818,-0.488,0.000,0.000,-0.488,0.000
1606131592.822,-1.465,-0.488,-0.488,-3.906,0.000
1606131592.826,6.836,-0.488,-0.488,21.484,0.000
1606131592.830,-9.766,0.488,0.488,-26.367,0.000
1606131592.834,31.738,-5.859,-6.836,87.891,0.000
1606131592.838,198.730,-9.766,-11.719,670.898,0.000
1606131592.842,150.879,-17.578,-15.137,619.141,0.000
1606131592.846,-163.574,-41.504,-37.109,-368.652,0.000
1606131592.850,-307.617,-52.734,-46.875,-900.391,0.000
1606131592.854,-87.891,-36.621,-26.855,-283.203,0.000
1606131592.857,201.660,-7.812,-10.742,638.184,0.000
1606131592.861,187.988,-10.742,-17.090,685.547,0.000
1606131592.865,-125.977,-37.598,-38.574,-254.395,0.000
1606131592.869,-309.082,-50.781,-51.758,-896.973,0.000
1606131592.873,-134.766,-39.551,-36.621,-410.156,0.000
1606131592.877,167.969,-18.555,-11.230,555.176,0.000
1606131592.881,199.219,-14.648,-11.719,750.000,0.000
1606131592.885,-108.398,-40.527,-38.574,-129.883,0.000
1606131592.889,-315.430,-61.523,-49.316,-861.328,0.000
1606131592.893,-167.480,-49.316,-30.273,-516.113,0.000
1606131592.897,137.207,-28.320,-5.371,458.008,0.000
1606131592.900,210.449,-21.484,-7.324,779.785,0.000
1606131592.904,-61.523,-37.598,-25.879,-6.348,0.000
1606131592.908,-299.805,-59.082,-38.086,-810.547,0.000
1606131592.912,-205.566,-53.711,-34.180,-609.863,0.000
1606131592.916,106.934,-26.367,-20.508,367.188,0.000
1606131592.920,225.586,-23.438,-14.648,815.430,0.000
1606131592.924,-9.277,-38.086,-22.949,134.766,0.000
1606131592.928,-270.508,-49.316,-31.250,-745.117,0.000
1606131592.932,-226.074,-46.875,-33.691,-703.125,0.000
1606131592.936,84.473,-3.418,-27.344,262.207,0.000
1606131592.940,233.887,15.137,-14.648,823.730,0.000
1606131592.943,19.043,-26.855,-29.297,244.141,0.000
1606131592.947,-272.461,-55.664,-49.316,-683.594,0.000
1606131592.951,-270.996,-49.316,-53.711,-779.785,0.000
1606131592.955,37.109,-20.508,-31.738,135.254,0.000
1606131592.959,234.375,-2.930,-4.883,807.129,0.000
1606131592.963,66.406,-25.879,-10.254,368.652,0.000
1606131592.967,-235.352,-48.340,-31.738,-588.867,0.000
1606131592.971,-276.855,-47.363,-49.316,-832.520,0.000
1606131592.975,6.348,-36.621,-37.109,13.672,0.000
1606131592.979,230.469,-19.043,-21.484,778.809,0.000
1606131592.982,109.375,-5.859,-23.926,486.328,0.000
1606131592.986,-199.707,-22.461,-38.574,-491.211,0.000
1606131592.990,-286.621,-40.527,-51.270,-868.164,0.000
1606131592.994,-17.578,-24.902,-28.809,-97.168,0.000
1606131592.998,242.188,-0.977,2.441,757.812,0.000
1606131593.002,160.645,-14.160,-6.348,603.027,0.000
1606131593.006,-158.203,-44.922,-36.133,-375.488,0.000
1606131593.010,-291.504,-52.246,-45.410,-868.652,0.000
1606131593.014,-62.012,-32.227,-31.738,-224.121,0.000
1606131593.018,215.820,-3.906,-19.531,673.340,0.000
1606131593.022,179.688,-9.766,-21.973,663.574,0.000
1606131593.025,-134.766,-41.016,-39.551,-289.551,0.000
1606131593.029,-294.922,-60.059,-43.945,-883.789,0.000
1606131593.033,-94.727,-40.527,-25.391,-354.492,0.000
1606131593.037,192.383,-2.441,-11.719,578.613,0.000
1606131593.041,201.660,-4.395,-15.137,717.773,0.000
1606131593.045,-95.215,-30.762,-33.203,-179.688,0.000
1606131593.049,-297.363,-43.457,-46.387,-880.371,0.000
1606131593.053,-144.531,-27.832,-32.715,-479.004,0.000
1606131593.057,163.574,-10.254,-7.324,501.465,0.000
1606131593.061,219.238,-12.695,0.000,787.598,0.000
1606131593.065,-68.848,-33.691,-26.855,-34.180,0.000
1606131593.068,-302.734,-52.246,-51.270,-824.707,0.000
1606131593.072,-190.430,-44.922,-35.156,-580.566,0.000
1606131593.076,124.023,-18.066,-7.324,401.855,0.000
1606131593.080,229.004,-14.160,-6.348,812.500,0.000
1606131593.084,-14.160,-28.320,-26.367,85.449,0.000
1606131593.088,-270.996,-45.410,-37.598,-776.367,0.000
1606131593.092,-210.938,-48.828,-34.668,-671.387,0.000
1606131593.096,101.562,-31.250,-25.391,301.270,0.000
1606131593.100,242.676,-16.602,-14.648,827.637,0.000
1606131593.104,27.832,-26.367,-19.043,225.586,0.000
1606131593.107,-254.883,-47.852,-41.016,-685.547,0.000
1606131593.111,-241.699,-40.039,-42.969,-753.418,0.000
1606131593.115,77.148,-13.672,-7.812,208.496,0.000
1606131593.119,250.488,-1.465,0.488,792.969,0.000
1606131593.123,62.012,-20.508,-22.461,281.250,0.000
1606131593.127,-222.168,-51.270,-46.387,-592.773,0.000
1606131593.131,-257.324,-55.664,-50.781,-801.270,0.000
1606131593.135,30.762,-13.672,-23.926,66.406,0.000
1606131593.139,243.652,5.859,-7.812,799.805,0.000
1606131593.143,103.516,-11.230,-16.602,461.914,0.000
1606131593.147,-204.590,-31.250,-42.480,-518.555,0.000
1606131593.150,-286.133,-44.434,-49.316,-862.793,0.000
1606131593.154,-16.602,-28.320,-23.926,-68.848,0.000
1606131593.158,228.516,-6.348,-13.672,749.512,0.000
1606131593.162,127.441,-15.625,-24.414,547.852,0.000
1606131593.166,-193.848,-41.992,-40.039,-432.129,0.000
1606131593.170,-306.152,-49.316,-51.758,-890.625,0.000
1606131593.174,-64.453,-33.691,-29.785,-205.566,0.000
1606131593.178,205.078,-17.090,1.953,680.176,0.000
1606131593.182,170.898,-17.090,-1.953,641.113,0.000
1606131593.186,-138.184,-33.691,-24.902,-311.035,0.000
1606131593.190,-299.316,-44.434,-32.715,-885.742,0.000
1606131593.193,-99.121,-34.180,-16.602,-321.289,0.000
1606131593.197,196.777,-17.578,2.441,619.141,0.000
1606131593.201,202.148,-22.461,-2.930,721.680,0.000
1606131593.205,-104.004,-44.922,-30.273,-191.406,0.000
1606131593.209,-288.086,-44.922,-46.875,-861.328,0.000
1606131593.213,-124.023,-27.832,-29.297,-433.105,0.000
1606131593.217,176.758,-1.953,-3.418,542.480,0.000
1606131593.221,223.145,0.488,-2.930,789.062,0.000
1606131593.225,-65.430,-31.250,-23.438,-67.871,0.000
1606131593.229,-290.039,-53.711,-41.992,-839.355,0.000
1606131593.232,-169.434,-40.527,-28.809,-550.293,0.000
1606131593.236,145.508,4.395,-10.254,430.664,0.000
1606131593.240,233.398,-1.953,-10.742,803.711,0.000
1606131593.244,-28.809,-41.016,-30.273,51.758,0.000
1606131593.248,-276.367,-49.316,-44.434,-792.480,0.000
1606131593.252,-192.383,-32.715,-24.902,-646.484,0.000
1606131593.256,110.352,-15.137,-11.230,307.617,0.000
1606131593.260,228.027,-17.578,-17.090,792.480,0.000
1606131593.264,7.812,-36.133,-35.645,178.223,0.000
1606131593.268,-266.113,-56.641,-50.781,-729.004,0.000
1606131593.272,-227.539,-49.805,-41.016,-735.352,0.000
1606131593.275,84.473,-15.137,-19.531,212.891,0.000
1606131593.279,248.047,-5.859,-4.883,820.801,0.000
1606131593.283,61.035,-29.297,-14.648,315.430,0.000
1606131593.287,-235.352,-56.641,-31.738,-634.277,0.000
1606131593.291,-256.836,-54.688,-34.180,-800.781,0.000
1606131593.295,45.410,-31.738,-19.043,99.609,0.000
1606131593.299,249.023,-15.137,-6.836,807.129,0.000
1606131593.303,103.516,-19.531,-24.414,429.688,0.000
1606131593.307,-202.637,-43.945,-46.387,-538.574,0.000
1606131593.311,-262.207,-44.434,-45.898,-833.008,0.000
1606131593.315,16.602,-20.996,-23.926,-8.301,0.000
1606131593.318,236.328,-11.230,-9.277,780.762,0.000
1606131593.322,128.418,-28.809,-21.484,534.180,0.000
1606131593.326,-180.176,-47.363,-44.922,-449.707,0.000
1606131593.330,-288.086,-53.223,-50.293,-875.000,0.000
1606131593.334,-42.480,-32.715,-26.367,-156.738,0.000
1606131593.338,218.750,-7.324,-8.301,708.984,0.000
1606131593.342,155.762,-15.137,-27.344,621.582,0.000
1606131593.346,-160.645,-42.480,-48.340,-336.914,0.000
1606131593.350,-300.293,-49.316,-43.457,-874.512,0.000
1606131593.354,-90.332,-26.855,-30.762,-275.879,0.000
1606131593.357,191.406,-6.348,-12.695,650.391,0.000
1606131593.361,182.617,-13.672,-16.113,704.590,0.000
1606131593.365,-128.906,-42.969,-48.828,-242.676,0.000
1606131593.369,-305.664,-54.199,-47.363,-881.836,0.000
1606131593.373,-122.070,-25.879,-28.320,-397.949,0.000
1606131593.377,169.434,-9.766,-14.648,553.711,0.000
1606131593.381,192.383,-22.949,-18.066,747.559,0.000
1606131593.385,-99.121,-39.062,-37.598,-126.465,0.000
1606131593.389,-309.570,-45.898,-45.410,-864.746,0.000
1606131593.393,-175.781,-34.668,-39.551,-531.738,0.000
1606131593.397,140.137,-18.066,-19.043,445.801,0.000
1606131593.400,220.215,-10.742,-13.184,789.551,0.000
1606131593.404,-48.828,-26.855,-25.391,15.625,0.000
1606131593.408,-289.551,-50.293,-37.109,-797.363,0.000
1606131593.412,-207.520,-43.945,-46.387,-616.699,0.000
1606131593.416,100.586,-15.137,-31.738,354.492,0.000
1606131593.420,222.656,-6.836,-20.996,812.988,0.000
1606131593.424,-15.137,-25.391,-43.457,135.254,0.000
1606131593.428,-283.203,-51.270,-61.035,-749.512,0.000
1606131593.432,-237.305,-43.945,-48.340,-709.473,0.000
1606131593.436,76.172,-20.020,-22.461,253.906,0.000
1606131593.440,237.793,-10.254,-12.695,833.984,0.000
1606131593.443,37.598,-26.367,-21.484,273.926,0.000
1606131593.447,-256.836,-52.734,-42.969,-668.457,0.000
1606131593.451,-263.184,-51.270,-51.270,-779.785,0.000
1606131593.455,35.645,-20.996,-31.738,127.441,0.000
1606131593.459,221.680,-7.324,-24.414,800.781,0.000
1606131593.463,63.477,-27.344,-30.762,376.465,0.000
1606131593.467,-233.398,-53.223,-45.898,-586.914,0.000
1606131593.471,-286.621,-61.523,-50.781,-831.543,0.000
1606131593.475,-2.441,-44.434,-22.461,18.066,0.000
1606131593.479,229.980,-20.508,2.930,784.668,0.000
1606131593.482,110.840,-25.391,-12.207,502.930,0.000
1606131593.486,-197.754,-48.340,-46.875,-479.492,0.000
1606131593.490,-281.250,-51.270,-51.758,-867.188,0.000
1606131593.494,-27.344,-29.297,-31.250,-119.141,0.000
1606131593.498,215.820,-11.719,-17.090,721.680,0.000
1606131593.502,135.254,-24.414,-24.902,583.496,0.000
1606131593.506,-179.199,-49.805,-39.551,-387.695,0.000
1606131593.510,-305.664,-54.199,-41.016,-879.395,0.000
1606131593.514,-78.125,-29.297,-22.461,-245.117,0.000
1606131593.518,192.383,-6.836,-13.184,647.949,0.000
1606131593.522,163.574,-22.461,-20.020,662.109,0.000
1606131593.525,-143.555,-47.852,-40.039,-277.832,0.000
1606131593.529,-310.547,-55.664,-46.875,-882.324,0.000
1606131593.533,-114.258,-39.551,-25.879,-358.398,0.000
1606131593.537,174.316,-18.555,-9.766,589.844,0.000
1606131593.541,186.523,-23.438,-14.648,743.164,0.000
1606131593.545,-104.004,-40.527,-32.715,-149.414,0.000
1606131593.549,-303.223,-45.898,-46.387,-861.816,0.000
1606131593.553,-158.203,-35.156,-40.527,-483.887,0.000
1606131593.557,145.020,-16.113,-20.508,489.258,0.000
1606131593.561,209.473,-12.695,-15.137,788.086,0.000
1606131593.565,-62.988,-30.273,-28.809,-18.066,0.000
1606131593.568,-297.363,-50.781,-44.434,-821.777,0.000
1606131593.572,-194.336,-39.551,-35.156,-592.285,0.000
1606131593.576,124.512,-21.484,-8.301,394.043,0.000
1606131593.580,236.816,-14.648,-1.465,818.359,0.000
1606131593.584,-12.207,-28.320,-23.438,104.004,0.000
1606131593.588,-277.832,-57.617,-44.922,-766.113,0.000
1606131593.592,-225.586,-51.758,-37.598,-687.012,0.000
1606131593.596,86.426,-25.391,-16.113,285.156,0.000
1606131593.600,231.934,-25.391,-11.230,825.684,0.000
1606131593.604,15.625,-37.109,-27.832,220.703,0.000
1606131593.607,-264.160,-48.828,-41.992,-691.406,0.000
1606131593.611,-248.535,-48.828,-36.621,-753.418,0.000
1606131593.615,58.594,-28.809,-13.184,173.340,0.000
1606131593.619,239.746,-17.578,-12.207,817.871,0.000
1606131593.623,70.312,-27.832,-29.297,354.492,0.000
1606131593.627,-223.633,-45.898,-40.527,-600.098,0.000
1606131593.631,-261.719,-53.223,-39.551,-819.824,0.000
1606131593.635,24.902,-27.832,-14.648,48.828,0.000
1606131593.639,238.281,-5.859,-8.301,792.969,0.000
1606131593.643,104.004,-24.414,-32.715,450.195,0.000
1606131593.647,-204.102,-43.457,-46.387,-520.508,0.000
1606131593.650,-282.715,-53.711,-40.527,-854.980,0.000
1606131593.654,-11.719,-22.949,-26.855,-69.336,0.000
1606131593.658,235.840,4.883,-14.160,754.883,0.000
1606131593.662,152.832,-15.137,-8.789,575.195,0.000
1606131593.666,-158.691,-34.668,-30.762,-400.391,0.000
1606131593.670,-282.715,-42.480,-44.922,-869.629,0.000
1606131593.674,-46.875,-29.785,-22.461,-192.383,0.000
1606131593.678,221.191,-11.230,-9.766,685.547,0.000
1606131593.682,174.316,-20.508,-21.973,642.578,0.000
1606131593.686,-138.184,-41.016,-39.062,-300.293,0.000
1606131593.690,-296.875,-54.688,-43.945,-872.559,0.000
1606131593.693,-101.562,-38.086,-25.391,-324.707,0.000
1606131593.697,181.641,-6.348,-8.301,605.469,0.000
1606131593.701,187.988,-14.160,-11.230,721.680,0.000
1606131593.705,-111.816,-41.992,-33.691,-188.477,0.000
1606131593.709,-305.664,-47.852,-51.270,-871.094,0.000
1606131593.713,-144.043,-33.691,-33.691,-446.777,0.000
1606131593.717,164.062,-16.113,-10.254,518.555,0.000
1606131593.721,216.309,-11.719,-21.484,769.043,0.000
1606131593.725,-70.312,-33.203,-36.133,-71.777,0.000
1606131593.729,-303.223,-55.176,-41.504,-846.680,0.000
1606131593.732,-183.594,-31.250,-27.344,-566.406,0.000
1606131593.736,126.465,-0.977,-8.789,411.133,0.000
1606131593.740,215.820,-11.719,-8.301,793.457,0.000
1606131593.744,-44.434,-42.969,-24.414,40.527,0.000
1606131593.748,-296.387,-60.059,-38.086,-807.617,0.000
1606131593.752,-223.633,-49.316,-33.203,-673.340,0.000
1606131593.756,91.797,-21.973,-13.184,301.270,0.000
1606131593.760,230.469,-12.207,-0.488,813.477,0.000
1606131593.764,4.395,-30.273,-24.414,182.617,0.000
1606131593.768,-271.484,-57.129,-43.457,-727.539,0.000
1606131593.772,-247.559,-58.105,-41.016,-753.906,0.000
1606131593.775,61.035,-25.391,-30.273,191.895,0.000
1606131593.779,234.863,-16.113,-14.648,813.965,0.000
1606131593.783,44.922,-37.109,-23.926,303.711,0.000
1606131593.787,-255.371,-57.617,-48.340,-653.809,0.000
1606131593.791,-277.344,-54.688,-48.828,-820.312,0.000
1606131593.795,21.484,-10.742,-21.484,75.684,0.000
1606131593.799,227.539,15.625,-5.859,794.434,0.000
1606131593.803,78.125,-16.602,-25.879,418.457,0.000
1606131593.807,-227.539,-50.781,-46.875,-556.152,0.000
1606131593.811,-287.598,-57.617,-45.410,-854.004,0.000
1606131593.815,-14.648,-32.715,-30.762,-44.922,0.000
1606131593.818,220.215,-15.625,-18.066,750.488,0.000
1606131593.822,127.441,-23.438,-18.555,531.250,0.000
1606131593.826,-182.129,-47.363,-35.645,-437.012,0.000
1606131593.830,-295.410,-54.688,-42.969,-875.000,0.000
1606131593.834,-53.711,-24.414,-35.645,-173.828,0.000
1606131593.838,212.891,-4.883,-17.578,702.637,0.000
1606131593.842,159.668,-22.461,-12.207,627.930,0.000
1606131593.846,-150.879,-47.852,-35.156,-338.379,0.000
1606131593.850,-290.527,-54.199,-46.387,-886.719,0.000
1606131593.854,-81.055,-38.574,-38.086,-298.828,0.000
1606131593.857,199.707,-19.531,-17.090,624.512,0.000
1606131593.861,192.871,-19.043,-5.371,697.754,0.000
1606131593.865,-118.652,-38.086,-32.715,-240.234,0.000
1606131593.869,-308.105,-47.852,-55.664,-895.996,0.000
1606131593.873,-133.789,-20.996,-35.156,-425.781,0.000
1606131593.877,167.969,16.113,-9.766,537.109,0.000
1606131593.881,205.078,-2.930,-9.766,749.512,0.000
1606131593.885,-86.914,-44.922,-31.250,-115.234,0.000
1606131593.889,-305.176,-60.059,-45.410,-860.352,0.000
1606131593.893,-179.199,-49.316,-36.621,-542.969,0.000
1606131593.897,127.930,-25.879,-9.277,437.500,0.000
1606131593.900,208.984,-13.184,0.488,780.762,0.000
1606131593.904,-54.199,-28.809,-23.926,5.859,0.000
1606131593.908,-299.805,-47.363,-42.480,-812.500,0.000
1606131593.912,-217.285,-42.969,-35.645,-643.555,0.000
1606131593.916,95.703,-16.113,-15.625,339.355,0.000
1606131593.920,222.168,-13.672,-8.301,819.336,0.000
1606131593.924,-9.277,-36.133,-31.250,147.949,0.000
1606131593.928,-282.227,-52.246,-51.758,-746.582,0.000
1606131593.932,-239.258,-42.480,-34.180,-718.750,0.000
1606131593.936,72.754,-3.418,-12.695,236.816,0.000
1606131593.940,231.445,-5.859,-5.371,819.824,0.000
1606131593.943,33.203,-32.227,-21.973,273.926,0.000
1606131593.947,-250.000,-46.875,-35.645,-655.273,0.000
1606131593.951,-252.930,-50.781,-33.203,-777.344,0.000
1606131593.955,48.828,-33.691,-20.508,127.930,0.000
1606131593.959,244.141,-11.719,-14.160,813.477,0.000
1606131593.963,82.031,-23.438,-29.785,394.531,0.000
1606131593.967,-218.750,-44.922,-47.363,-565.430,0.000
1606131593.971,-272.461,-48.340,-46.387,-830.566,0.000
1606131593.975,9.766,-16.602,-20.508,2.441,0.000
1606131593.979,236.328,6.836,-12.695,777.344,0.000
1606131593.982,122.070,-19.043,-14.160,504.883,0.000
1606131593.986,-183.594,-40.527,-28.320,-473.145,0.000
1606131593.990,-278.320,-42.480,-43.457,-866.699,0.000
1606131593.994,-19.531,-22.949,-20.996,-122.559,0.000
1606131593.998,226.562,-12.207,-7.324,718.262,0.000
1606131594.002,142.090,-25.391,-18.066,584.473,0.000
1606131594.006,-163.086,-44.434,-39.062,-376.465,0.000
1606131594.010,-288.086,-54.199,-42.969,-878.906,0.000
1606131594.014,-70.801,-22.949,-25.391,-249.512,0.000
1606131594.018,199.219,0.000,-7.812,650.391,0.000
1606131594.022,168.945,-17.578,-17.578,666.016,0.000
1606131594.025,-136.230,-46.875,-33.203,-269.043,0.000
1606131594.029,-297.363,-60.547,-41.016,-877.930,0.000
1606131594.033,-109.863,-39.062,-31.738,-371.582,0.000
1606131594.037,181.641,-12.207,-9.277,574.707,0.000
1606131594.041,201.660,-9.766,-13.672,743.652,0.000
1606131594.045,-94.727,-33.691,-24.414,-139.648,0.000
1606131594.049,-298.340,-51.270,-26.367,-856.934,0.000
1606131594.053,-151.367,-42.480,-20.020,-491.211,0.000
1606131594.057,150.391,-14.160,-9.277,482.422,0.000
1606131594.061,217.773,-7.324,-6.348,790.527,0.000
1606131594.065,-47.852,-26.367,-22.461,-10.742,0.000
1606131594.068,-285.156,-49.805,-38.086,-817.383,0.000
1606131594.072,-191.895,-43.945,-35.645,-603.516,0.000
1606131594.076,120.605,4.883,-19.531,378.906,0.000
1606131594.080,239.258,9.277,-17.578,810.547,0.000
1606131594.084,-2.441,-32.227,-23.926,105.957,0.000
1606131594.088,-269.531,-58.594,-30.762,-763.184,0.000
1606131594.092,-216.309,-50.293,-42.969,-694.824,0.000
1606131594.096,101.562,-23.438,-29.297,279.785,0.000
1606131594.100,242.676,-8.789,-18.066,797.852,0.000
1606131594.104,32.715,-20.996,-27.832,200.684,0.000
1606131594.107,-239.258,-46.875,-44.434,-680.176,0.000
1606131594.111,-236.328,-45.410,-44.434,-764.160,0.000
1606131594.115,64.941,-4.395,-20.020,155.273,0.000
1606131594.119,244.629,11.719,-1.465,808.105,0.000
1606131594.123,74.707,-16.602,-12.207,356.445,0.000
1606131594.127,-217.285,-47.852,-39.551,-595.703,0.000
1606131594.131,-252.441,-56.641,-46.387,-823.730,0.000
1606131594.135,40.039,-27.344,-23.438,36.621,0.000
1606131594.139,251.953,0.488,-15.137,787.598,0.000
1606131594.143,116.699,-4.395,-26.855,470.215,0.000
1606131594.147,-197.754,-39.551,-41.992,-508.301,0.000
1606131594.150,-281.738,-52.734,-42.969,-862.305,0.000
1606131594.154,-5.371,6.836,-16.602,-69.336,0.000
1606131594.158,230.957,30.762,1.953,754.883,0.000
1606131594.162,140.137,-10.742,-17.090,570.801,0.000
1606131594.166,-165.527,-43.945,-38.574,-394.531,0.000
1606131594.170,-285.156,-61.523,-37.109,-857.910,0.000
1606131594.174,-39.551,-34.180,-26.855,-179.199,0.000
1606131594.178,221.680,-0.977,-14.160,677.246,0.000
1606131594.182,169.434,2.930,-17.090,627.441,0.000
1606131594.186,-135.254,-11.230,-43.457,-302.246,0.000
1606131594.190,-301.270,-25.879,-57.617,-899.902,0.000
1606131594.193,-105.469,-9.766,-45.898,-366.211,0.000
1606131594.197,187.012,23.926,-29.297,572.266,0.000
1606131594.201,197.754,16.602,-29.297,692.383,0.000
1606131594.205,-101.562,-24.414,-59.082,-226.562,0.000
1606131594.209,-288.574,-42.969,-79.102,-908.203,0.000
1606131594.213,-144.531,-10.742,-68.848,-493.164,0.000
1606131594.217,148.926,20.508,-45.410,475.586,0.000
1606131594.221,215.332,-4.883,-37.109,748.047,0.000
1606131594.225,-65.430,-34.668,-54.199,-83.008,0.000
1606131594.229,-291.992,-43.457,-69.824,-857.422,0.000
1606131594.232,-169.922,-33.203,-57.129,-582.520,0.000
1606131594.236,138.184,-11.230,-30.762,396.484,0.000
1606131594.240,230.469,4.395,-35.645,783.203,0.000
1606131594.244,-18.555,-14.160,-56.152,49.805,0.000
1606131594.248,-266.113,-46.387,-66.406,-787.109,0.000
1606131594.252,-196.777,-47.852,-59.082,-664.551,0.000
1606131594.256,112.793,7.812,-36.621,301.270,0.000
1606131594.260,245.117,19.531,-26.367,805.664,0.000
1606131594.264,24.902,-19.043,-43.945,184.570,0.000
1606131594.268,-246.094,-39.551,-61.035,-716.309,0.000
1606131594.272,-228.516,-35.645,-52.734,-748.047,0.000
1606131594.275,71.289,-14.160,-30.762,200.195,0.000
1606131594.279,247.559,-11.230,-22.949,828.613,0.000
1606131594.283,65.918,-40.527,-45.410,320.312,0.000
1606131594.287,-228.516,-61.035,-62.988,-629.395,0.000
1606131594.291,-252.441,-45.410,-48.828,-798.340,0.000
1606131594.295,40.039,-0.977,-23.926,87.891,0.000
1606131594.299,248.535,4.395,-9.766,804.199,0.000
1606131594.303,105.469,-19.531,-19.043,443.359,0.000
1606131594.307,-205.078,-34.180,-41.504,-524.414,0.000
1606131594.311,-274.902,-37.598,-46.875,-842.285,0.000
1606131594.315,1.953,-16.602,-26.855,-35.645,0.000
1606131594.318,233.887,-7.324,-16.602,763.184,0.000
1606131594.322,130.859,-13.672,-26.855,532.715,0.000
1606131594.326,-176.758,-39.551,-43.457,-447.266,0.000
1606131594.330,-284.180,-56.152,-41.992,-884.277,0.000
1606131594.334,-43.945,-44.434,-24.902,-186.523,0.000
1606131594.338,213.379,-18.066,-15.625,686.523,0.000
1606131594.342,168.457,-7.812,-22.949,626.465,0.000
1606131594.346,-144.043,-33.203,-54.199,-339.844,0.000
1606131594.350,-296.875,-63.965,-61.523,-895.996,0.000
1606131594.354,-85.449,-29.297,-35.156,-309.082,0.000
1606131594.357,198.730,26.367,-18.555,618.652,0.000
1606131594.361,197.754,5.371,-30.762,703.613,0.000
1606131594.365,-110.352,-41.016,-48.340,-231.934,0.000
1606131594.369,-293.945,-58.105,-51.758,-893.555,0.000
1606131594.373,-118.652,-34.180,-34.180,-431.152,0.000
1606131594.377,178.711,-14.648,-13.672,533.691,0.000
1606131594.381,218.750,-24.414,-16.113,756.836,0.000
1606131594.385,-71.777,-40.527,-34.668,-104.004,0.000
1606131594.389,-287.598,-55.176,-50.293,-852.539,0.000
1606131594.393,-153.809,-27.344,-47.852,-539.551,0.000
1606131594.397,157.715,14.648,-32.227,448.730,0.000
1606131594.400,241.211,-4.395,-16.602,809.082,0.000
1606131594.404,-21.484,-31.250,-23.438,39.062,0.000
1606131594.408,-264.160,-46.387,-39.551,-791.016,0.000
1606131594.412,-185.059,-39.551,-33.691,-629.883,0.000
1606131594.416,123.535,-23.438,-12.207,348.633,0.000
1606131594.420,253.418,-20.020,-9.766,834.473,0.000
1606131594.424,14.160,-22.949,-23.926,166.016,0.000
1606131594.428,-265.625,-37.598,-35.156,-733.398,0.000
1606131594.432,-226.074,-35.645,-33.691,-713.867,0.000
1606131594.436,76.660,0.977,-16.113,241.211,0.000
1606131594.440,225.098,4.883,-6.348,818.848,0.000
1606131594.443,27.344,-27.832,-24.902,276.367,0.000
1606131594.447,-250.488,-46.387,-43.945,-649.902,0.000
1606131594.451,-252.441,-44.922,-37.109,-778.809,0.000
1606131594.455,42.969,-21.973,-21.484,129.883,0.000
1606131594.459,238.281,-21.484,-13.672,816.406,0.000
1606131594.463,84.961,-38.086,-20.996,400.879,0.000
1606131594.467,-211.426,-43.457,-37.109,-561.523,0.000
1606131594.471,-266.113,-38.574,-40.039,-832.031,0.000
1606131594.475,8.301,-21.484,-19.531,-7.324,0.000
1606131594.479,237.305,-8.301,-4.395,775.879,0.000
1606131594.482,129.883,-17.090,-16.602,522.461,0.000
1606131594.486,-187.012,-49.316,-41.016,-455.566,0.000
1606131594.490,-273.438,-61.523,-41.504,-856.445,0.000
1606131594.494,-6.348,-20.996,-14.648,-112.305,0.000
1606131594.498,230.957,7.812,-3.906,734.375,0.000
1606131594.502,156.738,-11.719,-18.066,609.863,0.000
1606131594.506,-152.344,-46.387,-40.039,-354.492,0.000
1606131594.510,-297.852,-57.617,-42.969,-882.812,0.000
1606131594.514,-82.031,-23.926,-28.809,-265.625,0.000
1606131594.518,194.336,-2.930,-14.648,652.344,0.000
1606131594.522,172.852,-12.695,-15.625,686.035,0.000
1606131594.525,-131.348,-31.738,-36.133,-251.953,0.000
1606131594.529,-303.711,-50.781,-36.621,-872.559,0.000
1606131594.533,-120.605,-28.320,-25.391,-380.371,0.000
1606131594.537,168.945,12.207,-15.137,562.500,0.000
1606131594.541,194.336,-9.277,-19.043,733.398,0.000
1606131594.545,-91.309,-40.527,-38.574,-143.066,0.000
1606131594.549,-292.969,-59.570,-48.828,-857.422,0.000
1606131594.553,-159.180,-57.129,-38.574,-501.465,0.000
1606131594.557,141.602,-21.973,-15.137,475.586,0.000
1606131594.561,214.355,-2.930,-13.184,784.668,0.000
1606131594.565,-55.176,-24.414,-33.691,-22.949,0.000
1606131594.568,-293.945,-52.246,-39.551,-821.777,0.000
1606131594.572,-203.125,-32.227,-35.156,-609.863,0.000
1606131594.576,112.305,7.324,-19.043,370.117,0.000
1606131594.580,225.098,-9.277,-10.254,804.199,0.000
1606131594.584,-15.137,-39.551,-28.809,98.145,0.000
1606131594.588,-272.461,-50.293,-37.598,-769.043,0.000
1606131594.592,-228.027,-34.668,-29.297,-705.078,0.000
1606131594.596,87.402,-12.207,-12.207,261.719,0.000
1606131594.600,235.840,-12.695,-7.324,818.848,0.000
1606131594.604,23.438,-31.250,-20.508,231.934,0.000
1606131594.607,-257.324,-50.293,-36.621,-690.430,0.000
1606131594.611,-251.953,-48.828,-32.227,-772.461,0.000
1606131594.615,53.711,-21.973,-17.090,153.320,0.000
1606131594.619,238.281,-13.672,-18.555,814.941,0.000
1606131594.623,68.848,-27.832,-30.273,370.117,0.000
1606131594.627,-229.004,-52.246,-40.039,-590.332,0.000
1606131594.631,-270.996,-63.965,-41.504,-831.055,0.000
1606131594.635,13.672,-11.719,-26.367,34.180,0.000
1606131594.639,232.422,19.531,-16.113,798.340,0.000
1606131594.643,112.793,-21.973,-22.461,485.352,0.000
1606131594.647,-192.871,-52.734,-39.062,-487.305,0.000
1606131594.650,-276.855,-45.410,-46.875,-843.750,0.000
1606131594.654,-9.277,-17.578,-23.438,-73.730,0.000
1606131594.658,232.910,-5.859,-3.906,744.629,0.000
1606131594.662,140.137,-14.160,-14.160,568.359,0.000
1606131594.666,-175.293,-43.945,-40.527,-400.879,0.000
1606131594.670,-301.758,-62.500,-43.457,-883.789,0.000
1606131594.674,-66.895,-39.062,-25.391,-226.562,0.000
1606131594.678,208.008,-6.836,-16.602,672.363,0.000
1606131594.682,171.387,-14.160,-9.277,657.715,0.000
1606131594.686,-127.930,-42.480,-22.949,-285.645,0.000
1606131594.690,-281.738,-52.246,-39.062,-874.512,0.000
1606131594.693,-88.867,-36.621,-30.273,-339.844,0.000
1606131594.697,194.336,-15.625,-15.625,600.586,0.000
1606131594.701,199.219,-12.695,-12.695,730.957,0.000
1606131594.705,-102.539,-46.875,-37.109,-179.199,0.000
1606131594.709,-301.270,-66.895,-56.641,-875.000,0.000
1606131594.713,-144.531,-39.551,-38.086,-466.797,0.000
1606131594.717,166.016,-12.207,-9.277,510.254,0.000
1606131594.721,222.656,-14.648,-10.742,778.320,0.000
1606131594.725,-64.453,-29.785,-32.715,-58.594,0.000
1606131594.729,-288.086,-55.664,-37.109,-834.473,0.000
1606131594.732,-181.641,-50.781,-33.691,-577.148,0.000
1606131594.736,119.141,-15.137,-26.855,396.973,0.000
1606131594.740,226.562,-8.301,-12.207,807.129,0.000
1606131594.744,-25.391,-34.180,-29.297,76.660,0.000
1606131594.748,-283.203,-54.688,-47.852,-777.344,0.000
1606131594.752,-214.844,-54.199,-42.969,-660.645,0.000
1606131594.756,93.750,-36.133,-21.973,307.129,0.000
1606131594.760,233.398,-21.973,-4.395,831.055,0.000
1606131594.764,20.020,-31.738,-14.160,214.844,0.000
1606131594.768,-259.277,-49.316,-31.250,-702.637,0.000
1606131594.772,-243.164,-38.574,-40.527,-745.605,0.000
1606131594.775,65.918,-7.324,-19.531,195.312,0.000
1606131594.779,241.699,-0.977,-5.859,821.777,0.000
1606131594.783,59.570,-22.461,-18.555,328.613,0.000
1606131594.787,-232.910,-48.340,-38.086,-625.488,0.000
1606131594.791,-263.184,-53.223,-43.457,-816.406,0.000
1606131594.795,28.809,-20.508,-17.578,70.801,0.000
1606131594.799,239.746,6.348,0.977,795.410,0.000
1606131594.803,96.680,-13.184,-14.160,431.641,0.000
1606131594.807,-208.984,-38.086,-36.621,-536.133,0.000
1606131594.811,-279.297,-38.574,-40.039,-842.285,0.000
1606131594.815,-4.395,-12.695,-21.484,-36.133,0.000
1606131594.818,233.398,2.441,-6.836,762.695,0.000
1606131594.822,132.812,-15.625,-20.508,535.645,0.000
1606131594.826,-178.711,-40.039,-45.898,-446.289,0.000
1606131594.830,-288.574,-41.504,-49.316,-883.301,0.000
1606131594.834,-39.551,-24.902,-23.438,-175.781,0.000
1606131594.838,230.469,-19.043,-6.836,697.266,0.000
1606131594.842,177.734,-16.602,-5.859,629.395,0.000
1606131594.846,-134.766,-26.367,-19.043,-327.148,0.000
1606131594.850,-284.180,-41.016,-41.992,-878.906,0.000
1606131594.854,-75.195,-24.414,-32.227,-293.457,0.000
1606131594.857,207.520,-3.418,-4.883,631.836,0.000
1606131594.861,191.895,-18.066,-9.766,706.055,0.000
1606131594.865,-115.723,-38.086,-35.156,-219.238,0.000
1606131594.869,-288.574,-46.875,-53.223,-875.977,0.000
1606131594.873,-108.398,-24.414,-35.645,-413.574,0.000
1606131594.877,188.477,2.930,-0.977,554.688,0.000
1606131594.881,208.984,-10.742,-4.883,768.555,0.000
1606131594.885,-94.727,-37.598,-24.414,-98.633,0.000
1606131594.889,-316.406,-53.223,-29.297,-850.586,0.000
1606131594.893,-188.477,-47.363,-16.602,-544.922,0.000
1606131594.897,125.000,-32.715,2.930,437.988,0.000
1606131594.900,205.078,-28.809,11.230,798.828,0.000
1606131594.904,-59.570,-43.945,-5.371,35.645,0.000
1606131594.908,-305.176,-63.965,-23.438,-794.434,0.000
1606131594.912,-223.145,-61.523,-9.766,-637.207,0.000
1606131594.916,93.750,-33.691,8.789,342.773,0.000
1606131594.920,216.797,-23.438,6.348,814.453,0.000
1606131594.924,-17.578,-45.898,-10.254,154.785,0.000
1606131594.928,-280.762,-60.547,-26.855,-727.539,0.000
1606131594.932,-239.746,-50.781,-24.902,-716.797,0.000
1606131594.936,71.777,-26.855,-1.953,237.305,0.000
1606131594.940,232.910,-20.020,7.324,831.055,0.000
1606131594.943,26.855,-37.598,-14.160,288.086,0.000
1606131594.947,-258.789,-54.688,-26.855,-650.391,0.000
1606131594.951,-264.648,-47.852,-19.531,-777.832,0.000
1606131594.955,22.949,-25.391,-11.719,117.676,0.000
1606131594.959,216.309,-23.926,-10.254,799.316,0.000
1606131594.963,68.359,-34.180,-15.625,401.855,0.000
1606131594.967,-229.980,-52.246,-36.133,-563.965,0.000
1606131594.971,-287.598,-70.312,-35.156,-841.797,0.000
1606131594.975,-11.230,-49.805,-9.277,-10.742,0.000
1606131594.979,216.309,-24.902,-3.906,774.902,0.000
1606131594.982,102.539,-35.645,-10.254,514.648,0.000
1606131594.986,-203.613,-47.363,-25.391,-464.844,0.000
1606131594.990,-299.805,-53.223,-33.691,-868.164,0.000
1606131594.994,-43.457,-32.715,-28.809,-135.742,0.000
1606131594.998,216.797,-12.207,-17.578,724.609,0.000
1606131595.002,149.414,-20.508,-8.301,614.258,0.000
1606131595.006,-161.621,-41.016,-25.879,-355.957,0.000
1606131595.010,-298.340,-59.082,-41.016,-878.906,0.000
1606131595.014,-74.219,-36.133,-26.855,-254.395,0.000
1606131595.018,211.914,-6.836,-1.465,663.086,0.000
1606131595.022,195.801,-11.230,-3.418,697.754,0.000
1606131595.025,-111.328,-39.551,-24.414,-239.746,0.000
1606131595.029,-286.621,-61.523,-35.645,-869.629,0.000
1606131595.033,-111.328,-43.945,-35.156,-383.789,0.000
1606131595.037,176.758,-17.090,-18.555,565.430,0.000
1606131595.041,202.637,-10.742,-14.160,745.117,0.000
1606131595.045,-91.309,-28.320,-32.227,-135.742,0.000
1606131595.049,-303.223,-53.223,-47.852,-864.258,0.000
1606131595.053,-163.086,-35.156,-36.133,-508.789,0.000
1606131595.057,149.414,1.465,-10.254,471.191,0.000
1606131595.061,226.562,-3.418,0.977,788.574,0.000
1606131595.065,-51.758,-35.156,-26.367,-18.555,0.000
1606131595.068,-291.504,-62.500,-62.012,-828.125,0.000
1606131595.072,-192.871,-58.594,-58.105,-616.211,0.000
1606131595.076,121.094,-34.180,-21.973,361.328,0.000
1606131595.080,232.422,-21.973,-10.742,800.781,0.000
1606131595.084,-19.043,-36.133,-28.809,101.074,0.000
1606131595.088,-279.297,-52.246,-42.480,-770.508,0.000
1606131595.092,-222.168,-42.969,-35.156,-695.801,0.000
1606131595.096,84.473,-11.230,-9.277,271.484,0.000
1606131595.100,232.422,2.930,2.441,825.195,0.000
1606131595.104,27.344,-22.949,-14.648,246.582,0.000
1606131595.107,-262.207,-57.617,-37.598,-686.035,0.000
1606131595.111,-263.184,-62.500,-41.992,-771.973,0.000
1606131595.115,48.340,-34.668,-21.973,157.715,0.000
1606131595.119,237.305,-17.578,-5.859,811.523,0.000
1606131595.123,66.406,-19.531,-17.090,362.793,0.000
1606131595.127,-232.910,-41.016,-33.203,-593.750,0.000
1606131595.131,-278.320,-50.293,-23.926,-827.148,0.000
1606131595.135,9.277,-21.484,1.953,34.180,0.000
1606131595.139,231.445,0.977,9.766,780.762,0.000
1606131595.143,102.051,-20.996,4.883,463.379,0.000
1606131595.147,-210.938,-51.270,-35.645,-511.230,0.000
1606131595.150,-295.898,-56.641,-52.734,-874.512,0.000
1606131595.154,-34.668,-22.461,-14.160,-106.445,0.000
1606131595.158,209.961,0.977,-3.418,729.492,0.000
1606131595.162,128.418,-22.461,-15.137,567.871,0.000
1606131595.166,-179.688,-33.203,-33.691,-405.273,0.000
1606131595.170,-303.223,-27.832,-37.598,-880.859,0.000
1606131595.174,-75.684,-17.578,-20.996,-218.262,0.000
1606131595.178,193.848,-10.742,0.488,674.316,0.000
1606131595.182,164.062,-25.391,-6.836,663.574,0.000
1606131595.186,-133.789,-40.039,-34.668,-280.273,0.000
1606131595.190,-289.551,-44.434,-45.410,-879.883,0.000
1606131595.193,-97.656,-12.207,-37.598,-359.375,0.000
1606131595.197,189.453,28.320,-19.531,577.637,0.000
1606131595.201,200.684,4.883,-20.020,716.309,0.000
1606131595.205,-100.098,-36.133,-41.504,-180.176,0.000
1606131595.209,-292.969,-43.945,-50.293,-865.723,0.000
1606131595.213,-126.465,-26.367,-30.762,-454.102,0.000
1606131595.217,172.852,-11.719,-10.742,512.695,0.000
1606131595.221,215.332,-12.207,-14.160,771.484,0.000
1606131595.225,-70.312,-34.668,-35.156,-62.988,0.000
1606131595.229,-295.898,-50.781,-49.316,-838.867,0.000
1606131595.232,-178.711,-35.645,-27.832,-567.383,0.000
1606131595.236,122.070,-16.113,-9.766,393.555,0.000
1606131595.240,210.938,-17.578,-21.484,778.809,0.000
1606131595.244,-27.832,-33.203,-38.086,63.477,0.000
1606131595.248,-280.762,-48.828,-48.828,-787.109,0.000
1606131595.252,-216.797,-41.504,-39.551,-673.828,0.000
1606131595.256,99.121,-14.648,-15.625,306.641,0.000
1606131595.260,232.910,-8.789,-7.324,826.172,0.000
1606131595.264,7.324,-35.156,-33.691,197.266,0.000
1606131595.268,-263.184,-52.246,-53.711,-711.914,0.000
1606131595.272,-244.629,-36.621,-49.805,-752.930,0.000
1606131595.275,59.570,-17.578,-28.809,182.617,0.000
1606131595.279,235.840,-3.418,-11.230,813.477,0.000
1606131595.283,46.387,-18.555,-20.508,317.383,0.000
1606131595.287,-249.023,-46.875,-39.062,-632.324,0.000
1606131595.291,-272.949,-51.270,-42.480,-811.035,0.000
1606131595.295,18.555,-13.672,-25.879,69.336,0.000
1606131595.299,227.539,6.348,-8.301,796.875,0.000
1606131595.303,84.473,-17.090,-14.648,446.777,0.000
1606131595.307,-228.027,-40.527,-43.945,-538.574,0.000
1606131595.311,-292.969,-44.922,-44.922,-856.934,0.000
1606131595.315,-17.578,-23.926,-23.438,-46.875,0.000
1606131595.318,214.844,-5.371,-9.766,757.324,0.000
1606131595.322,120.605,-19.531,-7.812,545.410,0.000
1606131595.326,-191.895,-46.387,-31.738,-436.035,0.000
1606131595.330,-299.805,-42.969,-53.711,-886.719,0.000
1606131595.334,-39.551,-14.160,-38.086,-178.711,0.000
1606131595.338,224.609,0.000,-10.742,706.055,0.000
1606131595.342,162.109,-9.277,-9.766,635.254,0.000
1606131595.346,-155.762,-33.691,-22.949,-329.590,0.000
1606131595.350,-302.246,-48.340,-27.344,-882.324,0.000
1606131595.354,-92.773,-38.086,-17.090,-300.293,0.000
1606131595.357,193.848,-13.184,-2.441,627.441,0.000
1606131595.361,181.641,-7.812,-4.395,700.684,0.000
1606131595.365,-133.789,-34.180,-23.926,-225.586,0.000
1606131595.369,-312.500,-54.688,-33.203,-881.348,0.000
1606131595.373,-138.184,-36.621,-29.297,-424.316,0.000
1606131595.377,159.180,-15.625,-16.602,537.598,0.000
1606131595.381,199.707,-13.184,-2.441,752.441,0.000
1606131595.385,-83.984,-30.273,-15.137,-101.562,0.000
1606131595.389,-296.875,-50.781,-31.738,-846.680,0.000
1606131595.393,-165.039,-41.504,-29.297,-538.574,0.000
1606131595.397,143.066,-19.531,-18.555,439.941,0.000
1606131595.400,227.051,-13.672,-8.301,796.387,0.000
1606131595.404,-36.621,-32.715,-21.973,25.391,0.000
1606131595.408,-272.949,-45.410,-33.691,-791.016,0.000
1606131595.412,-187.500,-38.086,-25.879,-619.141,0.000
1606131595.416,114.746,-19.043,-22.461,342.773,0.000
1606131595.420,240.723,-11.230,-27.832,812.500,0.000
1606131595.424,7.812,-33.691,-34.180,147.461,0.000
1606131595.428,-262.695,-50.781,-39.551,-750.977,0.000
1606131595.432,-225.586,-41.016,-37.598,-736.328,0.000
1606131595.436,80.078,-15.625,-28.320,219.727,0.000
1606131595.440,245.605,-4.883,-20.996,810.059,0.000
1606131595.443,51.758,-27.344,-30.273,277.832,0.000
1606131595.447,-236.816,-46.387,-44.434,-650.879,0.000
1606131595.451,-249.023,-47.852,-45.898,-784.668,0.000
1606131595.455,42.969,-34.180,-31.738,119.141,0.000
1606131595.459,241.211,-19.531,-13.184,808.105,0.000
1606131595.463,84.473,-33.691,-32.227,397.949,0.000
1606131595.467,-222.656,-49.316,-53.223,-569.824,0.000
1606131595.471,-280.762,-55.176,-47.363,-840.820,0.000
1606131595.475,-1.953,-27.832,-28.320,-7.812,0.000
1606131595.479,225.098,-2.930,-15.137,767.578,0.000
1606131595.482,111.328,-24.414,-34.180,503.906,0.000
1606131595.486,-198.730,-49.316,-55.176,-469.238,0.000
1606131595.490,-291.504,-52.246,-58.594,-864.746,0.000
1606131595.494,-27.832,-28.320,-29.297,-119.629,0.000
1606131595.498,228.027,-5.859,4.395,735.840,0.000
1606131595.502,147.949,-15.137,-9.277,608.398,0.000
1606131595.506,-170.898,-38.086,-42.969,-373.047,0.000
1606131595.510,-314.941,-48.340,-54.199,-890.137,0.000
1606131595.514,-98.633,-24.414,-38.086,-262.695,0.000
1606131595.518,176.270,-7.812,-15.625,635.742,0.000
1606131595.522,156.738,-19.531,-13.184,665.039,0.000
1606131595.525,-145.020,-35.156,-35.645,-265.137,0.000
1606131595.529,-315.430,-47.852,-43.945,-881.836,0.000
1606131595.533,-125.000,-41.504,-26.855,-385.254,0.000
1606131595.537,174.805,-11.719,-8.301,565.430,0.000
1606131595.541,190.430,-8.789,-14.160,738.281,0.000
1606131595.545,-103.516,-47.363,-39.551,-141.602,0.000
1606131595.549,-288.086,-53.711,-52.734,-849.609,0.000
1606131595.553,-148.926,-26.855,-50.781,-498.535,0.000
1606131595.557,141.113,-6.348,-34.180,449.707,0.000
1606131595.561,216.309,3.906,-32.715,758.789,0.000
1606131595.565,-52.734,-9.766,-57.129,-37.109,0.000
1606131595.568,-287.109,-31.250,-62.012,-844.238,0.000
1606131595.572,-186.035,-19.531,-54.199,-631.348,0.000
1606131595.576,128.418,21.484,-39.062,344.727,0.000
1606131595.580,237.305,25.879,-40.527,782.227,0.000
1606131595.584,-12.695,-1.465,-60.059,82.520,0.000
1606131595.588,-276.367,-33.691,-62.012,-785.645,0.000
1606131595.592,-220.215,-29.297,-59.082,-715.332,0.000
1606131595.596,93.262,8.789,-42.969,252.441,0.000
1606131595.600,239.258,11.230,-27.344,805.176,0.000
1606131595.604,39.551,-22.949,-38.086,228.516,0.000
1606131595.607,-235.840,-49.805,-57.129,-688.477,0.000
1606131595.611,-231.934,-36.621,-61.035,-775.391,0.000
1606131595.615,71.777,4.395,-37.109,159.180,0.000
1606131595.619,267.578,9.766,-15.137,827.637,0.000
1606131595.623,100.586,-18.066,-24.414,371.582,0.000
1606131595.627,-218.750,-44.434,-47.852,-589.355,0.000
1606131595.631,-258.301,-43.457,-50.293,-815.918,0.000
1606131595.635,31.250,-19.531,-37.109,41.992,0.000
1606131595.639,239.746,-13.184,-26.855,794.434,0.000
1606131595.643,109.375,-21.973,-32.715,479.004,0.000
1606131595.647,-197.754,-50.293,-53.223,-497.559,0.000
1606131595.650,-281.738,-52.734,-62.500,-852.539,0.000
1606131595.654,-15.625,-14.160,-41.992,-71.289,0.000
1606131595.658,229.980,2.930,-18.555,761.719,0.000
1606131595.662,142.578,-22.461,-18.066,579.102,0.000
1606131595.666,-161.621,-49.805,-28.809,-394.531,0.000
1606131595.670,-277.832,-45.898,-34.180,-858.398,0.000
1606131595.674,-49.316,-23.438,-24.414,-193.848,0.000
1606131595.678,220.703,-4.883,-10.254,688.477,0.000
1606131595.682,181.152,-9.766,-18.066,662.598,0.000
1606131595.686,-133.301,-30.273,-43.457,-292.969,0.000
1606131595.690,-295.410,-47.852,-56.152,-884.766,0.000
1606131595.693,-98.633,-31.738,-40.527,-333.496,0.000
1606131595.697,190.430,-15.137,-17.578,604.492,0.000
1606131595.701,199.219,-16.113,-13.672,725.586,0.000
1606131595.705,-97.656,-36.621,-31.250,-183.594,0.000
1606131595.709,-291.992,-52.246,-40.039,-873.047,0.000
1606131595.713,-131.348,-37.109,-30.273,-457.520,0.000
1606131595.717,167.969,-21.973,-15.137,510.742,0.000
1606131595.721,215.332,-13.672,-17.090,775.879,0.000
1606131595.725,-62.988,-27.832,-36.621,-61.035,0.000
1606131595.729,-282.715,-45.898,-51.270,-838.379,0.000
1606131595.732,-166.016,-32.715,-34.668,-563.965,0.000
1606131595.736,136.719,-6.836,-13.672,416.016,0.000
1606131595.740,235.352,-9.766,-8.301,810.059,0.000
1606131595.744,-13.672,-33.203,-17.090,76.660,0.000
1606131595.748,-269.531,-48.828,-34.180,-771.484,0.000
1606131595.752,-206.543,-47.852,-40.527,-659.180,0.000
1606131595.756,105.469,-16.602,-25.879,309.082,0.000
1606131595.760,247.070,-4.395,-6.836,826.172,0.000
1606131595.764,28.809,-26.367,-15.137,211.914,0.000
1606131595.768,-249.023,-46.875,-39.551,-695.312,0.000
1606131595.772,-229.004,-44.922,-36.133,-732.910,0.000
1606131595.775,81.055,-22.461,-12.207,207.520,0.000
1606131595.779,253.418,-6.348,-1.465,833.496,0.000
1606131595.783,63.965,-14.160,-15.625,327.148,0.000
1606131595.787,-235.840,-39.062,-43.945,-628.906,0.000
1606131595.791,-260.254,-51.270,-47.852,-798.828,0.000
1606131595.795,38.086,-33.203,-24.414,91.797,0.000
1606131595.799,243.652,-18.066,-15.137,802.734,0.000
1606131595.803,103.516,-26.367,-29.785,432.129,0.000
1606131595.807,-202.637,-41.992,-45.410,-542.480,0.000
1606131595.811,-277.832,-43.457,-46.387,-858.398,0.000
1606131595.815,-5.859,-28.320,-27.832,-47.363,0.000
1606131595.818,232.422,-7.812,-7.324,760.254,0.000
1606131595.822,136.230,-8.789,-20.020,532.715,0.000
1606131595.826,-178.223,-40.039,-37.109,-442.383,0.000
1606131595.830,-295.410,-50.293,-38.086,-877.441,0.000
1606131595.834,-50.781,-30.762,-27.832,-179.199,0.000
1606131595.838,211.914,-9.766,-7.812,696.777,0.000
1606131595.842,157.227,-11.719,-6.348,634.766,0.000
1606131595.846,-152.832,-42.480,-33.203,-323.730,0.000
1606131595.850,-297.852,-57.129,-43.945,-883.789,0.000
1606131595.854,-83.496,-30.762,-19.043,-299.805,0.000
1606131595.857,202.148,-8.789,4.395,634.766,0.000
1606131595.861,197.266,-11.230,-1.953,714.844,0.000
1606131595.865,-107.422,-31.250,-28.320,-217.773,0.000
1606131595.869,-287.598,-45.898,-48.828,-875.488,0.000
1606131595.873,-121.094,-37.109,-35.156,-410.156,0.000
1606131595.877,161.133,-20.508,-11.230,545.410,0.000
1606131595.881,195.801,-13.672,-7.324,754.883,0.000
1606131595.885,-87.891,-36.621,-23.926,-105.957,0.000
1606131595.889,-301.758,-51.758,-41.992,-852.051,0.000
1606131595.893,-178.223,-48.828,-32.715,-538.574,0.000
1606131595.897,130.371,-27.344,-7.812,434.082,0.000
1606131595.900,219.238,-6.836,0.000,786.621,0.000
1606131595.904,-46.875,-31.738,-13.672,12.207,0.000
1606131595.908,-289.062,-53.711,-35.645,-813.477,0.000
1606131595.912,-201.660,-42.480,-40.527,-640.137,0.000
1606131595.916,115.723,-21.973,-15.137,339.355,0.000
1606131595.920,239.258,-9.277,-1.953,816.895,0.000
1606131595.924,8.301,-12.207,-16.602,157.227,0.000
1606131595.928,-258.301,-36.133,-39.551,-735.352,0.000
1606131595.932,-226.562,-44.434,-36.133,-716.797,0.000
1606131595.936,80.566,-22.461,-14.160,245.605,0.000
1606131595.940,233.887,-16.113,-3.418,823.242,0.000
1606131595.943,30.273,-29.785,-20.508,271.973,0.000
1606131595.947,-252.441,-41.992,-40.039,-660.156,0.000
1606131595.951,-258.301,-46.875,-31.250,-782.715,0.000
1606131595.955,38.086,-19.043,-15.137,120.117,0.000
1606131595.959,227.539,2.930,-11.719,793.945,0.000
1606131595.963,75.195,-20.020,-22.949,383.301,0.000
1606131595.967,-225.098,-52.246,-45.898,-582.031,0.000
1606131595.971,-276.855,-53.223,-40.039,-842.773,0.000
1606131595.975,16.602,-19.531,-13.672,3.906,0.000
1606131595.979,244.629,-4.395,-1.465,776.855,0.000
1606131595.982,129.883,-19.043,-7.812,504.883,0.000
1606131595.986,-188.965,-38.574,-40.039,-478.516,0.000
1606131595.990,-289.551,-42.969,-43.457,-877.441,0.000
1606131595.994,-33.691,-19.043,-29.785,-135.254,0.000
1606131595.998,216.797,-7.812,-23.926,711.426,0.000
1606131596.002,149.414,-26.855,-21.973,585.449,0.000
1606131596.006,-161.133,-49.316,-42.969,-378.906,0.000
1606131596.010,-291.504,-47.852,-51.758,-885.742,0.000
1606131596.014,-64.453,-29.297,-28.320,-256.836,0.000
1606131596.018,208.984,-10.254,-5.371,653.809,0.000
1606131596.022,180.176,-12.207,-15.137,674.316,0.000
1606131596.025,-129.395,-32.227,-41.992,-266.602,0.000
1606131596.029,-300.781,-49.316,-39.062,-880.371,0.000
1606131596.033,-119.141,-39.062,-30.273,-379.883,0.000
1606131596.037,173.828,-4.395,-19.043,567.871,0.000
1606131596.041,203.125,-1.465,-13.672,741.211,0.000
1606131596.045,-89.844,-34.180,-36.621,-148.926,0.000
1606131596.049,-292.480,-49.316,-57.617,-864.746,0.000
1606131596.053,-142.090,-30.762,-36.621,-487.793,0.000
1606131596.057,163.574,-9.766,1.465,489.746,0.000
1606131596.061,221.191,-8.301,-3.906,782.227,0.000
1606131596.065,-54.199,-30.762,-27.832,-22.949,0.000
1606131596.068,-282.715,-50.781,-38.574,-812.012,0.000
1606131596.072,-181.641,-30.762,-31.738,-584.473,0.000
1606131596.076,131.348,0.488,-15.625,398.438,0.000
1606131596.080,234.863,-15.625,-18.066,816.406,0.000
1606131596.084,-7.812,-38.574,-34.180,104.004,0.000
1606131596.088,-268.555,-54.199,-47.852,-763.184,0.000
1606131596.092,-219.238,-40.039,-38.574,-691.406,0.000
1606131596.096,90.332,-10.254,-16.113,276.855,0.000
1606131596.100,236.328,-11.719,-12.207,818.359,0.000
1606131596.104,24.414,-24.414,-25.879,225.098,0.000
1606131596.107,-254.395,-43.457,-43.457,-689.453,0.000
1606131596.111,-242.676,-46.387,-40.039,-764.160,0.000
1606131596.115,70.801,-18.555,-14.160,182.617,0.000
1606131596.119,244.141,-4.395,-14.160,808.105,0.000
1606131596.123,71.777,-20.020,-30.762,335.449,0.000
1606131596.127,-213.379,-41.504,-47.363,-586.426,0.000
1606131596.131,-261.719,-50.293,-44.922,-817.383,0.000
1606131596.135,18.555,-15.137,-22.461,33.203,0.000
1606131596.139,232.422,11.719,-11.230,779.297,0.000
1606131596.143,103.027,-23.926,-16.602,461.426,0.000
1606131596.147,-205.566,-46.387,-32.715,-507.812,0.000
1606131596.150,-281.250,-44.922,-39.062,-853.516,0.000
1606131596.154,-10.254,-34.180,-25.391,-78.125,0.000
1606131596.158,234.863,-14.648,-6.348,752.441,0.000
1606131596.162,133.789,-18.066,-11.230,568.848,0.000
1606131596.166,-180.176,-38.574,-35.156,-405.762,0.000
1606131596.170,-291.016,-45.410,-41.504,-872.559,0.000
1606131596.174,-61.523,-10.742,-23.926,-213.379,0.000
1606131596.178,206.055,14.648,-8.789,671.875,0.000
1606131596.182,169.434,-10.254,-13.672,644.531,0.000
1606131596.186,-142.578,-39.551,-30.273,-306.641,0.000
1606131596.190,-300.293,-54.688,-47.852,-891.113,0.000
1606131596.193,-101.074,-34.668,-30.762,-344.238,0.000
1606131596.197,187.012,-4.395,-1.953,596.191,0.000
1606131596.201,201.172,-2.441,-1.465,721.680,0.000
1606131596.205,-99.609,-36.621,-24.414,-182.617,0.000
1606131596.209,-302.246,-60.059,-44.922,-878.906,0.000
1606131596.213,-140.625,-32.227,-30.762,-461.914,0.000
1606131596.217,157.715,-2.930,-9.277,516.602,0.000
1606131596.221,204.590,-21.484,-11.230,771.973,0.000
1606131596.225,-70.312,-50.781,-36.133,-65.430,0.000
1606131596.229,-291.992,-65.430,-56.641,-839.355,0.000
1606131596.232,-179.199,-37.109,-40.527,-561.523,0.000
1606131596.236,129.883,3.906,-12.695,429.688,0.000
1606131596.240,226.562,-8.789,-4.395,817.383,0.000
1606131596.244,-29.785,-42.480,-29.785,67.383,0.000
1606131596.248,-284.180,-59.082,-47.852,-782.227,0.000
1606131596.252,-211.426,-43.945,-32.227,-651.367,0.000
1606131596.256,103.516,-16.602,-20.508,318.848,0.000
1606131596.260,245.117,-8.301,-15.137,825.195,0.000
1606131596.264,25.391,-22.461,-28.809,196.289,0.000
1606131596.268,-249.512,-45.410,-44.434,-711.914,0.000
1606131596.272,-227.051,-45.410,-31.738,-736.816,0.000
1606131596.275,77.148,-14.160,-5.371,208.496,0.000
1606131596.279,250.977,-3.418,3.418,830.566,0.000
1606131596.283,55.664,-22.949,-19.043,323.242,0.000
1606131596.287,-247.070,-48.828,-37.598,-621.094,0.000
1606131596.291,-263.672,-43.945,-28.809,-790.527,0.000
1606131596.295,30.762,-16.113,-10.742,96.191,0.000
1606131596.299,228.027,-15.137,-12.207,805.176,0.000
1606131596.303,83.008,-33.691,-27.344,417.969,0.000
1606131596.307,-217.773,-48.828,-31.250,-551.270,0.000
1606131596.311,-281.738,-61.523,-23.438,-844.727,0.000
1606131596.315,-13.672,-33.691,-17.578,-43.945,0.000
1606131596.318,211.426,10.254,-7.812,742.188,0.000
1606131596.322,110.840,-12.207,-8.789,522.461,0.000
1606131596.326,-193.848,-40.527,-37.598,-449.707,0.000
1606131596.330,-301.270,-48.340,-46.387,-883.301,0.000
1606131596.334,-50.781,-32.715,-20.020,-169.434,0.000
1606131596.338,213.867,-8.789,-4.883,706.543,0.000
1606131596.342,151.367,-21.484,-14.648,627.930,0.000
1606131596.346,-158.691,-43.457,-32.227,-334.473,0.000
1606131596.350,-302.734,-49.316,-44.434,-888.184,0.000
1606131596.354,-87.402,-36.133,-34.668,-291.992,0.000
1606131596.357,200.684,-12.207,-18.066,636.230,0.000
1606131596.361,197.266,-8.789,-17.090,703.125,0.000
1606131596.365,-106.934,-27.832,-37.109,-222.168,0.000
1606131596.369,-289.551,-40.527,-49.805,-876.465,0.000
1606131596.373,-118.164,-22.461,-37.109,-418.945,0.000
1606131596.377,178.711,1.953,-18.066,546.387,0.000
1606131596.381,216.309,-10.254,-10.254,766.602,0.000
1606131596.385,-78.125,-39.551,-23.926,-104.980,0.000
1606131596.389,-292.480,-46.875,-40.527,-851.562,0.000
1606131596.393,-156.738,-37.109,-40.527,-524.414,0.000
1606131596.397,144.043,-24.902,-23.926,452.637,0.000
1606131596.400,208.984,-22.949,-12.207,789.551,0.000
1606131596.404,-56.152,-33.203,-27.832,17.090,0.000
1606131596.408,-296.387,-53.711,-45.410,-805.664,0.000
1606131596.412,-211.914,-55.176,-39.062,-644.043,0.000
1606131596.416,101.562,-7.324,-18.066,339.844,0.000
1606131596.420,231.445,13.184,-10.254,820.312,0.000
1606131596.424,5.371,-18.066,-21.484,146.973,0.000
1606131596.428,-254.395,-41.992,-39.551,-734.863,0.000
1606131596.432,-213.867,-41.504,-33.691,-707.520,0.000
1606131596.436,88.867,-20.020,-11.719,248.047,0.000
1606131596.440,239.258,-16.602,-13.672,826.172,0.000
1606131596.443,36.133,-31.250,-28.320,269.531,0.000
1606131596.447,-253.418,-46.387,-48.340,-664.551,0.000
1606131596.451,-265.137,-46.387,-56.641,-791.016,0.000
1606131596.455,36.133,-6.348,-29.297,118.164,0.000
1606131596.459,229.004,-2.930,-8.301,802.734,0.000
1606131596.463,61.523,-42.480,-30.273,376.465,0.000
1606131596.467,-232.422,-53.711,-50.781,-585.938,0.000
1606131596.471,-274.414,-45.410,-44.434,-842.285,0.000
1606131596.475,8.301,-29.785,-25.879,2.441,0.000
1606131596.479,233.398,-16.602,-11.230,781.738,0.000
1606131596.482,123.047,-19.043,-13.184,506.836,0.000
1606131596.486,-181.641,-40.039,-31.738,-473.633,0.000
1606131596.490,-281.738,-52.246,-48.340,-867.676,0.000
1606131596.494,-26.855,-30.273,-31.250,-123.047,0.000
1606131596.498,226.562,-13.672,-7.812,725.586,0.000
1606131596.502,152.344,-29.785,-23.926,594.727,0.000
1606131596.506,-163.574,-60.547,-49.805,-380.371,0.000
1606131596.510,-299.316,-68.359,-51.758,-896.484,0.000
1606131596.514,-78.125,-21.484,-33.203,-256.836,0.000
1606131596.518,189.941,7.324,-10.254,650.391,0.000
1606131596.522,166.992,-24.414,-14.160,668.945,0.000
1606131596.525,-132.812,-50.781,-27.344,-267.090,0.000
1606131596.529,-302.246,-57.617,-37.109,-884.277,0.000
1606131596.533,-118.164,-48.828,-31.738,-378.418,0.000
1606131596.537,173.828,-26.367,-8.301,567.871,0.000
1606131596.541,198.242,-21.973,-8.789,730.957,0.000
1606131596.545,-96.191,-40.039,-35.156,-154.785,0.000
1606131596.549,-304.688,-63.965,-56.641,-869.141,0.000
1606131596.553,-154.785,-50.293,-40.039,-490.723,0.000
1606131596.557,150.879,-11.230,-16.113,480.957,0.000
1606131596.561,213.379,-15.137,-13.672,776.367,0.000
1606131596.565,-55.176,-43.457,-30.762,-29.297,0.000
1606131596.568,-291.016,-58.105,-45.410,-826.172,0.000
1606131596.572,-190.430,-46.875,-34.668,-597.656,0.000
1606131596.576,126.953,-23.438,-21.484,381.836,0.000
1606131596.580,238.281,-13.184,-13.672,813.477,0.000
1606131596.584,-15.137,-29.785,-32.715,103.027,0.000
1606131596.588,-282.715,-52.246,-53.711,-771.484,0.000
1606131596.592,-233.398,-55.176,-48.340,-695.801,0.000
1606131596.596,79.102,-18.555,-20.996,278.320,0.000
1606131596.600,227.051,-0.488,-10.742,822.754,0.000
1606131596.604,11.719,-31.250,-33.691,221.191,0.000
1606131596.607,-263.672,-57.617,-42.480,-691.895,0.000
1606131596.611,-254.395,-56.641,-34.180,-760.254,0.000
1606131596.615,43.945,-34.180,-18.066,159.668,0.000
1606131596.619,221.191,-24.902,-18.066,800.293,0.000
1606131596.623,52.734,-36.133,-39.551,343.750,0.000
1606131596.627,-246.582,-62.988,-48.340,-607.910,0.000
1606131596.631,-297.363,-70.801,-37.109,-829.590,0.000
1606131596.635,-0.977,-40.527,-13.672,43.945,0.000
1606131596.639,218.262,-26.367,-9.766,790.039,0.000
1606131596.643,80.566,-39.551,-32.715,454.102,0.000
1606131596.647,-223.145,-58.594,-42.969,-521.973,0.000
1606131596.650,-303.223,-69.336,-37.598,-871.582,0.000
1606131596.654,-35.156,-28.809,-24.902,-81.543,0.000
1606131596.658,211.914,-3.418,-10.742,747.559,0.000
1606131596.662,123.535,-34.180,-13.184,556.641,0.000
1606131596.666,-185.547,-56.152,-27.832,-416.504,0.000
1606131596.670,-308.105,-51.270,-37.109,-881.836,0.000
1606131596.674,-70.312,-27.344,-26.855,-214.844,0.000
1606131596.678,207.031,-7.812,-7.812,676.758,0.000
1606131596.682,163.574,-16.113,-9.766,652.832,0.000
1606131596.686,-146.973,-36.133,-41.992,-300.293,0.000
1606131596.690,-302.246,-54.199,-53.711,-884.766,0.000
1606131596.693,-105.957,-41.016,-36.133,-339.355,0.000
1606131596.697,183.594,-8.789,-22.461,599.609,0.000
1606131596.701,190.918,-21.484,-21.484,712.891,0.000
1606131596.705,-111.328,-48.828,-37.598,-196.289,0.000
1606131596.709,-302.246,-58.105,-48.828,-875.977,0.000
1606131596.713,-140.137,-49.316,-37.598,-451.660,0.000
1606131596.717,165.527,-18.066,-4.395,528.320,0.000
1606131596.721,219.727,-3.418,-0.488,778.809,0.000
1606131596.725,-65.918,-29.297,-38.086,-69.336,0.000
1606131596.729,-290.039,-46.875,-47.852,-839.844,0.000
1606131596.732,-169.922,-32.227,-32.227,-562.500,0.000
1606131596.736,137.695,-6.836,-21.973,417.480,0.000
1606131596.740,227.539,-14.160,-20.508,800.293,0.000
1606131596.744,-30.273,-45.898,-34.180,50.293,0.000
1606131596.748,-279.785,-65.918,-49.316,-792.969,0.000
1606131596.752,-203.125,-55.176,-36.621,-657.715,0.000
1606131596.756,116.699,-19.531,-4.395,323.730,0.000
1606131596.760,249.023,0.488,0.977,827.637,0.000
1606131596.764,17.090,-15.137,-16.113,192.383,0.000
1606131596.768,-257.324,-42.969,-34.668,-707.031,0.000
1606131596.772,-228.027,-33.691,-36.133,-719.727,0.000
1606131596.775,80.078,-3.906,-13.184,224.121,0.000
1606131596.779,246.582,-1.953,-6.836,834.961,0.000
1606131596.783,58.105,-24.414,-21.973,320.801,0.000
1606131596.787,-238.281,-50.293,-43.457,-637.695,0.000
1606131596.791,-259.766,-48.828,-43.457,-807.129,0.000
1606131596.795,40.039,-5.371,-19.043,96.191,0.000
1606131596.799,245.605,17.578,-11.719,811.035,0.000
1606131596.803,95.703,-21.973,-22.461,427.246,0.000
1606131596.807,-218.750,-59.082,-47.363,-554.199,0.000
1606131596.811,-280.273,-58.594,-56.152,-854.004,0.000
1606131596.815,-1.953,-28.320,-30.762,-33.691,0.000
1606131596.818,219.238,-13.672,-7.324,754.395,0.000
1606131596.822,118.164,-22.949,-9.766,528.320,0.000
1606131596.826,-186.523,-42.480,-39.062,-445.312,0.000
1606131596.830,-300.781,-54.199,-49.316,-887.207,0.000
1606131596.834,-55.176,-25.391,-23.438,-171.387,0.000
1606131596.838,204.102,-5.371,-8.301,698.730,0.000
1606131596.842,147.461,-22.949,-18.066,612.793,0.000
1606131596.846,-158.203,-50.781,-35.645,-344.727,0.000
1606131596.850,-303.223,-55.664,-48.828,-886.230,0.000
1606131596.854,-89.844,-34.180,-36.133,-294.434,0.000
1606131596.857,186.523,-17.090,-14.160,627.930,0.000
1606131596.861,179.199,-14.648,-14.160,700.195,0.000
1606131596.865,-121.582,-38.574,-29.785,-226.562,0.000
1606131596.869,-305.664,-53.711,-31.250,-876.465,0.000
1606131596.873,-131.348,-25.391,-12.207,-405.762,0.000
1606131596.877,167.969,15.625,-2.441,554.199,0.000
1606131596.881,204.590,3.418,-7.812,758.301,0.000
1606131596.885,-91.309,-38.086,-35.156,-123.535,0.000
1606131596.889,-302.734,-51.758,-53.223,-865.234,0.000
1606131596.893,-165.527,-45.898,-34.180,-528.809,0.000
1606131596.897,140.625,-26.855,-2.930,453.125,0.000
1606131596.900,211.914,-20.020,-5.859,792.480,0.000
1606131596.904,-58.105,-46.875,-37.598,0.977,0.000
1606131596.908,-293.457,-64.941,-49.316,-817.871,0.000
1606131596.912,-201.660,-42.969,-28.320,-623.535,0.000
1606131596.916,112.305,-7.812,-6.348,363.770,0.000
1606131596.920,228.027,2.441,-11.719,822.266,0.000
1606131596.924,-9.766,-31.250,-28.320,145.508,0.000
1606131596.928,-273.438,-61.035,-38.574,-733.887,0.000
1606131596.932,-233.398,-50.781,-25.879,-700.195,0.000
1606131596.936,79.102,-6.836,-2.441,256.348,0.000
1606131596.940,239.258,2.441,0.000,836.426,0.000
1606131596.943,36.621,-26.367,-21.484,274.902,0.000
1606131596.947,-248.535,-49.316,-44.434,-663.574,0.000
1606131596.951,-247.070,-44.922,-41.504,-772.949,0.000
1606131596.955,55.176,-17.578,-17.578,146.484,0.000
1606131596.959,241.211,-11.230,-1.953,823.242,0.000
1606131596.963,74.219,-31.738,-20.996,392.090,0.000
1606131596.967,-223.633,-52.734,-45.898,-567.383,0.000
1606131596.971,-267.578,-57.129,-37.109,-818.848,0.000
1606131596.975,11.719,-24.414,-19.043,14.648,0.000
1606131596.979,231.445,2.441,-9.277,773.926,0.000
1606131596.982,116.211,-13.184,-17.090,491.699,0.000
1606131596.986,-193.359,-39.551,-42.480,-481.445,0.000
1606131596.990,-286.621,-44.434,-42.480,-865.723,0.000
1606131596.994,-29.785,-23.438,-16.113,-117.188,0.000
1606131596.998,221.680,-7.324,-5.859,725.586,0.000
1606131597.002,145.508,-13.184,-16.113,586.914,0.000
1606131597.006,-161.133,-34.668,-33.691,-381.348,0.000
1606131597.010,-283.691,-45.898,-34.180,-879.395,0.000
1606131597.014,-60.547,-12.207,-19.043,-237.793,0.000
1606131597.018,204.590,19.043,-9.277,660.645,0.000
1606131597.022,169.922,-9.277,-17.090,662.598,0.000
1606131597.025,-138.184,-35.156,-39.551,-276.367,0.000
1606131597.029,-303.711,-40.527,-46.387,-876.465,0.000
1606131597.033,-115.723,-31.738,-38.574,-368.164,0.000
1606131597.037,175.293,-16.602,-23.926,578.125,0.000
1606131597.041,194.824,-18.066,-24.414,732.910,0.000
1606131597.045,-95.215,-36.621,-45.898,-158.691,0.000
1606131597.049,-295.898,-44.434,-49.805,-858.398,0.000
1606131597.053,-148.438,-32.715,-31.250,-476.562,0.000
1606131597.057,155.273,-13.184,-16.602,493.164,0.000
1606131597.061,213.379,-12.695,-17.090,786.133,0.000
1606131597.065,-61.523,-31.738,-31.250,-26.367,0.000
1606131597.068,-298.828,-54.688,-59.082,-829.590,0.000
1606131597.072,-189.453,-48.828,-47.852,-596.680,0.000
1606131597.076,132.812,-4.395,-8.789,400.879,0.000
1606131597.080,240.234,4.395,-9.766,827.148,0.000
1606131597.084,-11.230,-25.391,-35.156,103.027,0.000
1606131597.088,-276.855,-44.922,-46.875,-775.879,0.000
1606131597.092,-217.773,-34.668,-44.434,-690.918,0.000
1606131597.096,88.867,-7.812,-26.367,283.691,0.000
1606131597.100,214.844,-7.812,-22.461,810.059,0.000
1606131597.104,-0.488,-28.320,-40.039,205.078,0.000
1606131597.107,-275.879,-53.223,-52.246,-705.566,0.000
1606131597.111,-258.789,-56.641,-47.363,-765.137,0.000
1606131597.115,50.781,-9.766,-17.578,171.387,0.000
1606131597.119,230.957,0.977,1.465,809.082,0.000
1606131597.123,50.293,-25.391,-19.531,329.102,0.000
1606131597.127,-248.535,-43.457,-48.340,-619.629,0.000
1606131597.131,-271.484,-46.875,-52.734,-821.777,0.000
1606131597.135,24.414,-25.391,-31.250,51.758,0.000
1606131597.139,230.957,-12.207,-18.066,787.109,0.000
1606131597.143,94.727,-22.949,-24.902,450.195,0.000
1606131597.147,-215.820,-43.945,-38.086,-526.855,0.000
1606131597.150,-295.898,-59.082,-55.176,-866.699,0.000
1606131597.154,-18.555,-7.324,-36.621,-69.336,0.000
1606131597.158,224.121,29.785,-14.160,741.211,0.000
1606131597.162,130.859,-21.973,-26.367,544.922,0.000
1606131597.166,-178.223,-52.246,-41.504,-420.410,0.000
1606131597.170,-291.992,-43.945,-51.270,-876.465,0.000
1606131597.174,-54.688,-22.461,-34.180,-193.359,0.000
1606131597.178,212.402,-6.348,-5.371,690.918,0.000
1606131597.182,166.992,-19.531,-6.348,646.973,0.000
1606131597.186,-145.996,-55.664,-29.297,-310.059,0.000
1606131597.190,-301.270,-60.059,-45.410,-886.230,0.000
1606131597.193,-94.727,-32.715,-35.645,-326.172,0.000
1606131597.197,199.707,-1.953,-5.371,609.863,0.000
1606131597.201,204.102,1.465,-4.883,717.285,0.000
1606131597.205,-97.168,-24.902,-35.156,-195.801,0.000
1606131597.209,-293.945,-49.316,-48.828,-876.953,0.000
1606131597.213,-132.324,-34.668,-33.691,-450.195,0.000
1606131597.217,167.480,-1.465,-18.555,521.484,0.000
1606131597.221,212.402,-5.859,-15.137,767.578,0.000
1606131597.225,-62.012,-27.344,-31.738,-84.961,0.000
1606131597.229,-282.715,-53.223,-50.293,-844.238,0.000
1606131597.232,-165.527,-45.898,-34.668,-548.828,0.000
1606131597.236,145.996,-13.184,-8.301,433.594,0.000
1606131597.240,232.910,-13.184,-6.836,807.129,0.000
1606131597.244,-28.809,-35.156,-23.926,50.781,0.000
1606131597.248,-270.508,-44.922,-39.551,-783.203,0.000
1606131597.252,-189.941,-40.527,-35.156,-638.672,0.000
1606131597.256,115.723,-11.719,-20.020,329.590,0.000
1606131597.260,236.816,0.000,-17.578,813.965,0.000
1606131597.264,11.230,-29.297,-29.785,167.480,0.000
1606131597.268,-257.324,-49.805,-40.527,-725.586,0.000
1606131597.272,-231.934,-45.410,-35.156,-731.445,0.000
1606131597.275,77.148,-16.602,-14.160,220.215,0.000
1606131597.279,251.465,1.465,-8.301,828.613,0.000
1606131597.283,62.012,-15.625,-25.879,305.176,0.000
1606131597.287,-237.305,-41.016,-40.527,-640.137,0.000
1606131597.291,-250.977,-41.016,-31.250,-782.715,0.000
1606131597.295,45.410,-22.461,-14.160,120.605,0.000
1606131597.299,230.957,-19.043,-16.602,810.547,0.000
1606131597.303,79.590,-36.133,-23.926,415.039,0.000
1606131597.307,-217.773,-48.340,-35.156,-552.734,0.000
1606131597.311,-267.578,-43.945,-34.180,-836.914,0.000
1606131597.315,14.648,-31.250,-9.277,-5.371,0.000
1606131597.318,237.793,-11.719,0.977,783.691,0.000
1606131597.322,133.789,-5.859,-17.578,524.902,0.000
1606131597.326,-176.270,-36.133,-35.156,-454.590,0.000
1606131597.330,-280.273,-53.711,-37.598,-869.629,0.000
1606131597.334,-31.250,-29.785,-25.391,-149.414,0.000
1606131597.338,224.121,-12.207,-16.602,712.402,0.000
1606131597.342,160.156,-14.648,-25.391,619.629,0.000
1606131597.346,-150.391,-29.785,-44.922,-345.703,0.000
1606131597.350,-288.574,-37.598,-49.805,-875.000,0.000
1606131597.354,-82.031,-21.484,-27.344,-267.578,0.000
1606131597.357,189.941,2.441,-13.184,646.484,0.000
1606131597.361,176.758,-4.883,-15.137,696.289,0.000
1606131597.365,-131.836,-38.574,-38.574,-243.164,0.000
1606131597.369,-309.082,-52.246,-53.223,-882.324,0.000
1606131597.373,-133.301,-39.062,-36.621,-403.320,0.000
1606131597.377,167.969,-17.578,-23.438,548.340,0.000
1606131597.381,203.613,-11.719,-28.320,739.746,0.000
1606131597.385,-88.379,-29.785,-44.434,-135.254,0.000
1606131597.389,-295.410,-45.898,-51.270,-866.211,0.000
1606131597.393,-161.621,-39.062,-39.551,-524.414,0.000
1606131597.397,139.648,-20.996,-10.742,454.102,0.000
1606131597.400,215.820,-18.555,-10.742,781.738,0.000
1606131597.404,-52.246,-29.297,-38.574,-10.742,0.000
1606131597.408,-292.480,-48.828,-47.363,-818.848,0.000
1606131597.412,-196.289,-44.434,-34.180,-624.023,0.000
1606131597.416,118.164,-19.531,-20.020,357.422,0.000
1606131597.420,232.910,-8.789,-19.043,817.871,0.000
1606131597.424,-13.672,-25.879,-23.438,131.836,0.000
1606131597.428,-275.391,-50.781,-34.668,-744.629,0.000
1606131597.432,-227.051,-43.945,-30.273,-696.289,0.000
1606131597.436,86.426,3.418,-3.418,276.367,0.000
1606131597.440,246.582,13.184,1.953,842.285,0.000
1606131597.443,37.598,-19.531,-21.973,257.812,0.000
1606131597.447,-248.535,-40.039,-41.016,-672.363,0.000
1606131597.451,-243.164,-40.527,-31.250,-770.996,0.000
1606131597.455,61.035,-14.160,-3.418,154.785,0.000
1606131597.459,246.582,-9.766,1.953,821.289,0.000
1606131597.463,78.125,-21.484,-8.301,375.000,0.000
1606131597.467,-220.215,-35.645,-28.809,-586.914,0.000
1606131597.471,-269.043,-47.852,-38.086,-828.125,0.000
1606131597.475,16.602,-33.691,-11.719,25.391,0.000
1606131597.479,237.793,-13.672,2.441,785.645,0.000
1606131597.482,116.211,-11.719,-12.207,491.699,0.000
1606131597.486,-189.941,-39.062,-32.715,-487.793,0.000
1606131597.490,-279.297,-56.152,-42.969,-863.281,0.000
1606131597.494,-14.160,-25.391,-23.438,-95.215,0.000
1606131597.498,231.934,-2.441,-3.906,744.141,0.000
1606131597.502,147.949,-18.066,-11.719,587.891,0.000
1606131597.506,-157.715,-35.156,-31.738,-385.742,0.000
1606131597.510,-284.668,-41.016,-35.645,-875.977,0.000
1606131597.514,-60.547,-28.320,-13.672,-225.098,0.000
1606131597.518,212.402,-6.836,-1.953,666.992,0.000
1606131597.522,173.828,-20.020,-18.066,655.273,0.000
1606131597.525,-133.789,-52.246,-33.691,-290.039,0.000
1606131597.529,-291.016,-55.664,-39.062,-878.906,0.000
1606131597.533,-100.586,-27.832,-31.738,-349.609,0.000
1606131597.537,190.430,13.184,-12.695,590.820,0.000
1606131597.541,207.031,0.000,-6.348,731.934,0.000
1606131597.545,-92.773,-36.621,-21.973,-166.504,0.000
1606131597.549,-299.316,-51.758,-41.016,-869.141,0.000
1606131597.553,-146.484,-37.109,-32.227,-474.609,0.000
1606131597.557,162.598,-6.836,-3.418,501.465,0.000
1606131597.561,219.238,-2.930,-1.465,776.367,0.000
1606131597.565,-61.035,-23.438,-28.320,-47.852,0.000
1606131597.568,-289.551,-46.387,-41.016,-833.496,0.000
1606131597.572,-183.105,-24.414,-22.949,-580.566,0.000
1606131597.576,127.441,14.648,-7.812,400.879,0.000
1606131597.580,231.445,-1.465,-3.906,802.246,0.000
1606131597.584,-19.043,-22.949,-24.414,77.148,0.000
1606131597.588,-273.438,-40.039,-42.480,-778.809,0.000
1606131597.592,-207.520,-34.180,-40.039,-675.293,0.000
1606131597.596,107.910,-6.348,-29.785,300.781,0.000
1606131597.600,247.559,-5.859,-9.277,827.148,0.000
1606131597.604,26.367,-31.738,-11.719,208.496,0.000
1606131597.607,-250.488,-50.781,-34.180,-697.754,0.000
1606131597.611,-237.793,-45.898,-35.156,-743.652,0.000
1606131597.615,61.523,-23.926,-15.137,190.918,0.000
1606131597.619,240.234,-13.184,-3.906,827.637,0.000
1606131597.623,60.059,-29.297,-25.391,335.449,0.000
1606131597.627,-233.887,-48.828,-47.363,-615.723,0.000
1606131597.631,-270.996,-57.617,-39.062,-810.547,0.000
1606131597.635,18.555,-18.066,-17.578,68.848,0.000
1606131597.639,231.934,10.742,-3.418,805.176,0.000
1606131597.643,90.820,-29.785,-11.230,448.730,0.000
1606131597.647,-219.238,-61.035,-37.109,-532.715,0.000
1606131597.650,-291.992,-62.500,-39.551,-855.469,0.000
1606131597.654,-16.602,-40.527,-18.066,-46.387,0.000
1606131597.658,216.797,-24.902,-17.578,760.742,0.000
1606131597.662,115.723,-33.203,-29.785,541.992,0.000
1606131597.666,-187.012,-53.223,-46.387,-429.688,0.000
1606131597.670,-295.898,-62.988,-50.781,-871.094,0.000
1606131597.674,-52.246,-26.855,-31.738,-166.504,0.000
1606131597.678,215.820,6.836,-5.371,713.867,0.000
1606131597.682,165.527,-13.672,-5.859,647.461,0.000
1606131597.686,-147.949,-42.969,-36.133,-316.895,0.000
1606131597.690,-298.340,-56.641,-49.805,-884.766,0.000
1606131597.693,-92.285,-43.945,-28.809,-306.152,0.000
1606131597.697,186.035,-20.508,-16.113,619.141,0.000
1606131597.701,183.594,-18.555,-20.508,707.031,0.000
1606131597.705,-112.305,-41.992,-33.203,-202.637,0.000
1606131597.709,-297.852,-58.105,-48.340,-870.605,0.000
1606131597.713,-125.488,-33.691,-37.598,-424.805,0.000
1606131597.717,179.199,1.465,-20.020,544.434,0.000
1606131597.721,221.191,-3.418,-16.113,775.879,0.000
1606131597.725,-70.801,-31.250,-34.180,-85.938,0.000
1606131597.729,-294.434,-57.617,-54.199,-852.539,0.000
1606131597.732,-169.434,-40.039,-39.062,-535.645,0.000
1606131597.736,145.508,-3.906,-19.043,444.824,0.000
1606131597.740,234.375,-7.812,-17.090,803.223,0.000
1606131597.744,-38.574,-34.668,-33.691,39.062,0.000
1606131597.748,-282.715,-52.734,-52.734,-793.457,0.000
1606131597.752,-197.754,-41.016,-42.480,-627.930,0.000
1606131597.756,112.305,-16.113,-18.066,348.145,0.000
1606131597.760,232.422,-8.789,-16.113,822.266,0.000
1606131597.764,-3.906,-26.855,-24.414,165.527,0.000
1606131597.768,-273.926,-48.340,-38.574,-731.934,0.000
1606131597.772,-234.863,-43.945,-42.480,-718.750,0.000
1606131597.775,85.938,-13.184,-20.996,238.281,0.000
1606131597.779,236.328,-14.160,-0.977,827.148,0.000
1606131597.783,38.086,-36.621,-19.531,300.293,0.000
1606131597.787,-238.770,-50.293,-51.758,-637.207,0.000
1606131597.791,-252.441,-43.945,-47.852,-778.320,0.000
1606131597.795,38.574,-9.766,-30.762,114.258,0.000
1606131597.799,225.586,3.418,-26.855,785.156,0.000
1606131597.803,68.359,-15.137,-41.992,374.512,0.000
1606131597.807,-224.121,-29.785,-60.547,-590.820,0.000
1606131597.811,-276.855,-29.297,-58.594,-859.375,0.000
1606131597.815,-5.371,-1.465,-41.016,-28.809,0.000
1606131597.818,218.262,20.508,-30.762,746.094,0.000
1606131597.822,113.281,-1.465,-34.668,490.723,0.000
1606131597.826,-186.523,-34.180,-50.293,-477.539,0.000
1606131597.830,-275.391,-44.922,-63.477,-870.605,0.000
1606131597.834,-20.508,-27.832,-46.875,-131.836,0.000
1606131597.838,227.539,-11.719,-22.461,719.238,0.000
1606131597.842,169.434,-12.207,-29.785,605.469,0.000
1606131597.846,-142.578,-32.715,-55.664,-364.746,0.000
1606131597.850,-296.875,-47.852,-59.570,-891.602,0.000
1606131597.854,-70.312,-23.926,-35.645,-266.602,0.000
1606131597.857,205.566,2.441,-18.555,643.066,0.000
1606131597.861,179.199,-4.883,-25.879,671.875,0.000
1606131597.865,-123.535,-32.715,-45.898,-270.996,0.000
1606131597.869,-295.898,-45.898,-55.176,-898.438,0.000
1606131597.873,-109.863,-21.484,-43.457,-392.578,0.000
1606131597.877,186.035,4.395,-18.555,563.477,0.000
1606131597.881,207.031,0.000,-13.672,742.676,0.000
1606131597.885,-77.637,-27.832,-36.133,-142.578,0.000
1606131597.889,-282.227,-42.480,-45.898,-856.934,0.000
1606131597.893,-145.996,-34.180,-38.086,-490.723,0.000
1606131597.897,157.715,-16.602,-17.578,478.516,0.000
1606131597.900,230.469,-10.254,-10.254,794.922,0.000
1606131597.904,-36.621,-20.020,-30.762,-4.395,0.000
1606131597.908,-275.391,-36.621,-41.016,-811.035,0.000
1606131597.912,-184.082,-33.691,-33.691,-598.145,0.000
1606131597.916,122.559,19.531,-21.973,382.324,0.000
1606131597.920,231.445,19.043,-21.973,818.848,0.000
1606131597.924,-10.254,-35.645,-37.109,107.910,0.000
1606131597.928,-264.160,-47.852,-48.828,-763.672,0.000
1606131597.932,-214.844,-38.574,-45.898,-693.359,0.000
1606131597.936,93.262,-14.160,-22.949,274.414,0.000
1606131597.940,243.164,-4.883,-11.230,823.242,0.000
1606131597.943,31.738,-28.320,-30.273,234.375,0.000
1606131597.947,-250.000,-53.711,-49.316,-689.941,0.000
1606131597.951,-243.164,-49.316,-43.945,-763.672,0.000
1606131597.955,59.570,-22.461,-20.996,163.574,0.000
1606131597.959,240.234,-16.113,-14.648,811.035,0.000
1606131597.963,67.871,-34.180,-24.902,356.934,0.000
1606131597.967,-230.469,-50.293,-44.434,-605.469,0.000
1606131597.971,-266.602,-50.293,-47.852,-830.566,0.000
1606131597.975,22.461,-20.020,-28.320,32.715,0.000
1606131597.979,232.910,-2.441,-17.090,776.367,0.000
1606131597.982,109.863,-23.438,-26.367,461.914,0.000
1606131597.986,-204.590,-47.363,-46.387,-509.766,0.000
1606131597.990,-295.410,-55.664,-47.363,-864.746,0.000
1606131597.994,-19.531,-24.414,-20.020,-79.102,0.000
1606131597.998,231.934,-3.906,-3.906,759.277,0.000
1606131598.002,145.996,-23.438,-25.391,575.684,0.000
1606131598.006,-175.293,-47.363,-50.781,-420.898,0.000
1606131598.010,-303.711,-60.059,-61.035,-898.438,0.000
1606131598.014,-67.383,-23.438,-45.410,-222.168,0.000
1606131598.018,200.684,2.441,-22.461,663.086,0.000
1606131598.022,158.691,-15.625,-24.902,634.766,0.000
1606131598.025,-146.484,-40.039,-45.898,-308.594,0.000
1606131598.029,-297.852,-53.223,-51.270,-887.207,0.000
1606131598.033,-94.727,-19.043,-24.414,-339.355,0.000
1606131598.037,186.523,13.672,-6.836,599.609,0.000
1606131598.041,187.500,-12.207,-20.996,724.121,0.000
1606131598.045,-108.398,-47.852,-47.852,-185.547,0.000
1606131598.049,-298.828,-61.035,-54.199,-872.559,0.000
1606131598.053,-141.113,-25.879,-38.574,-451.660,0.000
1606131598.057,154.785,2.930,-15.625,509.277,0.000
1606131598.061,214.355,-15.625,-6.348,769.043,0.000
1606131598.065,-62.012,-32.715,-38.086,-64.453,0.000
1606131598.068,-290.039,-44.922,-60.547,-841.797,0.000
1606131598.072,-176.758,-38.574,-36.621,-566.406,0.000
1606131598.076,133.789,-15.625,-7.812,420.898,0.000
1606131598.080,230.957,-14.160,-13.184,809.570,0.000
1606131598.084,-21.484,-33.691,-34.180,65.430,0.000
1606131598.088,-272.461,-47.852,-43.945,-782.715,0.000
1606131598.092,-203.613,-35.645,-36.133,-651.855,0.000
1606131598.096,108.398,20.508,-13.184,328.125,0.000
1606131598.100,244.141,25.879,0.000,834.473,0.000
1606131598.104,23.438,-25.391,-16.602,203.125,0.000
1606131598.107,-254.883,-45.410,-41.992,-701.660,0.000
1606131598.111,-240.723,-45.898,-43.457,-733.887,0.000
1606131598.115,67.383,-24.902,-20.508,204.590,0.000
1606131598.119,239.258,-7.812,-6.836,821.777,0.000
1606131598.123,48.828,-25.879,-29.297,306.152,0.000
1606131598.127,-239.258,-61.035,-52.246,-641.602,0.000
1606131598.131,-257.812,-62.012,-39.551,-803.223,0.000
1606131598.135,37.109,-28.320,-12.207,94.727,0.000
1606131598.139,239.746,-10.254,-5.371,813.965,0.000
1606131598.143,92.285,-22.949,-22.949,433.594,0.000
1606131598.147,-213.379,-43.457,-42.480,-541.504,0.000
1606131598.150,-274.902,-50.293,-41.992,-846.191,0.000
1606131598.154,7.812,-12.207,-18.066,-27.344,0.000
1606131598.158,240.234,8.301,-2.930,776.367,0.000
1606131598.162,136.230,-15.625,-16.113,542.480,0.000
1606131598.166,-176.270,-41.504,-44.922,-440.430,0.000
1606131598.170,-288.574,-53.711,-53.223,-874.512,0.000
1606131598.174,-41.992,-38.086,-30.273,-161.621,0.000
1606131598.178,222.168,-10.254,-7.324,714.844,0.000
1606131598.182,166.504,-4.395,-11.719,635.742,0.000
1606131598.186,-148.438,-30.273,-43.457,-333.984,0.000
1606131598.190,-288.574,-43.457,-49.805,-868.652,0.000
1606131598.193,-68.848,-18.555,-27.832,-267.090,0.000
1606131598.197,206.543,-8.301,-8.789,647.949,0.000
1606131598.201,195.312,-26.855,-13.672,710.938,0.000
1606131598.205,-109.863,-38.574,-43.457,-223.633,0.000
1606131598.209,-291.992,-48.340,-54.199,-872.559,0.000
1606131598.213,-116.211,-23.926,-35.645,-400.879,0.000
1606131598.217,175.293,0.488,-21.973,554.688,0.000
1606131598.221,208.496,-8.301,-14.160,762.695,0.000
1606131598.225,-74.219,-24.414,-36.133,-103.516,0.000
1606131598.229,-288.086,-46.387,-50.781,-840.332,0.000
1606131598.232,-161.621,-36.621,-30.273,-514.648,0.000
1606131598.236,139.160,-8.789,-17.090,447.754,0.000
1606131598.240,216.309,-11.719,-17.578,790.039,0.000
1606131598.244,-47.363,-33.203,-33.691,12.695,0.000
1606131598.248,-289.551,-55.664,-45.898,-808.594,0.000
1606131598.252,-201.660,-47.852,-33.691,-622.559,0.000
1606131598.256,114.258,-18.066,-7.812,353.516,0.000
1606131598.260,237.305,-9.277,3.418,820.801,0.000
1606131598.264,-4.883,-27.832,-17.578,148.926,0.000
1606131598.268,-271.484,-45.898,-42.969,-738.770,0.000
1606131598.272,-228.516,-39.551,-44.922,-706.055,0.000
1606131598.275,81.055,20.020,-18.066,259.766,0.000
1606131598.279,239.746,26.855,-7.324,830.078,0.000
1606131598.283,38.574,-33.691,-24.414,265.137,0.000
1606131598.287,-248.535,-60.547,-39.062,-665.527,0.000
1606131598.291,-256.348,-66.895,-37.109,-777.832,0.000
1606131598.295,43.945,-18.555,-14.160,138.672,0.000
1606131598.299,240.723,9.766,-1.465,814.453,0.000
1606131598.303,76.172,-24.902,-11.230,384.277,0.000
1606131598.307,-225.098,-52.246,-32.715,-582.031,0.000
1606131598.311,-276.367,-54.688,-44.434,-837.402,0.000
1606131598.315,7.324,-33.203,-23.438,9.766,0.000
1606131598.318,233.398,-15.137,-0.977,775.879,0.000
1606131598.322,112.305,-28.320,-12.207,497.070,0.000
1606131598.326,-195.801,-47.852,-31.250,-472.168,0.000
1606131598.330,-284.180,-58.105,-43.945,-865.723,0.000
1606131598.334,-23.438,-20.996,-27.344,-108.398,0.000
1606131598.338,210.938,7.324,-4.883,726.562,0.000
1606131598.342,129.883,-24.902,-12.207,580.078,0.000
1606131598.346,-171.875,-50.781,-33.203,-380.859,0.000
1606131598.350,-308.105,-59.570,-43.945,-887.207,0.000
1606131598.354,-86.426,-43.457,-28.809,-249.512,0.000
1606131598.357,196.289,-14.648,-9.766,659.668,0.000
1606131598.361,176.758,-14.648,-6.836,673.340,0.000
1606131598.365,-128.906,-43.457,-23.926,-273.926,0.000
1606131598.369,-301.270,-61.523,-41.016,-885.742,0.000
1606131598.373,-105.957,-36.621,-23.926,-355.957,0.000
1606131598.377,190.430,-5.371,-6.348,593.262,0.000
1606131598.381,187.500,-15.137,-13.184,735.352,0.000
1606131598.385,-115.234,-34.668,-33.203,-159.668,0.000
1606131598.389,-301.270,-54.688,-41.504,-867.188,0.000
1606131598.393,-150.879,-32.715,-25.391,-483.398,0.000
1606131598.397,155.273,4.395,-3.418,494.141,0.000
1606131598.400,219.727,-2.930,2.441,780.273,0.000
1606131598.404,-56.641,-27.832,-17.090,-40.527,0.000
1606131598.408,-284.180,-46.875,-34.668,-831.055,0.000
1606131598.412,-179.199,-46.875,-38.574,-595.215,0.000
1606131598.416,130.371,-27.344,-22.461,386.230,0.000
1606131598.420,233.398,-15.137,-13.184,811.035,0.000
1606131598.424,-25.391,-32.715,-37.109,80.566,0.000
1606131598.428,-285.645,-50.781,-45.410,-780.762,0.000
1606131598.432,-224.609,-49.316,-32.227,-677.246,0.000
1606131598.436,83.984,-24.902,-13.672,292.480,0.000
1606131598.440,227.539,-16.113,-9.766,823.242,0.000
1606131598.443,9.766,-36.621,-25.391,216.309,0.000
1606131598.447,-272.461,-55.176,-43.945,-697.266,0.000
1606131598.451,-251.465,-58.105,-47.363,-748.047,0.000
1606131598.455,58.594,-33.691,-26.367,187.988,0.000
1606131598.459,238.770,-8.301,-3.906,830.078,0.000
1606131598.463,63.965,-19.043,-14.160,354.004,0.000
1606131598.467,-228.516,-36.133,-40.527,-598.145,0.000
1606131598.471,-259.277,-39.062,-41.504,-797.852,0.000
1606131598.475,27.344,-13.672,-21.973,72.266,0.000
1606131598.479,237.305,15.137,-4.883,804.199,0.000
1606131598.482,99.609,-2.930,-19.531,452.148,0.000
1606131598.486,-215.820,-36.621,-50.293,-532.227,0.000
1606131598.490,-291.016,-49.316,-49.316,-855.957,0.000
1606131598.494,-18.555,-27.344,-31.738,-68.359,0.000
1606131598.498,227.051,-7.324,-18.555,744.629,0.000
1606131598.502,139.160,-18.066,-14.648,555.664,0.000
1606131598.506,-175.781,-39.062,-41.504,-420.898,0.000
1606131598.510,-289.062,-45.898,-50.781,-872.070,0.000
1606131598.514,-48.340,-25.391,-26.855,-179.688,0.000
1606131598.518,216.309,3.906,-2.441,701.660,0.000
1606131598.522,174.805,-12.207,-1.953,646.973,0.000
1606131598.525,-134.766,-41.992,-35.645,-315.430,0.000
1606131598.529,-288.574,-41.016,-48.340,-882.324,0.000
1606131598.533,-76.660,-20.508,-25.879,-313.477,0.000
1606131598.537,209.473,-1.953,-5.371,624.512,0.000
1606131598.541,200.195,-8.301,-3.906,723.145,0.000
1606131598.545,-106.934,-34.668,-26.855,-198.242,0.000
1606131598.549,-296.387,-51.270,-48.340,-865.723,0.000
1606131598.553,-128.906,-37.598,-28.809,-429.688,0.000
1606131598.557,169.434,-16.113,-9.277,528.809,0.000
1606131598.561,207.520,-6.348,-14.648,764.648,0.000
1606131598.565,-79.590,-24.902,-37.109,-94.727,0.000
1606131598.568,-292.969,-51.270,-49.316,-856.934,0.000
1606131598.572,-167.480,-45.898,-35.645,-553.223,0.000
1606131598.576,140.137,-10.742,-22.949,426.758,0.000
1606131598.580,232.910,6.348,-20.020,797.363,0.000
1606131598.584,-16.113,-16.113,-36.133,37.598,0.000
1606131598.588,-267.090,-45.410,-53.711,-803.711,0.000
1606131598.592,-210.449,-45.898,-44.922,-659.180,0.000
1606131598.596,100.586,-20.020,-13.672,327.637,0.000
1606131598.600,238.281,-14.648,0.000,826.172,0.000
1606131598.604,-0.488,-34.668,-25.391,161.133,0.000
1606131598.607,-273.438,-51.758,-41.992,-742.676,0.000
1606131598.611,-238.770,-47.363,-38.086,-739.746,0.000
1606131598.615,65.918,-11.719,-23.926,211.914,0.000
1606131598.619,232.422,0.000,-12.207,815.430,0.000
1606131598.623,50.781,-28.809,-22.461,292.969,0.000
1606131598.627,-233.887,-56.152,-45.410,-646.973,0.000
1606131598.631,-253.418,-59.570,-48.340,-794.434,0.000
1606131598.635,50.293,-35.156,-20.020,113.770,0.000
1606131598.639,246.094,-13.184,-5.859,813.477,0.000
1606131598.643,83.008,-26.855,-25.879,413.086,0.000
1606131598.647,-224.609,-49.316,-51.270,-561.523,0.000
1606131598.650,-282.715,-60.059,-42.480,-841.797,0.000
1606131598.654,1.953,-17.090,-15.137,-4.883,0.000
1606131598.658,230.957,24.902,-2.441,778.809,0.000
1606131598.662,113.281,-13.672,-9.277,514.648,0.000
1606131598.666,-194.336,-56.641,-29.297,-472.168,0.000
1606131598.670,-285.156,-63.965,-35.156,-874.023,0.000
1606131598.674,-32.227,-33.203,-23.926,-137.695,0.000
1606131598.678,222.168,-8.301,-12.207,716.797,0.000
1606131598.682,158.691,-20.020,-23.926,609.863,0.000
1606131598.686,-148.926,-45.410,-41.992,-354.004,0.000
1606131598.690,-286.621,-53.711,-44.922,-882.812,0.000
1606131598.693,-73.730,-41.504,-34.180,-270.508,0.000
1606131598.697,198.730,-24.902,-13.184,641.113,0.000
1606131598.701,177.246,-26.367,-15.137,678.223,0.000
1606131598.705,-130.859,-46.875,-38.574,-258.789,0.000
1606131598.709,-306.641,-60.547,-47.852,-886.719,0.000
1606131598.713,-121.582,-34.668,-34.180,-390.625,0.000
1606131598.717,170.410,-3.906,-25.391,556.152,0.000
1606131598.721,197.266,-19.043,-32.715,732.910,0.000
1606131598.725,-85.938,-41.016,-41.992,-137.695,0.000
1606131598.729,-295.410,-57.617,-52.734,-862.305,0.000
1606131598.732,-152.344,-40.039,-43.945,-507.812,0.000
1606131598.736,154.297,-12.207,-13.672,468.750,0.000
1606131598.740,212.891,-20.020,-8.789,771.973,0.000
1606131598.744,-60.059,-42.969,-35.645,-33.691,0.000
1606131598.748,-291.992,-62.012,-53.223,-826.660,0.000
1606131598.752,-197.266,-51.758,-39.062,-608.887,0.000
1606131598.756,114.746,-2.930,-18.555,367.676,0.000
1606131598.760,229.980,8.789,-16.602,806.641,0.000
1606131598.764,-15.625,-31.738,-33.691,114.258,0.000
1606131598.768,-277.832,-61.035,-51.270,-758.789,0.000
1606131598.772,-221.680,-61.035,-48.340,-697.266,0.000
1606131598.775,95.215,-33.203,-27.344,277.832,0.000
1606131598.779,244.141,-16.113,-7.324,836.426,0.000
1606131598.783,30.762,-25.391,-18.555,253.906,0.000
1606131598.787,-256.348,-47.852,-43.945,-674.805,0.000
1606131598.791,-250.488,-48.828,-41.016,-755.859,0.000
1606131598.795,56.641,-19.043,-24.902,170.898,0.000
1606131598.799,232.910,-3.906,-9.766,821.777,0.000
1606131598.803,46.387,-26.855,-14.160,366.699,0.000
1606131598.807,-252.441,-57.129,-44.922,-595.215,0.000
1606131598.811,-283.203,-55.664,-49.805,-821.289,0.000
1606131598.815,6.348,-34.180,-22.461,40.039,0.000
1606131598.818,219.727,-24.414,-5.371,784.668,0.000
1606131598.822,94.238,-31.250,-14.648,459.961,0.000
1606131598.826,-204.590,-47.852,-42.480,-513.184,0.000
1606131598.830,-279.785,-52.246,-54.199,-868.164,0.000
1606131598.834,-7.812,-26.367,-28.320,-94.727,0.000
1606131598.838,242.676,-7.812,-7.812,744.141,0.000
1606131598.842,159.180,-16.602,-17.578,583.496,0.000
1606131598.846,-154.297,-38.574,-47.363,-392.578,0.000
1606131598.850,-277.344,-54.199,-55.664,-878.418,0.000
1606131598.854,-45.410,-30.762,-30.273,-211.914,0.000
1606131598.857,214.355,8.789,-15.625,684.082,0.000
1606131598.861,170.898,-0.488,-25.391,660.645,0.000
1606131598.865,-138.184,-32.715,-42.480,-290.527,0.000
1606131598.869,-294.434,-44.434,-47.852,-874.512,0.000
1606131598.873,-96.680,-27.344,-31.250,-327.637,0.000
1606131598.877,191.895,-3.418,-2.930,610.352,0.000
1606131598.881,199.707,-5.859,0.488,736.328,0.000
1606131598.885,-106.445,-26.855,-24.902,-169.434,0.000
1606131598.889,-304.199,-42.480,-39.062,-860.840,0.000
1606131598.893,-155.273,-30.273,-30.273,-456.543,0.000
1606131598.897,138.184,5.859,-11.719,507.812,0.000
1606131598.900,198.242,-3.906,-3.906,776.367,0.000
1606131598.904,-78.613,-38.574,-21.973,-57.129,0.000
1606131598.908,-305.176,-54.199,-35.156,-844.238,0.000
1606131598.912,-191.895,-39.551,-25.391,-584.961,0.000
1606131598.916,116.699,-16.113,-7.324,396.973,0.000
1606131598.920,217.773,-17.090,-4.883,789.551,0.000
1606131598.924,-32.227,-35.645,-32.715,46.387,0.000
1606131598.928,-275.879,-52.246,-47.852,-797.852,0.000
1606131598.932,-199.707,-41.504,-35.156,-677.246,0.000
1606131598.936,118.652,2.441,-18.555,301.270,0.000
1606131598.940,256.836,5.859,-16.602,817.383,0.000
1606131598.943,31.250,-34.180,-31.250,187.500,0.000
1606131598.947,-244.629,-49.805,-41.992,-720.215,0.000
1606131598.951,-217.773,-43.945,-36.133,-739.746,0.000
1606131598.955,89.844,-17.578,-14.648,209.473,0.000
1606131598.959,258.301,-1.953,-0.488,825.684,0.000
1606131598.963,67.383,-20.996,-25.879,323.730,0.000
1606131598.967,-227.051,-40.039,-57.617,-616.211,0.000
1606131598.971,-248.047,-42.480,-43.457,-786.133,0.000
1606131598.975,44.922,-25.879,-16.602,103.027,0.000
1606131598.979,240.234,-7.324,-13.184,817.871,0.000
1606131598.982,93.262,-14.160,-26.367,452.148,0.000
1606131598.986,-203.613,-37.109,-38.574,-519.531,0.000
1606131598.990,-270.508,-48.340,-45.410,-833.008,0.000
1606131598.994,4.883,-9.277,-29.297,-20.996,0.000
1606131598.998,238.770,11.230,-8.789,784.180,0.000
1606131599.002,130.371,-14.648,-18.066,551.758,0.000
1606131599.006,-181.152,-39.551,-39.551,-432.129,0.000
1606131599.010,-285.645,-56.152,-40.527,-863.770,0.000
1606131599.014,-44.922,-42.480,-17.578,-154.785,0.000
1606131599.018,208.496,-23.438,-6.836,710.938,0.000
1606131599.022,154.785,-23.926,-16.113,631.836,0.000
1606131599.025,-154.785,-39.551,-34.180,-332.520,0.000
1606131599.029,-300.781,-46.875,-41.504,-877.441,0.000
1606131599.033,-89.355,-31.738,-21.973,-284.180,0.000
1606131599.037,197.266,-5.371,-2.441,636.719,0.000
1606131599.041,188.965,-13.672,-3.418,704.590,0.000
1606131599.045,-118.652,-48.828,-24.414,-224.609,0.000
1606131599.049,-305.176,-64.941,-47.363,-881.836,0.000
1606131599.053,-138.184,-41.504,-35.645,-422.852,0.000
1606131599.057,161.621,-12.695,-14.648,533.691,0.000
1606131599.061,199.707,-14.160,-11.719,741.211,0.000
1606131599.065,-89.844,-41.992,-35.156,-123.047,0.000
1606131599.068,-304.199,-62.500,-51.758,-867.188,0.000
1606131599.072,-167.480,-40.527,-31.738,-538.574,0.000
1606131599.076,145.020,-5.859,-15.137,454.590,0.000
1606131599.080,228.516,-3.906,-9.277,804.688,0.000
1606131599.084,-37.109,-30.273,-18.555,20.996,0.000
1606131599.088,-279.297,-53.223,-40.039,-799.316,0.000
1606131599.092,-187.012,-42.969,-38.574,-608.398,0.000
1606131599.096,123.047,-25.879,-14.160,363.770,0.000
1606131599.100,237.305,-25.879,-2.441,825.195,0.000
1606131599.104,-7.812,-40.527,-13.184,153.809,0.000
1606131599.107,-275.391,-54.199,-40.039,-735.840,0.000
1606131599.111,-233.887,-52.734,-41.016,-709.961,0.000
1606131599.115,79.590,-26.367,-20.020,247.559,0.000
1606131599.119,241.211,-9.277,-13.184,827.637,0.000
1606131599.123,42.969,-23.926,-21.973,278.320,0.000
1606131599.127,-244.141,-35.645,-31.738,-655.273,0.000
1606131599.131,-257.324,-45.898,-33.691,-781.250,0.000
1606131599.135,41.016,-20.020,-25.879,120.117,0.000
1606131599.139,235.840,5.371,-7.812,800.293,0.000
1606131599.143,78.613,-20.996,-13.672,383.301,0.000
1606131599.147,-214.355,-46.875,-40.039,-575.195,0.000
1606131599.150,-262.207,-43.945,-42.969,-830.566,0.000
1606131599.154,15.137,-19.531,-20.508,7.812,0.000
1606131599.158,229.980,-13.184,-6.348,769.043,0.000
1606131599.162,108.398,-26.855,-25.879,489.258,0.000
1606131599.166,-205.078,-43.945,-50.781,-489.258,0.000
1606131599.170,-297.363,-51.758,-46.875,-884.277,0.000
1606131599.174,-37.109,-21.973,-15.137,-126.953,0.000
1606131599.178,210.449,-1.465,-2.930,722.168,0.000
1606131599.182,137.695,-19.043,-9.766,585.449,0.000
1606131599.186,-171.387,-40.527,-32.227,-381.348,0.000
1606131599.190,-305.664,-53.711,-49.805,-886.230,0.000
1606131599.193,-83.008,-32.227,-31.250,-249.023,0.000
1606131599.197,195.312,-10.254,-12.207,657.715,0.000
1606131599.201,178.223,-12.695,-7.324,675.293,0.000
1606131599.205,-127.441,-33.203,-25.879,-270.020,0.000
1606131599.209,-300.293,-55.176,-41.992,-892.578,0.000
1606131599.213,-110.840,-20.020,-20.996,-374.512,0.000
1606131599.217,178.711,15.137,-7.812,578.613,0.000
1606131599.221,191.895,-12.207,-15.625,730.957,0.000
1606131599.225,-106.445,-41.992,-33.203,-163.086,0.000
1606131599.229,-309.570,-62.988,-48.828,-872.070,0.000
1606131599.232,-161.133,-47.363,-42.969,-488.281,0.000
1606131599.236,143.066,-11.230,-29.297,490.234,0.000
1606131599.240,206.543,-19.043,-24.902,785.645,0.000
1606131599.244,-75.684,-44.922,-38.086,-31.738,0.000
1606131599.248,-313.477,-56.641,-38.086,-825.684,0.000
1606131599.252,-205.078,-44.922,-20.508,-583.984,0.000
1606131599.256,110.352,-20.996,-10.742,397.949,0.000
1606131599.260,223.633,-9.277,-5.371,821.289,0.000
1606131599.264,-24.414,-32.227,-15.137,104.004,0.000
1606131599.268,-283.691,-60.547,-26.367,-763.184,0.000
1606131599.272,-221.680,-46.387,-23.438,-670.898,0.000
1606131599.275,90.820,-5.371,-8.301,292.480,0.000
1606131599.279,230.469,-6.836,-2.441,823.242,0.000
1606131599.283,16.113,-35.156,-21.484,225.586,0.000
1606131599.287,-257.324,-57.617,-46.387,-691.895,0.000
1606131599.291,-239.746,-54.199,-47.363,-745.605,0.000
1606131599.295,65.430,-30.273,-20.996,190.430,0.000
1606131599.299,243.652,-18.066,-5.371,819.824,0.000
1606131599.303,65.430,-30.762,-9.766,342.285,0.000
1606131599.307,-230.469,-53.223,-27.344,-604.004,0.000
1606131599.311,-262.207,-50.781,-36.133,-799.316,0.000
1606131599.315,25.391,-11.230,-16.602,75.195,0.000
1606131599.318,233.398,14.648,1.465,810.547,0.000
1606131599.322,92.773,-16.602,-19.531,463.867,0.000
1606131599.326,-212.402,-44.434,-51.270,-513.672,0.000
1606131599.330,-288.574,-43.945,-46.875,-841.309,0.000
1606131599.334,-21.973,-28.320,-16.602,-50.781,0.000
1606131599.338,220.215,-21.484,-5.859,755.371,0.000
1606131599.342,126.953,-32.227,-20.996,550.781,0.000
1606131599.346,-190.918,-50.293,-38.086,-427.734,0.000
1606131599.350,-310.059,-59.082,-40.527,-883.301,0.000
1606131599.354,-62.500,-25.391,-17.578,-186.035,0.000
1606131599.357,207.031,4.883,0.000,702.637,0.000
1606131599.361,159.180,-11.230,-9.766,644.043,0.000
1606131599.365,-144.043,-33.203,-24.902,-312.988,0.000
1606131599.369,-290.527,-51.758,-32.227,-874.023,0.000
1606131599.373,-86.426,-40.527,-23.926,-307.617,0.000
1606131599.377,201.660,-17.090,-1.465,625.000,0.000
1606131599.381,198.730,-16.113,-8.301,716.797,0.000
1606131599.385,-105.957,-33.691,-33.203,-204.102,0.000
1606131599.389,-294.434,-53.711,-42.480,-873.535,0.000
1606131599.393,-135.742,-40.527,-30.762,-434.082,0.000
1606131599.397,163.086,-11.230,-9.766,533.203,0.000
1606131599.400,207.031,-10.254,-9.766,770.020,0.000
1606131599.404,-75.195,-24.902,-26.855,-76.660,0.000
1606131599.408,-296.387,-47.363,-44.434,-836.914,0.000
1606131599.412,-182.129,-50.293,-38.086,-547.852,0.000
1606131599.416,125.488,3.418,-11.230,434.082,0.000
1606131599.420,218.750,15.137,-1.465,812.988,0.000
1606131599.424,-30.762,-24.414,-20.996,56.641,0.000
1606131599.428,-274.902,-39.062,-38.574,-785.156,0.000
1606131599.432,-195.801,-31.250,-32.227,-634.766,0.000
1606131599.436,116.699,-14.160,-19.531,342.773,0.000
1606131599.440,245.117,-13.184,-11.719,831.543,0.000
1606131599.443,17.578,-34.180,-25.879,178.711,0.000
1606131599.447,-255.371,-51.270,-43.457,-720.215,0.000
1606131599.451,-220.215,-47.363,-37.598,-710.938,0.000
1606131599.455,88.379,-22.949,-16.113,238.770,0.000
1606131599.459,248.047,-8.301,-4.883,827.148,0.000
1606131599.463,51.758,-25.391,-19.043,293.457,0.000
1606131599.467,-234.863,-39.062,-38.574,-657.227,0.000
1606131599.471,-249.023,-41.016,-36.621,-757.812,0.000
1606131599.475,44.922,-23.926,-23.438,164.551,0.000
1606131599.479,241.211,-6.348,-13.184,806.152,0.000
1606131599.482,90.820,-18.555,-18.066,417.969,0.000
1606131599.486,-219.238,-37.598,-41.016,-572.754,0.000
1606131599.490,-254.395,-36.133,-40.039,-784.180,0.000
1606131599.494,30.762,-20.020,-20.020,79.590,0.000
1606131599.498,233.887,-5.859,-6.348,765.625,0.000
1606131599.502,131.348,-11.230,-15.137,523.926,0.000
1606131599.506,-181.152,-43.457,-40.527,-456.055,0.000
1606131599.510,-290.527,-59.570,-43.457,-875.488,0.000
1606131599.514,-44.434,-29.785,-13.672,-139.648,0.000
1606131599.518,219.727,2.441,9.766,722.168,0.000
1606131599.522,141.602,-21.484,-12.207,600.586,0.000
1606131599.525,-182.617,-57.129,-39.551,-374.023,0.000
1606131599.529,-317.383,-60.547,-41.992,-897.949,0.000
1606131599.533,-94.727,-41.504,-22.949,-277.832,0.000
1606131599.537,189.941,-18.555,-9.766,649.414,0.000
1606131599.541,175.293,-18.555,-15.137,691.406,0.000
1606131599.545,-129.395,-39.062,-32.715,-249.023,0.000
1606131599.549,-300.293,-52.734,-39.551,-878.906,0.000
1606131599.553,-111.328,-26.367,-22.461,-378.906,0.000
1606131599.557,185.059,9.277,-3.418,580.566,0.000
1606131599.561,206.055,-13.184,-5.371,759.766,0.000
1606131599.565,-89.844,-44.434,-28.809,-120.605,0.000
1606131599.568,-291.992,-48.828,-46.387,-837.402,0.000
1606131599.572,-147.949,-38.574,-32.227,-479.004,0.000
1606131599.576,160.645,-11.230,-6.348,494.141,0.000
1606131599.580,225.098,-9.277,-9.766,799.316,0.000
1606131599.584,-55.176,-43.457,-33.203,-11.230,0.000
1606131599.588,-291.504,-62.012,-47.852,-817.383,0.000
1606131599.592,-191.895,-46.875,-38.574,-596.191,0.000
1606131599.596,119.629,-3.906,-13.672,385.742,0.000
1606131599.600,222.168,3.906,-10.742,807.129,0.000
1606131599.604,-21.484,-31.250,-26.367,105.469,0.000
1606131599.607,-284.180,-59.082,-36.133,-757.324,0.000
1606131599.611,-240.234,-57.617,-40.527,-694.336,0.000
1606131599.615,73.242,-20.996,-21.484,272.461,0.000
1606131599.619,226.562,-0.977,-6.836,828.613,0.000
1606131599.623,17.578,-26.855,-17.090,237.305,0.000
1606131599.627,-263.672,-49.316,-30.273,-692.383,0.000
1606131599.631,-252.441,-42.480,-29.785,-765.137,0.000
1606131599.635,51.758,-25.391,-16.113,166.504,0.000
1606131599.639,233.398,-12.207,1.465,821.777,0.000
1606131599.643,60.059,-21.973,-11.719,362.305,0.000
1606131599.647,-237.793,-38.574,-33.203,-600.586,0.000
1606131599.650,-279.297,-41.992,-36.133,-823.730,0.000
1606131599.654,6.836,-19.531,-20.020,45.410,0.000
1606131599.658,226.074,-9.277,-9.766,789.062,0.000
1606131599.662,94.238,-27.344,-21.973,464.844,0.000
1606131599.666,-213.379,-55.664,-33.203,-506.348,0.000
1606131599.670,-280.762,-66.406,-37.109,-851.074,0.000
1606131599.674,-5.859,-25.879,-23.438,-67.871,0.000
1606131599.678,225.098,3.906,-18.066,748.047,0.000
1606131599.682,131.348,-12.207,-37.598,555.664,0.000
1606131599.686,-162.598,-24.902,-59.082,-416.016,0.000
1606131599.690,-295.410,-28.320,-59.082,-891.602,0.000
1606131599.693,-74.219,-4.883,-38.086,-233.887,0.000
1606131599.697,207.520,37.109,-32.227,654.785,0.000
1606131599.701,166.016,13.672,-43.945,625.977,0.000
1606131599.705,-142.090,-29.785,-63.477,-327.148,0.000
1606131599.709,-291.504,-28.320,-74.707,-908.203,0.000
1606131599.713,-94.727,-5.859,-47.363,-359.375,0.000
1606131599.717,194.824,10.742,-24.414,588.379,0.000
1606131599.721,206.543,8.301,-44.922,714.844,0.000
1606131599.725,-92.773,-19.043,-67.383,-196.289,0.000
1606131599.729,-290.527,-40.527,-75.684,-890.625,0.000
1606131599.732,-128.906,-20.020,-56.641,-475.586,0.000
1606131599.736,178.711,17.578,-35.156,506.348,0.000
1606131599.740,227.051,8.789,-37.109,767.578,0.000
1606131599.744,-57.617,-23.926,-49.805,-76.172,0.000
1606131599.748,-286.621,-41.504,-68.359,-851.074,0.000
1606131599.752,-170.410,-23.438,-58.105,-575.195,0.000
1606131599.756,144.531,-2.441,-38.086,410.645,0.000
1606131599.760,244.141,-6.836,-34.668,803.711,0.000
1606131599.764,-16.113,-20.996,-42.969,63.965,0.000
1606131599.768,-271.484,-42.969,-61.523,-785.156,0.000
1606131599.772,-196.289,-43.945,-56.152,-663.086,0.000
1606131599.775,107.422,-9.766,-31.738,319.824,0.000
1606131599.779,233.887,2.930,-24.414,829.590,0.000
1606131599.783,13.672,-24.902,-44.434,187.500,0.000
1606131599.787,-253.418,-51.758,-62.500,-724.121,0.000
1606131599.791,-234.863,-48.828,-54.688,-742.188,0.000
1606131599.795,65.918,-1.465,-31.250,204.102,0.000
1606131599.799,241.699,21.484,-21.484,815.918,0.000
1606131599.803,49.316,-20.996,-36.133,304.199,0.000
1606131599.807,-243.652,-51.270,-52.246,-639.648,0.000
1606131599.811,-260.254,-46.387,-44.922,-804.199,0.000
1606131599.815,34.180,-25.391,-23.926,91.797,0.000
1606131599.818,233.887,-13.672,-23.438,805.176,0.000
1606131599.822,83.984,-20.508,-32.715,432.129,0.000
1606131599.826,-215.820,-34.668,-49.316,-531.738,0.000
1606131599.830,-273.926,-43.457,-52.734,-839.355,0.000
1606131599.834,3.906,-20.020,-32.715,-28.320,0.000
1606131599.838,234.863,-2.930,-19.043,764.648,0.000
1606131599.842,129.395,-24.902,-26.855,529.785,0.000
1606131599.846,-185.547,-40.039,-46.875,-444.336,0.000
1606131599.850,-294.434,-37.598,-50.293,-872.070,0.000
1606131599.854,-50.293,-24.902,-33.203,-166.504,0.000
1606131599.857,201.660,-10.742,-22.949,698.242,0.000
1606131599.861,148.926,-18.555,-25.879,619.141,0.000
1606131599.865,-160.645,-41.504,-41.016,-346.680,0.000
1606131599.869,-303.223,-52.246,-47.363,-890.137,0.000
1606131599.873,-84.473,-37.109,-25.879,-283.203,0.000
1606131599.877,195.312,2.930,-10.254,645.996,0.000
1606131599.881,187.500,0.000,-18.066,700.684,0.000
1606131599.885,-114.746,-33.203,-35.645,-234.375,0.000
1606131599.889,-294.434,-50.781,-40.527,-874.512,0.000
1606131599.893,-119.629,-39.551,-30.762,-405.762,0.000
1606131599.897,175.293,-17.578,-18.555,546.875,0.000
1606131599.900,205.078,-15.137,-18.555,744.629,0.000
1606131599.904,-87.891,-37.109,-36.621,-127.930,0.000
1606131599.908,-296.387,-59.082,-46.387,-858.887,0.000
1606131599.912,-159.668,-38.574,-32.227,-520.996,0.000
1606131599.916,155.273,-7.324,-7.324,460.938,0.000
1606131599.920,236.328,-8.789,-1.465,800.781,0.000
1606131599.924,-35.645,-31.738,-22.461,14.160,0.000
1606131599.928,-278.809,-57.129,-36.621,-801.758,0.000
1606131599.932,-194.824,-49.316,-38.574,-616.211,0.000
1606131599.936,116.699,-13.184,-25.391,365.723,0.000
1606131599.940,237.305,-0.977,-11.719,834.473,0.000
1606131599.943,-3.906,-31.738,-21.973,150.391,0.000
1606131599.947,-271.973,-54.688,-39.062,-733.398,0.000
1606131599.951,-227.051,-43.945,-33.203,-696.289,0.000
1606131599.955,84.473,-20.020,-8.301,264.160,0.000
1606131599.959,242.188,-13.184,1.465,837.402,0.000
1606131599.963,38.086,-36.133,-17.090,274.414,0.000
1606131599.967,-249.512,-47.363,-46.875,-655.762,0.000
1606131599.971,-256.836,-53.223,-47.852,-772.949,0.000
1606131599.975,46.387,-20.996,-20.508,143.555,0.000
1606131599.979,235.352,16.602,-3.418,819.336,0.000
1606131599.982,68.359,-11.230,-14.160,381.836,0.000
1606131599.986,-229.004,-45.898,-35.156,-582.520,0.000
1606131599.990,-273.438,-48.340,-30.762,-828.613,0.000
1606131599.994,11.230,-22.461,-14.648,20.020,0.000
1606131599.998,233.887,-1.953,-8.789,782.227,0.000
1606131600.002,113.770,-14.648,-6.836,494.141,0.000
1606131600.006,-193.848,-47.363,-32.227,-480.957,0.000
1606131600.010,-280.762,-60.059,-47.363,-859.375,0.000
1606131600.014,-23.926,-16.602,-21.484,-104.004,0.000
1606131600.018,225.098,2.441,-4.395,732.422,0.000
1606131600.022,138.184,-28.320,-23.926,577.148,0.000
1606131600.025,-171.387,-40.527,-36.133,-395.020,0.000
1606131600.029,-298.340,-53.223,-43.457,-887.695,0.000
1606131600.033,-80.078,-43.457,-38.574,-245.605,0.000
1606131600.037,194.824,-22.461,-18.066,657.227,0.000
1606131600.041,165.527,-26.855,-27.344,656.250,0.000
1606131600.045,-141.113,-43.457,-38.086,-283.691,0.000
1606131600.049,-306.152,-54.688,-38.574,-882.324,0.000
1606131600.053,-114.746,-41.504,-30.273,-360.352,0.000
1606131600.057,186.035,-7.812,-4.883,589.355,0.000
1606131600.061,221.680,1.953,1.953,752.930,0.000
1606131600.065,-75.684,-28.320,-29.785,-137.695,0.000
1606131600.068,-303.711,-56.152,-52.246,-862.793,0.000
1606131600.072,-165.039,-48.828,-37.598,-485.840,0.000
1606131600.076,144.043,0.488,-14.160,493.652,0.000
1606131600.080,207.520,4.395,-8.301,778.320,0.000
1606131600.084,-68.848,-37.598,-27.832,-49.805,0.000
1606131600.088,-306.641,-54.688,-37.109,-834.961,0.000
1606131600.092,-195.801,-39.551,-9.277,-575.684,0.000
1606131600.096,123.535,-16.113,11.230,406.738,0.000
1606131600.100,224.121,-20.020,5.371,813.965,0.000
1606131600.104,-25.879,-37.109,-23.438,90.820,0.000
1606131600.107,-284.180,-63.477,-47.363,-768.066,0.000
1606131600.111,-220.703,-62.500,-36.133,-665.527,0.000
1606131600.115,94.727,-22.949,-8.789,316.406,0.000
1606131600.119,228.516,-20.508,-0.488,839.844,0.000
1606131600.123,17.090,-41.504,-14.648,230.957,0.000
1606131600.127,-256.836,-57.617,-33.203,-682.129,0.000
1606131600.131,-245.605,-49.316,-34.668,-741.211,0.000
1606131600.135,63.965,-11.719,-14.648,202.148,0.000
1606131600.139,244.141,1.953,-2.441,834.961,0.000
1606131600.143,61.523,-18.555,-21.973,336.914,0.000
1606131600.147,-230.957,-48.340,-42.969,-613.770,0.000
1606131600.150,-258.301,-57.129,-42.969,-800.293,0.000
1606131600.154,35.156,-11.719,-18.555,89.844,0.000
1606131600.158,243.652,17.578,-1.953,814.941,0.000
1606131600.162,96.680,-32.227,-13.184,457.031,0.000
1606131600.166,-213.379,-57.617,-36.621,-520.996,0.000
1606131600.170,-276.855,-49.316,-38.086,-844.238,0.000
1606131600.174,-1.465,-40.039,-18.066,-41.992,0.000
1606131600.178,228.516,-15.137,-12.207,762.207,0.000
1606131600.182,133.789,-11.719,-17.578,554.688,0.000
1606131600.186,-167.480,-32.715,-28.320,-416.016,0.000
1606131600.190,-279.297,-39.551,-38.086,-865.723,0.000
1606131600.193,-41.992,-28.320,-30.762,-176.758,0.000
1606131600.197,223.145,-11.230,-11.230,704.590,0.000
1606131600.201,174.805,-18.555,-17.578,646.484,0.000
1606131600.205,-135.742,-44.434,-32.715,-316.406,0.000
1606131600.209,-286.133,-54.688,-30.762,-875.977,0.000
1606131600.213,-83.496,-30.273,-20.996,-300.781,0.000
1606131600.217,199.707,11.230,-9.277,631.836,0.000
1606131600.221,189.453,-4.395,-10.742,717.773,0.000
1606131600.225,-122.559,-47.852,-34.180,-210.938,0.000
1606131600.229,-313.965,-60.059,-57.617,-878.906,0.000
1606131600.232,-144.043,-42.969,-41.992,-430.664,0.000
1606131600.236,165.527,-16.113,-6.348,539.062,0.000
1606131600.240,208.984,-18.066,-4.883,769.043,0.000
1606131600.244,-83.008,-38.574,-29.785,-90.332,0.000
1606131600.248,-284.668,-47.852,-46.875,-843.262,0.000
1606131600.252,-151.855,-42.969,-35.645,-525.879,0.000
1606131600.256,143.555,5.859,-5.371,453.125,0.000
1606131600.260,229.980,14.648,0.000,810.059,0.000
1606131600.264,-30.273,-39.551,-29.297,36.621,0.000
1606131600.268,-277.344,-54.199,-50.293,-795.898,0.000
1606131600.272,-193.359,-40.039,-44.922,-626.465,0.000
1606131600.275,119.629,-17.578,-15.625,347.168,0.000
1606131600.279,244.629,-14.648,0.977,828.125,0.000
1606131600.283,6.348,-34.668,-14.648,165.039,0.000
1606131600.287,-267.578,-42.969,-27.832,-737.305,0.000
1606131600.291,-228.516,-33.691,-25.879,-715.820,0.000
1606131600.295,78.613,4.883,-16.602,247.559,0.000
1606131600.299,240.234,14.648,-10.254,841.797,0.000
1606131600.303,42.969,-24.414,-24.414,301.270,0.000
1606131600.307,-248.047,-50.293,-44.922,-642.090,0.000
1606131600.311,-255.859,-53.711,-40.039,-770.508,0.000
1606131600.315,41.504,-23.926,-20.020,137.695,0.000
1606131600.318,234.375,-8.301,-3.418,822.754,0.000
1606131600.322,76.660,-24.902,-8.301,407.227,0.000
1606131600.326,-219.238,-41.016,-29.297,-557.617,0.000
1606131600.330,-273.926,-42.480,-25.879,-833.008,0.000
1606131600.334,10.254,-20.996,-3.418,13.672,0.000
1606131600.338,243.164,0.000,-4.395,801.270,0.000
1606131600.342,125.488,-7.812,-21.973,520.996,0.000
1606131600.346,-190.918,-40.039,-40.527,-465.820,0.000
1606131600.350,-288.086,-51.270,-42.480,-864.258,0.000
1606131600.354,-34.180,-28.809,-24.902,-124.512,0.000
1606131600.357,217.773,9.766,-4.395,731.934,0.000
1606131600.361,151.367,0.000,-8.789,621.582,0.000
1606131600.365,-164.551,-41.504,-37.109,-367.188,0.000
1606131600.369,-296.875,-41.992,-41.504,-888.672,0.000
1606131600.373,-71.777,-19.043,-27.832,-250.000,0.000
1606131600.377,208.984,-1.465,-20.508,665.039,0.000
1606131600.381,188.965,-10.742,-15.625,694.336,0.000
1606131600.385,-127.930,-44.922,-34.180,-256.836,0.000
1606131600.389,-306.152,-61.523,-43.457,-881.836,0.000
1606131600.393,-129.395,-42.480,-23.926,-375.000,0.000
1606131600.397,161.621,-13.184,-10.742,569.824,0.000
1606131600.400,183.105,-22.461,-13.672,726.074,0.000
1606131600.404,-114.746,-49.316,-34.668,-168.945,0.000
1606131600.408,-322.266,-70.801,-43.457,-881.836,0.000
1606131600.412,-172.852,-62.012,-27.832,-500.977,0.000
1606131600.416,141.602,-29.297,-6.348,489.746,0.000
1606131600.420,206.055,-16.113,-7.324,791.016,0.000
1606131600.424,-65.918,-36.133,-26.855,-25.391,0.000
1606131600.428,-295.898,-52.734,-39.551,-825.684,0.000
1606131600.432,-195.801,-41.016,-38.086,-604.492,0.000
1606131600.436,118.164,1.465,-15.625,388.672,0.000
1606131600.440,227.051,4.395,-7.812,818.848,0.000
1606131600.443,-19.043,-35.645,-26.855,97.168,0.000
1606131600.447,-278.809,-49.805,-47.363,-772.949,0.000
1606131600.451,-217.773,-38.086,-32.715,-684.082,0.000
1606131600.455,97.168,-17.578,-5.371,291.504,0.000
1606131600.459,244.629,-4.395,-1.953,836.914,0.000
1606131600.463,24.414,-27.344,-26.855,234.863,0.000
1606131600.467,-267.578,-62.988,-53.711,-700.195,0.000
1606131600.471,-250.488,-55.664,-49.316,-762.207,0.000
1606131600.475,58.594,-25.879,-22.461,177.734,0.000
1606131600.479,233.398,-15.137,-13.184,823.730,0.000
1606131600.482,51.758,-25.391,-28.320,354.492,0.000
1606131600.486,-241.699,-43.945,-46.875,-608.398,0.000
1606131600.490,-269.531,-44.434,-42.480,-821.289,0.000
1606131600.494,22.949,-20.020,-19.043,52.246,0.000
1606131600.498,238.770,-5.859,-10.742,799.316,0.000
1606131600.502,107.910,-20.020,-21.973,472.168,0.000
1606131600.506,-202.637,-37.598,-39.551,-508.301,0.000
1606131600.510,-283.691,-34.180,-46.875,-854.004,0.000
1606131600.514,-13.672,-13.672,-31.250,-60.547,0.000
1606131600.518,225.098,-3.906,-14.648,764.648,0.000
1606131600.522,134.766,-21.484,-14.648,569.336,0.000
1606131600.525,-169.922,-42.480,-27.832,-405.762,0.000
1606131600.529,-286.621,-49.316,-37.598,-866.699,0.000
1606131600.533,-53.711,-25.391,-24.414,-185.547,0.000
1606131600.537,211.914,23.438,-5.859,708.008,0.000
1606131600.541,167.480,7.812,-9.277,652.832,0.000
1606131600.545,-149.414,-39.551,-38.086,-317.383,0.000
1606131600.549,-307.617,-50.293,-52.734,-893.555,0.000
1606131600.553,-103.027,-31.738,-36.133,-332.031,0.000
1606131600.557,185.059,-10.254,-14.648,605.469,0.000
1606131600.561,194.824,-18.066,-16.113,714.844,0.000
1606131600.565,-103.027,-37.109,-41.504,-203.613,0.000
1606131600.568,-288.574,-49.805,-55.664,-879.883,0.000
1606131600.572,-117.676,-35.156,-39.551,-439.941,0.000
1606131600.576,181.641,1.465,-14.648,531.250,0.000
1606131600.580,217.285,-2.930,-22.461,764.648,0.000
1606131600.584,-75.684,-42.480,-52.734,-94.238,0.000
1606131600.588,-298.340,-67.383,-60.547,-857.422,0.000
1606131600.592,-183.594,-58.105,-44.922,-566.895,0.000
1606131600.596,116.211,-35.156,-28.809,416.016,0.000
1606131600.600,204.590,-33.203,-21.973,793.457,0.000
1606131600.604,-51.270,-43.945,-41.016,32.227,0.000
1606131600.607,-295.410,-50.781,-58.105,-803.711,0.000
1606131600.611,-205.566,-45.410,-31.250,-648.438,0.000
1606131600.615,115.234,-16.602,0.000,330.566,0.000
1606131600.619,236.816,-9.766,1.953,818.359,0.000
1606131600.623,9.277,-37.598,-21.484,180.664,0.000
1606131600.627,-263.672,-58.105,-50.293,-722.168,0.000
1606131600.631,-236.328,-51.270,-41.992,-730.957,0.000
1606131600.635,72.754,-7.324,-13.672,226.074,0.000
1606131600.639,241.699,12.207,-5.371,832.031,0.000
1606131600.643,51.758,-20.508,-23.926,306.152,0.000
1606131600.647,-242.676,-40.039,-43.945,-642.090,0.000
1606131600.650,-255.859,-38.086,-38.574,-791.504,0.000
1606131600.654,43.457,-19.531,-15.625,118.164,0.000
1606131600.658,233.887,-12.207,-7.324,819.336,0.000
1606131600.662,79.590,-28.809,-18.066,419.922,0.000
1606131600.666,-219.727,-45.410,-37.109,-548.340,0.000
1606131600.670,-284.180,-45.898,-48.340,-841.797,0.000
1606131600.674,-5.859,-26.367,-36.621,-23.438,0.000
1606131600.678,229.980,-15.625,-13.672,765.137,0.000
1606131600.682,129.883,-20.996,-6.348,520.996,0.000
1606131600.686,-177.246,-39.551,-30.762,-455.078,0.000
1606131600.690,-285.156,-47.363,-37.598,-876.953,0.000
1606131600.693,-32.715,-20.508,-9.277,-142.090,0.000
1606131600.697,228.027,-9.277,11.719,728.516,0.000
1606131600.701,157.227,-21.484,-8.789,619.141,0.000
1606131600.705,-158.691,-38.574,-41.504,-360.840,0.000
1606131600.709,-294.922,-47.852,-48.340,-894.531,0.000
1606131600.713,-79.102,-24.902,-26.367,-276.367,0.000
1606131600.717,196.289,1.465,-5.859,648.438,0.000
1606131600.721,174.805,-10.742,-13.672,690.430,0.000
1606131600.725,-134.277,-37.109,-32.715,-254.395,0.000
1606131600.729,-311.035,-53.711,-39.551,-895.508,0.000
1606131600.732,-128.418,-31.738,-28.809,-400.879,0.000
1606131600.736,171.387,-2.930,-12.207,562.012,0.000
1606131600.740,206.055,-4.883,-13.184,746.094,0.000
1606131600.744,-89.355,-29.297,-36.133,-139.648,0.000
1606131600.748,-296.875,-54.688,-44.922,-862.793,0.000
1606131600.752,-149.414,-42.480,-27.832,-506.836,0.000
1606131600.756,156.250,-11.230,-2.930,473.633,0.000
1606131600.760,228.516,-3.906,-1.465,800.781,0.000
1606131600.764,-47.852,-26.855,-30.273,-2.441,0.000
1606131600.768,-290.527,-48.340,-46.387,-817.871,0.000
1606131600.772,-189.453,-32.227,-41.504,-612.305,0.000
1606131600.775,120.117,7.812,-23.438,367.188,0.000
1606131600.779,226.074,-5.371,-11.719,814.941,0.000
1606131600.783,-20.996,-39.551,-23.926,114.258,0.000
1606131600.787,-283.691,-50.781,-43.945,-763.672,0.000
1606131600.791,-233.398,-52.246,-42.480,-702.148,0.000
1606131600.795,77.637,-24.414,-16.602,265.137,0.000
1606131600.799,224.121,-14.648,-11.719,816.406,0.000
1606131600.803,15.625,-37.109,-28.320,229.004,0.000
1606131600.807,-258.301,-44.434,-38.574,-686.035,0.000
1606131600.811,-249.023,-39.062,-40.039,-765.625,0.000
1606131600.815,51.758,-7.812,-17.578,155.762,0.000
1606131600.818,232.910,16.602,1.465,812.988,0.000
1606131600.822,60.059,-18.555,-13.672,354.492,0.000
1606131600.826,-234.863,-53.711,-38.086,-604.980,0.000
1606131600.830,-277.344,-54.688,-39.062,-833.008,0.000
1606131600.834,7.324,-28.320,-20.996,26.367,0.000
1606131600.838,228.516,-10.254,-11.230,785.645,0.000
1606131600.842,107.422,-20.020,-16.602,473.633,0.000
1606131600.846,-197.754,-43.457,-33.691,-502.441,0.000
1606131600.850,-294.434,-57.129,-41.992,-864.746,0.000
1606131600.854,-36.133,-35.645,-27.344,-87.891,0.000
1606131600.857,218.262,-12.207,-14.160,752.930,0.000
1606131600.861,139.160,-26.367,-26.367,584.473,0.000
1606131600.865,-166.992,-50.293,-47.363,-393.066,0.000
1606131600.869,-283.691,-47.852,-48.340,-874.512,0.000
1606131600.873,-55.176,-17.578,-28.809,-213.867,0.000
1606131600.877,205.078,-3.906,-12.695,666.504,0.000
1606131600.881,171.387,-5.859,-17.578,643.555,0.000
1606131600.885,-134.277,-22.949,-43.457,-306.152,0.000
1606131600.889,-303.711,-41.504,-56.641,-894.043,0.000
1606131600.893,-110.840,-25.391,-39.551,-346.680,0.000
1606131600.897,173.828,-7.812,-27.344,580.078,0.000
1606131600.900,181.152,-16.602,-29.297,699.707,0.000
1606131600.904,-111.328,-46.875,-42.480,-193.848,0.000
1606131600.908,-302.246,-43.945,-58.105,-876.953,0.000
1606131600.912,-145.020,-20.508,-42.969,-464.355,0.000
1606131600.916,154.785,2.441,-19.531,509.766,0.000
1606131600.920,206.543,7.324,-15.625,773.438,0.000
1606131600.924,-72.266,-27.832,-31.250,-62.012,0.000
1606131600.928,-298.828,-53.223,-49.316,-837.891,0.000
1606131600.932,-182.129,-40.527,-32.715,-571.777,0.000
1606131600.936,133.789,-17.578,-14.160,417.969,0.000
1606131600.940,227.051,-13.184,-21.973,816.895,0.000
1606131600.943,-31.250,-30.762,-39.551,66.406,0.000
1606131600.947,-281.738,-53.711,-62.012,-782.715,0.000
1606131600.951,-204.102,-42.480,-48.828,-641.113,0.000
1606131600.955,104.492,0.488,-14.160,336.426,0.000
1606131600.959,237.793,6.836,-6.836,835.938,0.000
1606131600.963,18.555,-31.738,-20.508,201.660,0.000
1606131600.967,-254.883,-51.758,-42.969,-698.730,0.000
1606131600.971,-230.957,-44.434,-43.457,-718.750,0.000
1606131600.975,76.660,-20.020,-15.625,227.539,0.000
1606131600.979,252.930,-0.977,5.371,844.238,0.000
1606131600.982,62.012,-17.578,-15.137,333.008,0.000
1606131600.986,-234.863,-43.457,-49.316,-614.746,0.000
1606131600.990,-250.488,-51.270,-51.758,-785.645,0.000
1606131600.994,44.434,-21.973,-27.832,100.586,0.000
1606131600.998,244.629,0.488,-12.207,809.570,0.000
1606131601.002,96.680,-22.949,-29.297,430.176,0.000
1606131601.006,-211.426,-47.363,-55.664,-551.758,0.000
1606131601.010,-272.949,-57.129,-58.594,-854.492,0.000
1606131601.014,9.277,-20.996,-36.621,-28.809,0.000
1606131601.018,244.629,21.484,-16.602,775.879,0.000
1606131601.022,137.207,-5.859,-30.762,541.992,0.000
1606131601.025,-174.805,-41.016,-62.500,-442.383,0.000
1606131601.029,-275.391,-46.387,-50.781,-861.328,0.000
1606131601.033,-29.297,-31.738,-17.578,-143.555,0.000
1606131601.037,215.820,-25.879,-8.301,713.867,0.000
1606131601.041,150.391,-30.762,-22.461,630.371,0.000
1606131601.045,-157.227,-31.250,-40.527,-331.055,0.000
1606131601.049,-300.781,-44.434,-41.992,-878.906,0.000
1606131601.053,-83.008,-20.996,-25.391,-277.344,0.000
1606131601.057,199.219,21.484,-7.324,643.555,0.000
1606131601.061,189.941,-0.488,-6.836,706.543,0.000
1606131601.065,-113.770,-34.668,-27.344,-223.145,0.000
1606131601.068,-296.875,-58.594,-39.551,-870.117,0.000
1606131601.072,-121.094,-45.410,-26.367,-397.949,0.000
1606131601.076,178.223,-7.324,-11.719,561.523,0.000
1606131601.080,215.820,-10.742,-11.719,759.766,0.000
1606131601.084,-78.613,-37.109,-28.809,-123.047,0.000
1606131601.088,-288.574,-48.340,-44.434,-858.398,0.000
1606131601.092,-149.414,-33.691,-35.645,-513.672,0.000
1606131601.096,156.738,8.789,-15.137,466.797,0.000
1606131601.100,230.469,9.277,-11.719,799.316,0.000
1606131601.104,-37.109,-28.809,-36.133,12.207,0.000
1606131601.107,-270.020,-34.180,-45.410,-798.340,0.000
1606131601.111,-182.129,-31.738,-34.668,-613.770,0.000
1606131601.115,131.836,-11.719,-18.555,367.676,0.000
1606131601.119,251.953,1.953,-11.719,827.637,0.000
1606131601.123,7.812,-18.555,-27.344,134.766,0.000
1606131601.127,-258.789,-45.898,-40.039,-749.512,0.000
1606131601.131,-217.285,-49.805,-40.039,-708.008,0.000
1606131601.135,93.750,-13.184,-27.344,258.301,0.000
1606131601.139,246.582,4.883,-19.043,828.613,0.000
1606131601.143,41.504,-21.973,-32.715,255.859,0.000
1606131601.147,-245.605,-46.875,-51.270,-675.781,0.000
1606131601.150,-260.742,-56.152,-40.039,-779.297,0.000
1606131601.154,41.016,-24.902,-12.695,144.531,0.000
1606131601.158,239.746,-5.371,-4.883,824.219,0.000
1606131601.162,77.637,-30.762,-17.578,382.812,0.000
1606131601.166,-229.004,-52.734,-47.363,-587.891,0.000
1606131601.170,-277.344,-55.176,-47.363,-833.008,0.000
1606131601.174,12.207,-34.180,-19.043,32.715,0.000
1606131601.178,222.656,-14.160,-7.324,767.578,0.000
1606131601.182,99.121,-26.367,-14.160,457.031,0.000
1606131601.186,-197.754,-46.875,-29.297,-479.980,0.000
1606131601.190,-289.062,-55.664,-37.109,-851.074,0.000
1606131601.193,-31.250,-31.738,-20.996,-92.773,0.000
1606131601.197,211.426,15.137,-9.277,737.793,0.000
1606131601.201,126.465,-1.465,-16.113,576.660,0.000
1606131601.205,-181.641,-49.805,-35.645,-393.555,0.000
1606131601.209,-298.340,-61.035,-51.758,-882.812,0.000
1606131601.213,-62.988,-44.434,-36.133,-233.887,0.000
1606131601.217,214.355,-15.137,-17.090,668.457,0.000
1606131601.221,183.105,-13.184,-16.602,665.527,0.000
1606131601.225,-130.371,-41.016,-35.156,-286.621,0.000
1606131601.229,-295.410,-59.082,-41.504,-886.719,0.000
1606131601.232,-102.051,-38.086,-30.273,-349.609,0.000
1606131601.236,183.105,-10.254,-19.531,595.703,0.000
1606131601.240,192.383,-13.672,-24.902,727.539,0.000
1606131601.244,-104.492,-34.180,-42.480,-177.734,0.000
1606131601.248,-293.945,-52.246,-54.199,-868.652,0.000
1606131601.252,-134.766,-38.574,-42.969,-469.238,0.000
1606131601.256,168.945,-11.230,-12.207,506.836,0.000
1606131601.260,229.492,-19.043,-0.977,792.480,0.000
1606131601.264,-54.199,-43.945,-21.973,-41.992,0.000
1606131601.268,-287.598,-48.828,-40.527,-831.543,0.000
1606131601.272,-178.223,-36.133,-45.410,-583.496,0.000
1606131601.275,134.277,-9.766,-32.715,397.949,0.000
1606131601.279,231.934,-5.859,-28.809,805.176,0.000
1606131601.283,-24.902,-29.297,-42.969,62.500,0.000
1606131601.287,-275.391,-49.805,-54.199,-791.504,0.000
1606131601.291,-201.660,-43.945,-45.410,-678.223,0.000
1606131601.295,115.234,-6.348,-19.043,302.246,0.000
1606131601.299,253.418,7.812,-16.113,832.520,0.000
1606131601.303,35.645,-20.508,-31.250,208.984,0.000
1606131601.307,-243.164,-45.410,-44.922,-711.426,0.000
1606131601.311,-225.586,-39.551,-42.969,-748.047,0.000
1606131601.315,81.543,-13.672,-20.508,199.219,0.000
1606131601.318,253.906,0.488,-11.230,824.219,0.000
1606131601.322,68.848,-19.043,-30.762,333.008,0.000
1606131601.326,-231.445,-53.711,-52.246,-617.676,0.000
1606131601.330,-263.184,-55.176,-51.270,-809.570,0.000
1606131601.334,26.855,-20.996,-32.227,71.777,0.000
1606131601.338,234.375,-8.789,-17.090,796.875,0.000
1606131601.342,94.727,-27.832,-27.344,439.453,0.000
1606131601.346,-213.379,-47.852,-52.734,-531.250,0.000
1606131601.350,-284.180,-51.270,-55.664,-841.797,0.000
1606131601.354,-9.766,-27.832,-16.602,-32.227,0.000
1606131601.357,224.121,-8.789,-1.953,773.438,0.000
1606131601.361,124.512,-20.020,-23.926,555.176,0.000
1606131601.365,-189.453,-52.246,-40.039,-434.570,0.000
1606131601.369,-300.781,-66.406,-47.363,-879.883,0.000
1606131601.373,-44.922,-30.762,-21.484,-160.645,0.000
1606131601.377,219.238,1.465,2.441,711.914,0.000
1606131601.381,159.180,-10.742,-9.766,626.953,0.000
1606131601.385,-156.250,-40.039,-28.320,-343.262,0.000
1606131601.389,-307.617,-53.711,-37.598,-896.973,0.000
1606131601.393,-107.910,-42.969,-34.668,-312.012,0.000
1606131601.397,172.363,-20.020,-19.043,611.816,0.000
1606131601.400,169.922,-14.648,-15.625,687.012,0.000
1606131601.404,-133.789,-50.293,-36.133,-241.699,0.000
1606131601.408,-312.988,-65.918,-43.457,-895.508,0.000
1606131601.412,-136.719,-38.086,-25.879,-432.617,0.000
1606131601.416,153.809,-19.531,-12.695,527.344,0.000
1606131601.420,193.848,-12.695,-10.254,750.977,0.000
1606131601.424,-90.332,-33.691,-25.879,-113.770,0.000
1606131601.428,-311.523,-61.523,-46.875,-865.723,0.000
1606131601.432,-178.711,-42.480,-38.574,-537.109,0.000
1606131601.436,137.695,-8.301,-10.742,451.172,0.000
1606131601.440,220.703,-16.602,-5.859,802.246,0.000
1606131601.443,-44.434,-40.039,-27.344,22.949,0.000
1606131601.447,-285.156,-51.270,-42.480,-805.664,0.000
1606131601.451,-194.336,-41.016,-33.691,-628.418,0.000
1606131601.455,129.883,-11.230,-16.113,364.746,0.000
1606131601.459,248.047,-3.906,-9.277,836.914,0.000
1606131601.463,-10.742,-32.715,-20.020,144.531,0.000
1606131601.467,-284.668,-54.199,-33.203,-746.582,0.000
1606131601.471,-236.328,-55.664,-25.879,-708.496,0.000
1606131601.475,73.730,-25.391,-6.348,248.535,0.000
1606131601.479,226.562,1.953,-4.883,826.660,0.000
1606131601.482,19.043,-30.762,-14.160,265.137,0.000
1606131601.486,-265.137,-59.570,-20.996,-674.316,0.000
1606131601.490,-270.508,-56.641,-24.414,-794.922,0.000
1606131601.494,26.855,-36.621,-15.137,115.723,0.000
1606131601.498,221.680,-23.438,-4.883,800.781,0.000
1606131601.502,61.523,-33.691,-15.137,372.070,0.000
1606131601.506,-237.793,-50.781,-42.480,-592.773,0.000
1606131601.510,-287.109,-51.270,-43.945,-839.355,0.000
1606131601.514,-4.883,-25.391,-15.625,16.602,0.000
1606131601.518,214.844,-8.789,-4.395,779.297,0.000
1606131601.522,98.145,-23.438,-16.602,484.863,0.000
1606131601.525,-198.730,-46.387,-36.621,-488.281,0.000
1606131601.529,-285.156,-57.617,-45.898,-869.629,0.000
1606131601.533,-29.297,-41.016,-29.297,-111.816,0.000
1606131601.537,220.215,-22.461,-13.184,737.305,0.000
1606131601.541,139.648,-35.645,-22.949,588.379,0.000
1606131601.545,-173.828,-51.270,-45.410,-388.184,0.000
1606131601.549,-298.340,-49.805,-49.316,-886.230,0.000
1606131601.553,-73.242,-33.203,-32.715,-244.629,0.000
1606131601.557,201.660,-15.137,-10.254,667.480,0.000
1606131601.561,174.316,-15.137,-12.207,675.293,0.000
1606131601.565,-133.301,-32.715,-39.551,-270.996,0.000
1606131601.568,-301.270,-50.293,-48.828,-883.789,0.000
1606131601.572,-110.840,-33.691,-28.809,-369.629,0.000
1606131601.576,181.152,1.953,-14.648,579.102,0.000
1606131601.580,197.754,-7.812,-15.137,735.840,0.000
1606131601.584,-95.703,-42.480,-34.668,-154.785,0.000
1606131601.588,-299.805,-51.270,-45.898,-869.629,0.000
1606131601.592,-159.668,-29.297,-28.320,-486.328,0.000
1606131601.596,145.996,-3.418,5.371,498.047,0.000
1606131601.600,201.660,-10.742,7.812,778.320,0.000
1606131601.604,-84.961,-40.039,-26.367,-58.594,0.000
1606131601.607,-322.754,-61.523,-46.387,-848.145,0.000
