timestamps,TP9,AF7,AF8,TP10,Right AUX
1606130644.276,0.000,0.000,0.000,0.000,0.000
1606130644.280,-0.488,0.000,0.000,0.000,0.000
1606130644.284,-3.418,-1.465,-1.465,-6.348,0.000
1606130644.288,7.812,2.441,2.441,15.137,0.000
1606130644.292,-38.086,-15.137,-13.672,-67.871,0.000
1606130644.296,-77.637,-34.180,-27.344,-151.367,0.000
1606130644.299,-7.324,-22.461,-18.066,-1.465,0.000
1606130644.303,36.621,-16.113,-26.367,120.605,0.000
1606130644.307,-3.418,-24.902,-33.691,45.898,0.000
1606130644.311,-73.242,-31.738,-28.320,-119.141,0.000
1606130644.315,-86.914,-27.344,-26.855,-166.016,0.000
1606130644.319,-21.484,-21.484,-21.973,-23.438,0.000
1606130644.323,35.156,-20.508,-16.113,110.840,0.000
1606130644.327,8.789,-28.809,-23.926,55.176,0.000
1606130644.331,-63.965,-25.879,-28.809,-124.512,0.000
1606130644.335,-97.656,-24.414,-24.902,-198.242,0.000
1606130644.339,-55.664,-25.391,-19.043,-84.473,0.000
1606130644.342,-4.883,-20.996,-21.484,55.176,0.000
1606130644.346,-27.344,-16.113,-21.973,40.039,0.000
1606130644.350,-103.516,-18.066,-18.066,-132.324,0.000
1606130644.354,-142.090,-20.508,-15.625,-225.586,0.000
1606130644.358,-108.398,-17.578,-14.160,-128.906,0.000
1606130644.362,-50.293,-14.648,-5.371,13.184,0.000
1606130644.366,-67.383,-6.348,2.441,1.953,0.000
1606130644.370,-152.344,-9.766,5.371,-172.363,0.000
1606130644.374,-198.730,-20.996,4.395,-274.902,0.000
1606130644.378,-166.504,-18.066,6.836,-198.730,0.000
1606130644.381,-101.074,-7.812,7.812,-44.922,0.000
1606130644.385,-105.957,-12.695,-2.930,-26.367,0.000
1606130644.389,-174.805,-18.066,-0.977,-175.781,0.000
1606130644.393,-222.656,2.930,1.953,-287.598,0.000
1606130644.397,-204.102,14.160,0.977,-244.141,0.000
1606130644.401,-145.508,-6.836,6.836,-95.215,0.000
1606130644.405,-127.930,-9.277,7.324,-40.527,0.000
1606130644.409,-192.871,-10.254,-2.930,-178.711,0.000
1606130644.413,-253.418,-11.719,-9.766,-325.684,0.000
1606130644.417,-230.957,-3.906,-2.441,-295.898,0.000
1606130644.421,-153.809,1.953,-1.465,-125.977,0.000
1606130644.424,-120.605,6.836,-4.395,-45.898,0.000
1606130644.428,-174.316,1.465,-13.672,-159.668,0.000
1606130644.432,-226.562,-1.953,-18.066,-301.758,0.000
1606130644.436,-208.984,6.348,-17.090,-292.969,0.000
1606130644.440,-138.672,10.254,-29.297,-125.977,0.000
1606130644.444,-89.355,3.418,-35.156,-23.926,0.000
1606130644.448,-117.188,-3.418,-34.180,-106.934,0.000
1606130644.452,-171.387,1.953,-30.762,-255.859,0.000
1606130644.456,-165.039,3.418,-35.156,-270.020,0.000
1606130644.460,-95.215,-3.418,-38.086,-99.121,0.000
1606130644.464,-36.133,0.977,-37.109,31.250,0.000
1606130644.467,-53.223,-0.977,-38.086,-20.996,0.000
1606130644.471,-107.422,-5.371,-37.598,-169.434,0.000
1606130644.475,-112.793,-6.836,-51.270,-203.125,0.000
1606130644.479,-47.852,-13.184,-57.129,-52.246,0.000
1606130644.483,20.020,-9.277,-48.340,96.191,0.000
1606130644.487,4.395,-11.719,-44.922,68.359,0.000
1606130644.491,-62.012,-29.297,-54.688,-89.844,0.000
1606130644.495,-73.242,-35.156,-57.129,-150.391,0.000
1606130644.499,-10.254,-30.273,-45.410,-20.020,0.000
1606130644.503,57.617,-24.902,-38.086,135.742,0.000
1606130644.506,56.152,-28.809,-36.621,127.441,0.000
1606130644.510,-1.465,-36.621,-38.574,-24.414,0.000
1606130644.514,-31.250,-41.504,-40.039,-107.422,0.000
1606130644.518,18.555,-39.062,-35.156,0.000,0.000
1606130644.522,92.285,-33.203,-31.738,176.270,0.000
1606130644.526,85.938,-34.180,-32.715,177.734,0.000
1606130644.530,10.742,-44.434,-41.504,12.207,0.000
1606130644.534,-31.250,-55.176,-49.805,-92.285,0.000
1606130644.538,11.719,-52.734,-41.992,-12.207,0.000
1606130644.542,84.961,-44.434,-38.574,146.484,0.000
1606130644.546,92.285,-41.016,-36.621,171.387,0.000
1606130644.549,23.926,-42.969,-36.621,20.020,0.000
1606130644.553,-27.832,-50.781,-41.992,-109.375,0.000
1606130644.557,8.789,-45.898,-35.156,-50.293,0.000
1606130644.561,84.473,-35.645,-28.809,123.047,0.000
1606130644.565,101.562,-32.227,-32.715,172.363,0.000
1606130644.569,41.992,-35.156,-34.180,39.062,0.000
1606130644.573,-24.414,-40.039,-35.156,-100.586,0.000
1606130644.577,-1.465,-40.039,-38.086,-52.734,0.000
1606130644.581,80.078,-36.133,-32.715,125.977,0.000
1606130644.585,96.680,-36.133,-29.785,183.594,0.000
1606130644.589,38.086,-38.086,-34.180,66.406,0.000
1606130644.592,-33.203,-69.336,-41.504,-97.656,0.000
1606130644.596,-26.367,-76.172,-41.504,-102.539,0.000
1606130644.600,56.152,-44.922,-38.574,73.730,0.000
1606130644.604,93.262,-45.410,-38.086,176.270,0.000
1606130644.608,44.434,-41.992,-33.203,73.242,0.000
1606130644.612,-25.879,-37.109,-28.809,-94.238,0.000
1606130644.616,-23.438,-36.133,-27.344,-111.328,0.000
1606130644.620,53.711,-27.344,-22.461,58.105,0.000
1606130644.624,98.633,-26.855,-22.461,174.805,0.000
1606130644.628,58.594,-29.785,-25.879,93.262,0.000
1606130644.631,-17.090,-37.109,-29.297,-82.031,0.000
1606130644.635,-42.969,-46.875,-28.809,-130.859,0.000
1606130644.639,17.090,-38.086,-23.438,13.184,0.000
1606130644.643,78.125,-23.926,-21.973,157.715,0.000
1606130644.647,49.805,-34.180,-21.484,106.934,0.000
1606130644.651,-32.715,-45.410,-23.926,-78.125,0.000
1606130644.655,-56.152,-42.969,-26.855,-140.137,0.000
1606130644.659,18.555,-31.250,-26.367,-1.953,0.000
1606130644.663,74.219,-28.320,-23.438,145.996,0.000
1606130644.667,42.480,-40.527,-28.809,115.723,0.000
1606130644.671,-29.297,-40.527,-36.133,-61.523,0.000
1606130644.674,-59.570,-38.086,-34.180,-144.043,0.000
1606130644.678,-15.137,-38.574,-28.320,-38.086,0.000
1606130644.682,48.828,-32.227,-27.832,110.840,0.000
1606130644.686,49.805,-36.621,-29.785,108.398,0.000
1606130644.690,-24.902,-41.504,-32.715,-62.988,0.000
1606130644.694,-75.195,-33.691,-36.621,-172.363,0.000
1606130644.698,-33.203,-32.715,-26.367,-82.031,0.000
1606130644.702,46.387,-32.715,-20.508,96.191,0.000
1606130644.706,52.246,-31.738,-26.855,131.836,0.000
1606130644.710,-28.320,-37.598,-31.738,-43.945,0.000
1606130644.714,-81.055,-42.480,-34.668,-168.945,0.000
1606130644.717,-47.852,-36.133,-35.156,-95.703,0.000
1606130644.721,16.113,-27.832,-25.879,69.336,0.000
1606130644.725,29.297,-32.715,-26.367,125.488,0.000
1606130644.729,-35.156,-37.598,-32.715,-20.508,0.000
1606130644.733,-95.703,-32.715,-34.668,-168.945,0.000
1606130644.737,-76.660,-33.691,-34.668,-131.836,0.000
1606130644.741,0.000,-33.203,-30.273,46.387,0.000
1606130644.745,27.344,-34.180,-28.320,125.977,0.000
1606130644.749,-28.809,-39.062,-30.762,4.395,0.000
1606130644.753,-92.285,-40.039,-35.156,-154.297,0.000
1606130644.756,-86.426,-42.480,-38.086,-154.785,0.000
1606130644.760,-12.207,-40.527,-28.320,27.832,0.000
1606130644.764,22.949,-34.668,-21.973,136.230,0.000
1606130644.768,-20.508,-31.250,-24.902,33.203,0.000
1606130644.772,-87.402,-39.062,-27.344,-128.418,0.000
1606130644.776,-90.332,-39.551,-20.996,-153.320,0.000
1606130644.780,-13.672,-31.738,-14.648,5.371,0.000
1606130644.784,32.715,-31.738,-23.438,124.023,0.000
1606130644.788,-3.906,-31.738,-27.344,44.434,0.000
1606130644.792,-69.336,-31.250,-34.668,-130.859,0.000
1606130644.796,-81.055,-33.691,-31.738,-168.945,0.000
1606130644.799,-31.250,-33.691,-11.230,-24.414,0.000
1606130644.803,20.020,-29.785,-7.812,107.910,0.000
1606130644.807,8.789,-33.691,-15.137,68.359,0.000
1606130644.811,-60.547,-32.715,-18.555,-108.887,0.000
1606130644.815,-85.449,-35.645,-22.461,-180.664,0.000
1606130644.819,-26.367,-41.504,-25.879,-54.688,0.000
1606130644.823,34.668,-39.551,-23.438,92.285,0.000
1606130644.827,14.648,-44.434,-25.879,72.754,0.000
1606130644.831,-61.035,-33.691,-28.809,-99.121,0.000
1606130644.835,-95.703,-31.738,-27.344,-190.430,0.000
1606130644.839,-52.246,-39.551,-20.996,-77.637,0.000
1606130644.842,16.602,-36.621,-16.602,94.238,0.000
1606130644.846,12.207,-35.645,-21.973,100.586,0.000
1606130644.850,-64.453,-38.574,-25.879,-75.195,0.000
1606130644.854,-104.980,-43.457,-24.414,-183.105,0.000
1606130644.858,-60.059,-39.551,-19.043,-93.262,0.000
1606130644.862,18.066,-29.785,-13.672,87.891,0.000
1606130644.866,27.344,-29.297,-9.766,122.070,0.000
1606130644.870,-44.434,-41.504,-17.578,-53.223,0.000
1606130644.874,-96.680,-56.152,-29.297,-187.500,0.000
1606130644.878,-65.430,-41.992,-30.273,-115.234,0.000
1606130644.881,8.301,-28.320,-23.926,66.406,0.000
1606130644.885,23.926,-28.809,-20.508,115.234,0.000
1606130644.889,-42.480,-35.156,-30.762,-39.062,0.000
1606130644.893,-94.238,-38.086,-34.180,-185.059,0.000
1606130644.897,-69.336,-31.738,-26.367,-147.461,0.000
1606130644.901,6.836,-28.320,-21.973,39.062,0.000
1606130644.905,42.969,-26.367,-27.832,127.930,0.000
1606130644.909,-15.137,-30.273,-32.715,0.977,0.000
1606130644.913,-87.891,-41.016,-35.645,-161.133,0.000
1606130644.917,-70.312,-36.621,-29.785,-146.484,0.000
1606130644.921,4.883,-29.785,-24.414,32.227,0.000
1606130644.924,33.691,-27.344,-26.855,129.883,0.000
1606130644.928,-15.137,-33.203,-25.879,19.043,0.000
1606130644.932,-88.867,-39.551,-21.484,-150.391,0.000
1606130644.936,-90.332,-35.645,-25.391,-163.574,0.000
1606130644.940,-16.602,-29.297,-25.879,4.395,0.000
1606130644.944,27.344,-28.320,-21.484,116.699,0.000
1606130644.948,-13.672,-35.645,-23.438,25.879,0.000
1606130644.952,-94.238,-41.016,-25.391,-153.320,0.000
1606130644.956,-103.516,-37.109,-20.996,-180.176,0.000
1606130644.960,-33.691,-34.668,-21.973,-19.531,0.000
1606130644.964,20.020,-35.156,-23.438,113.770,0.000
1606130644.967,-6.836,-33.203,-18.555,69.824,0.000
1606130644.971,-84.961,-34.180,-22.949,-113.281,0.000
1606130644.975,-110.840,-38.086,-26.367,-187.012,0.000
1606130644.979,-44.434,-35.645,-24.902,-42.480,0.000
1606130644.983,20.508,-32.227,-24.902,113.281,0.000
1606130644.987,3.418,-34.668,-21.973,87.891,0.000
1606130644.991,-74.707,-41.504,-25.391,-95.703,0.000
1606130644.995,-106.445,-43.457,-24.902,-189.453,0.000
1606130644.999,-46.875,-40.527,-23.438,-64.453,0.000
1606130645.003,29.785,-33.691,-20.996,101.562,0.000
1606130645.006,33.203,-32.715,-17.578,95.215,0.000
1606130645.010,-48.340,-36.133,-30.762,-88.379,0.000
1606130645.014,-94.727,-38.086,-37.598,-201.172,0.000
1606130645.018,-39.551,-34.668,-30.273,-100.586,0.000
1606130645.022,38.086,-24.902,-21.484,80.078,0.000
1606130645.026,47.852,-21.484,-19.531,112.793,0.000
1606130645.030,-30.762,-26.367,-31.738,-56.641,0.000
1606130645.034,-93.750,-34.180,-38.574,-196.289,0.000
1606130645.038,-57.617,-34.668,-31.738,-124.512,0.000
1606130645.042,17.090,-28.809,-24.902,67.871,0.000
1606130645.046,37.109,-23.926,-22.461,125.488,0.000
1606130645.049,-31.250,-27.344,-24.414,-24.902,0.000
1606130645.053,-96.680,-30.273,-29.297,-171.387,0.000
1606130645.057,-74.219,-37.598,-31.250,-129.883,0.000
1606130645.061,8.789,-37.109,-21.973,59.082,0.000
1606130645.065,41.016,-25.391,-11.719,145.508,0.000
1606130645.069,-20.996,-28.809,-17.578,14.160,0.000
1606130645.073,-96.191,-35.156,-24.902,-154.785,0.000
1606130645.077,-94.727,-37.109,-21.973,-148.438,0.000
1606130645.081,-16.113,-27.832,-19.043,36.133,0.000
1606130645.085,18.066,-25.879,-20.996,137.207,0.000
1606130645.089,-36.621,-32.715,-23.438,26.855,0.000
1606130645.092,-101.562,-33.203,-25.391,-142.090,0.000
1606130645.096,-104.492,-37.109,-29.785,-164.551,0.000
1606130645.100,-28.809,-35.156,-25.391,6.348,0.000
1606130645.104,31.250,-32.227,-23.926,137.695,0.000
1606130645.108,-7.812,-35.156,-27.344,50.781,0.000
1606130645.112,-83.008,-22.461,-27.832,-127.930,0.000
1606130645.116,-94.727,-21.973,-36.133,-173.828,0.000
1606130645.120,-20.020,-30.273,-37.109,-21.973,0.000
1606130645.124,35.645,-24.902,-24.414,120.605,0.000
1606130645.128,-3.906,-30.762,-19.531,54.688,0.000
1606130645.131,-78.613,-35.645,-27.344,-134.277,0.000
1606130645.135,-95.703,-34.668,-29.297,-195.801,0.000
1606130645.139,-31.738,-36.133,-18.555,-49.805,0.000
1606130645.143,40.039,-23.438,-14.648,112.793,0.000
1606130645.147,26.367,-24.902,-14.160,83.008,0.000
1606130645.151,-57.129,-22.461,-16.602,-104.980,0.000
1606130645.155,-96.680,-15.137,-25.879,-195.801,0.000
1606130645.159,-41.504,-30.273,-21.973,-78.613,0.000
1606130645.163,32.227,-30.762,-17.578,94.238,0.000
1606130645.167,23.926,-30.762,-24.902,90.820,0.000
1606130645.171,-60.059,-35.156,-30.273,-91.797,0.000
1606130645.174,-103.516,-39.551,-22.461,-192.383,0.000
1606130645.178,-58.594,-42.969,-18.066,-95.215,0.000
1606130645.182,15.625,-31.250,-18.066,86.426,0.000
1606130645.186,29.785,-26.855,-11.719,125.977,0.000
1606130645.190,-41.992,-27.344,-16.113,-40.039,0.000
1606130645.194,-99.121,-27.832,-18.066,-177.734,0.000
1606130645.198,-64.941,-39.551,-17.090,-113.281,0.000
1606130645.202,12.207,-38.086,-19.531,72.266,0.000
1606130645.206,30.273,-31.738,-14.160,130.859,0.000
1606130645.210,-42.969,-36.621,-17.090,-26.855,0.000
1606130645.214,-104.492,-40.039,-21.484,-175.781,0.000
1606130645.217,-77.148,-36.133,-15.137,-124.023,0.000
1606130645.221,6.836,-29.785,-13.184,69.824,0.000
1606130645.225,34.180,-23.926,-13.672,147.461,0.000
1606130645.229,-28.320,-27.832,-18.555,19.531,0.000
1606130645.233,-91.797,-33.691,-17.578,-142.090,0.000
1606130645.237,-72.754,-32.715,-11.230,-130.371,0.000
1606130645.241,4.395,-33.691,-19.531,47.852,0.000
1606130645.245,41.504,-31.738,-24.414,143.066,0.000
1606130645.249,-2.441,-31.738,-24.902,39.551,0.000
1606130645.253,-69.824,-18.066,-31.738,-130.859,0.000
1606130645.256,-67.871,-11.719,-31.738,-147.461,0.000
1606130645.260,9.277,-21.973,-23.926,28.320,0.000
1606130645.264,58.105,-13.672,-26.367,146.973,0.000
1606130645.268,16.113,-12.207,-29.297,59.570,0.000
1606130645.272,-58.594,-18.555,-28.809,-118.652,0.000
1606130645.276,-72.754,-22.461,-30.273,-169.922,0.000
1606130645.280,-4.395,-20.996,-21.973,-9.277,0.000
1606130645.284,53.711,-15.625,-24.414,134.766,0.000
1606130645.288,16.602,-21.973,-37.598,72.266,0.000
1606130645.292,-65.430,-29.297,-33.691,-113.770,0.000
1606130645.296,-86.426,-30.273,-31.738,-181.641,0.000
1606130645.299,-21.973,-24.902,-30.273,-34.668,0.000
1606130645.303,41.504,-19.043,-25.879,120.605,0.000
1606130645.307,20.996,-20.996,-27.344,90.820,0.000
1606130645.311,-64.453,-28.809,-30.273,-92.285,0.000
1606130645.315,-94.238,-26.855,-31.738,-175.293,0.000
1606130645.319,-32.715,-21.973,-33.203,-50.293,0.000
1606130645.323,42.480,-21.484,-24.902,120.605,0.000
1606130645.327,41.016,-17.578,-17.090,128.418,0.000
1606130645.331,-46.387,-40.039,-27.344,-51.270,0.000
1606130645.335,-89.844,-61.523,-36.133,-169.434,0.000
1606130645.339,-36.133,-41.504,-32.227,-78.125,0.000
1606130645.342,38.086,-28.320,-26.367,102.051,0.000
1606130645.346,43.457,-21.973,-22.461,125.000,0.000
1606130645.350,-28.809,-28.320,-19.043,-43.945,0.000
1606130645.354,-84.473,-40.527,-25.391,-183.594,0.000
1606130645.358,-56.641,-36.621,-26.855,-117.188,0.000
1606130645.362,24.902,-31.250,-22.949,79.590,0.000
1606130645.366,53.223,-25.879,-21.484,135.742,0.000
1606130645.370,-15.137,-29.297,-25.879,-22.949,0.000
1606130645.374,-74.707,-32.227,-37.598,-170.898,0.000
1606130645.378,-49.316,-27.344,-33.691,-115.723,0.000
1606130645.381,23.926,-24.902,-23.438,67.871,0.000
1606130645.385,49.805,-25.391,-21.484,140.625,0.000
1606130645.389,-18.066,-33.203,-27.832,4.395,0.000
1606130645.393,-91.797,-37.598,-32.715,-165.527,0.000
1606130645.397,-75.195,-27.832,-30.273,-152.344,0.000
1606130645.401,8.789,-20.020,-21.484,39.551,0.000
1606130645.405,42.969,-20.508,-13.184,139.648,0.000
1606130645.409,-14.648,-25.879,-16.602,19.531,0.000
1606130645.413,-95.703,-40.527,-28.809,-157.227,0.000
1606130645.417,-102.539,-44.922,-28.320,-160.645,0.000
1606130645.421,-22.461,-38.574,-20.020,28.320,0.000
1606130645.424,27.344,-30.273,-18.066,139.648,0.000
1606130645.428,-10.254,-28.809,-15.137,50.781,0.000
1606130645.432,-78.613,-29.785,-15.137,-118.164,0.000
1606130645.436,-86.914,-28.809,-20.508,-165.039,0.000
1606130645.440,-14.648,-18.555,-17.090,-7.324,0.000
1606130645.444,39.551,-14.160,-13.672,129.883,0.000
1606130645.448,-3.418,-24.902,-18.066,61.523,0.000
1606130645.452,-84.961,-27.832,-17.578,-120.605,0.000
1606130645.456,-102.051,-27.832,-21.973,-182.129,0.000
1606130645.460,-41.016,-26.855,-23.926,-47.363,0.000
1606130645.464,20.508,-26.855,-25.879,95.703,0.000
1606130645.467,6.348,-27.344,-30.273,71.289,0.000
1606130645.471,-70.312,-26.855,-35.156,-105.469,0.000
1606130645.475,-104.004,-37.109,-40.527,-194.336,0.000
1606130645.479,-41.992,-35.645,-33.203,-70.312,0.000
1606130645.483,26.367,-22.949,-25.879,92.773,0.000
1606130645.487,25.391,-20.508,-21.484,100.586,0.000
1606130645.491,-41.992,-25.879,-23.926,-71.289,0.000
1606130645.495,-84.473,-28.320,-27.344,-185.547,0.000
1606130645.499,-37.109,-27.832,-23.926,-83.984,0.000
1606130645.503,38.574,-20.996,-16.113,103.027,0.000
1606130645.506,34.668,-23.926,-19.043,125.000,0.000
1606130645.510,-48.340,-33.203,-28.320,-43.457,0.000
1606130645.514,-98.145,-34.180,-24.414,-159.180,0.000
1606130645.518,-65.918,-31.738,-19.531,-83.984,0.000
1606130645.522,8.789,-26.367,-16.113,84.473,0.000
1606130645.526,26.367,-24.902,-17.090,125.000,0.000
1606130645.530,-39.551,-32.227,-21.484,-21.484,0.000
1606130645.534,-90.332,-36.621,-20.996,-156.738,0.000
1606130645.538,-65.430,-38.574,-16.602,-114.746,0.000
1606130645.542,9.766,-30.273,-8.789,63.965,0.000
1606130645.546,33.203,-21.973,-12.695,137.695,0.000
1606130645.549,-27.832,-30.273,-28.320,5.371,0.000
1606130645.553,-90.820,-39.062,-31.738,-156.738,0.000
1606130645.557,-71.289,-30.762,-30.762,-140.137,0.000
1606130645.561,9.277,-21.973,-23.438,42.969,0.000
1606130645.565,39.062,-22.461,-14.648,137.695,0.000
1606130645.569,-16.113,-31.250,-17.578,27.344,0.000
1606130645.573,-86.426,-41.016,-28.809,-141.602,0.000
1606130645.577,-86.914,-39.062,-32.227,-154.785,0.000
1606130645.581,-17.578,-29.785,-18.066,13.672,0.000
1606130645.585,28.320,-19.043,-14.160,128.418,0.000
1606130645.589,-10.742,-20.508,-29.785,33.691,0.000
1606130645.592,-86.426,-31.738,-37.598,-154.297,0.000
1606130645.596,-98.633,-32.715,-40.039,-189.941,0.000
1606130645.600,-21.484,-26.367,-35.156,-23.926,0.000
1606130645.604,34.180,-26.367,-31.738,109.863,0.000
1606130645.608,-0.977,-25.391,-31.738,52.246,0.000
1606130645.612,-80.566,-39.551,-32.227,-124.512,0.000
1606130645.616,-101.562,-51.270,-33.203,-182.617,0.000
1606130645.620,-28.320,-36.133,-26.367,-22.949,0.000
1606130645.624,46.875,-15.625,-28.320,140.137,0.000
1606130645.628,21.973,-8.789,-36.133,89.844,0.000
1606130645.631,-79.102,-15.625,-42.969,-119.629,0.000
1606130645.635,-109.863,-18.066,-48.828,-200.684,0.000
1606130645.639,-41.504,-12.207,-41.504,-60.547,0.000
1606130645.643,27.344,-6.348,-38.574,99.121,0.000
1606130645.647,16.113,-9.277,-39.551,86.426,0.000
1606130645.651,-67.383,-16.602,-36.621,-99.121,0.000
1606130645.655,-110.352,-20.996,-37.109,-206.543,0.000
1606130645.659,-58.594,-23.438,-38.086,-101.074,0.000
1606130645.663,15.625,-22.461,-36.621,73.730,0.000
1606130645.667,33.691,-17.090,-32.227,102.539,0.000
1606130645.671,-35.645,-24.414,-35.156,-62.988,0.000
1606130645.674,-102.539,-32.227,-44.922,-194.336,0.000
1606130645.678,-69.824,-28.809,-45.410,-121.582,0.000
1606130645.682,18.066,-20.996,-36.133,62.012,0.000
1606130645.686,30.273,-20.996,-34.668,112.305,0.000
1606130645.690,-50.781,-32.715,-41.504,-51.758,0.000
1606130645.694,-107.422,-35.645,-43.945,-203.125,0.000
1606130645.698,-84.473,-30.762,-42.480,-151.855,0.000
1606130645.702,-6.348,-26.367,-39.551,35.156,0.000
1606130645.706,24.902,-19.043,-32.715,115.723,0.000
1606130645.710,-30.762,-26.855,-31.738,-19.043,0.000
1606130645.714,-95.215,-42.480,-37.598,-185.059,0.000
1606130645.717,-83.496,-43.945,-40.527,-167.969,0.000
1606130645.721,0.000,-27.344,-35.156,20.508,0.000
1606130645.725,38.574,-20.996,-31.250,113.770,0.000
1606130645.729,-19.043,-30.762,-37.109,-3.418,0.000
1606130645.733,-88.867,-29.785,-35.156,-163.086,0.000
1606130645.737,-83.984,-30.762,-27.344,-166.504,0.000
1606130645.741,-16.113,-31.738,-26.855,5.859,0.000
1606130645.745,30.762,-25.391,-28.809,120.117,0.000
1606130645.749,1.953,-26.855,-23.926,41.992,0.000
1606130645.753,-74.219,-31.738,-29.785,-131.348,0.000
1606130645.756,-90.820,-35.645,-36.621,-171.875,0.000
1606130645.760,-13.184,-29.785,-28.320,-7.812,0.000
1606130645.764,35.645,-29.297,-30.273,121.582,0.000
1606130645.768,-0.977,-34.668,-34.668,60.547,0.000
1606130645.772,-74.219,-38.086,-37.598,-118.652,0.000
1606130645.776,-94.727,-34.668,-35.156,-174.316,0.000
1606130645.780,-22.949,-20.020,-26.367,-30.273,0.000
1606130645.784,41.992,-12.207,-26.855,114.746,0.000
1606130645.788,22.461,-18.555,-26.367,86.914,0.000
1606130645.792,-61.035,-26.855,-30.762,-98.633,0.000
1606130645.796,-92.773,-29.785,-28.809,-187.500,0.000
1606130645.799,-29.297,-25.391,-20.020,-56.641,0.000
1606130645.803,30.273,-19.531,-26.367,104.980,0.000
1606130645.807,17.090,-27.832,-35.156,85.938,0.000
1606130645.811,-53.711,-29.785,-36.621,-91.309,0.000
1606130645.815,-87.891,-18.066,-36.621,-188.965,0.000
1606130645.819,-41.016,-21.973,-34.180,-89.355,0.000
1606130645.823,25.879,-19.043,-25.391,90.820,0.000
1606130645.827,31.738,-17.090,-22.949,113.770,0.000
1606130645.831,-38.086,-24.414,-34.668,-58.594,0.000
1606130645.835,-95.703,-27.344,-36.133,-181.152,0.000
1606130645.839,-62.500,-27.344,-27.832,-105.957,0.000
1606130645.842,21.484,-22.949,-28.320,80.078,0.000
1606130645.846,47.852,-18.066,-25.879,141.113,0.000
1606130645.850,-26.855,-24.902,-27.832,-16.113,0.000
1606130645.854,-98.633,-33.691,-33.203,-161.621,0.000
1606130645.858,-69.824,-30.762,-30.273,-108.887,0.000
1606130645.862,12.207,-24.414,-26.367,67.871,0.000
1606130645.866,34.180,-24.902,-25.391,131.836,0.000
1606130645.870,-32.227,-32.715,-27.344,-4.883,0.000
1606130645.874,-98.633,-38.086,-32.715,-161.621,0.000
1606130645.878,-90.332,-39.551,-34.180,-146.484,0.000
1606130645.881,-13.184,-33.691,-26.367,31.250,0.000
1606130645.885,26.855,-27.832,-27.344,122.559,0.000
1606130645.889,-30.762,-25.391,-26.855,12.695,0.000
1606130645.893,-98.633,-20.020,-24.414,-141.113,0.000
1606130645.897,-88.379,-26.855,-29.785,-159.180,0.000
1606130645.901,-21.484,-32.715,-31.738,-1.465,0.000
1606130645.905,12.207,-32.715,-24.902,113.281,0.000
1606130645.909,-29.785,-33.203,-23.438,25.391,0.000
1606130645.913,-95.215,-32.715,-24.414,-145.020,0.000
1606130645.917,-93.262,-34.180,-22.461,-180.176,0.000
1606130645.921,-17.578,-31.738,-15.137,-19.531,0.000
1606130645.924,29.785,-29.297,-14.648,118.164,0.000
1606130645.928,-7.324,-32.715,-24.414,55.664,0.000
1606130645.932,-84.473,-34.668,-27.832,-123.535,0.000
1606130645.936,-98.633,-33.691,-30.273,-178.223,0.000
1606130645.940,-23.438,-22.461,-26.855,-28.809,0.000
1606130645.944,34.180,-22.949,-24.414,115.234,0.000
1606130645.948,11.230,-30.762,-28.809,74.219,0.000
1606130645.952,-66.406,-34.668,-27.832,-107.422,0.000
1606130645.956,-101.074,-36.133,-30.273,-185.059,0.000
1606130645.960,-31.738,-27.344,-29.785,-53.711,0.000
1606130645.964,42.480,-25.391,-26.855,108.887,0.000
1606130645.967,16.602,-31.250,-29.785,97.168,0.000
1606130645.971,-62.988,-36.133,-33.203,-88.867,0.000
1606130645.975,-100.098,-30.273,-29.785,-190.430,0.000
1606130645.979,-56.641,-28.320,-24.414,-79.590,0.000
1606130645.983,17.578,-22.949,-20.996,99.121,0.000
1606130645.987,26.855,-14.160,-22.949,115.234,0.000
1606130645.991,-51.270,-26.367,-27.344,-65.430,0.000
1606130645.995,-101.074,-41.992,-28.809,-185.547,0.000
1606130645.999,-60.547,-37.598,-31.738,-108.398,0.000
1606130646.003,14.160,-26.855,-25.391,71.777,0.000
1606130646.006,36.621,-19.043,-13.184,125.488,0.000
1606130646.010,-27.832,-20.996,-20.508,-28.809,0.000
1606130646.014,-89.355,-27.344,-32.227,-180.176,0.000
1606130646.018,-66.406,-28.320,-30.273,-133.789,0.000
1606130646.022,6.348,-25.879,-24.414,50.293,0.000
1606130646.026,32.715,-20.508,-19.043,121.582,0.000
1606130646.030,-34.668,-32.715,-25.879,-14.648,0.000
1606130646.034,-102.539,-48.340,-30.273,-169.922,0.000
1606130646.038,-84.961,-41.016,-29.297,-150.391,0.000
1606130646.042,-7.812,-35.645,-25.391,26.855,0.000
1606130646.046,29.785,-31.738,-23.438,119.629,0.000
1606130646.049,-20.020,-38.086,-20.996,10.742,0.000
1606130646.053,-88.867,-43.945,-24.414,-150.879,0.000
1606130646.057,-82.031,-33.691,-31.250,-152.832,0.000
1606130646.061,-3.906,-25.879,-30.273,18.066,0.000
1606130646.065,40.039,-22.461,-28.809,123.047,0.000
1606130646.069,-1.465,-22.949,-31.250,31.250,0.000
1606130646.073,-75.195,-29.785,-34.668,-145.020,0.000
1606130646.077,-83.008,-31.738,-31.250,-177.734,0.000
1606130646.081,-4.883,-21.484,-23.438,-6.348,0.000
1606130646.085,41.504,-18.066,-23.926,125.977,0.000
1606130646.089,1.465,-25.391,-33.203,51.758,0.000
1606130646.092,-74.219,-42.969,-38.086,-133.789,0.000
1606130646.096,-89.355,-37.598,-36.621,-188.965,0.000
1606130646.100,-27.832,-23.438,-32.227,-42.480,0.000
1606130646.104,23.438,-27.832,-25.879,105.469,0.000
1606130646.108,1.465,-36.133,-26.855,72.754,0.000
1606130646.112,-70.801,-40.039,-29.297,-103.027,0.000
1606130646.116,-100.586,-40.527,-27.344,-178.711,0.000
1606130646.120,-37.598,-40.039,-21.484,-46.387,0.000
1606130646.124,40.039,-26.367,-14.160,120.117,0.000
1606130646.128,27.344,-24.902,-18.555,104.980,0.000
1606130646.131,-56.641,-40.527,-27.344,-85.449,0.000
1606130646.135,-96.680,-44.434,-27.344,-191.406,0.000
1606130646.139,-51.270,-37.109,-22.461,-83.008,0.000
1606130646.143,16.602,-31.738,-19.531,93.262,0.000
1606130646.147,11.719,-35.645,-20.996,110.840,0.000
1606130646.151,-68.848,-41.016,-28.809,-60.547,0.000
1606130646.155,-120.605,-38.086,-29.785,-184.082,0.000
1606130646.159,-79.102,-35.156,-24.414,-107.422,0.000
1606130646.163,5.371,-31.738,-20.508,73.242,0.000
1606130646.167,21.973,-27.344,-21.484,117.676,0.000
1606130646.171,-41.992,-38.086,-30.273,-38.086,0.000
1606130646.174,-92.773,-38.574,-33.691,-168.457,0.000
1606130646.178,-64.453,-25.879,-32.227,-116.699,0.000
1606130646.182,12.695,-22.949,-21.973,61.035,0.000
1606130646.186,37.109,-22.461,-16.602,133.301,0.000
1606130646.190,-26.855,-30.273,-28.320,-1.465,0.000
1606130646.194,-96.680,-36.621,-37.109,-158.691,0.000
1606130646.198,-79.590,-32.715,-30.762,-135.742,0.000
1606130646.202,6.836,-21.484,-17.090,49.805,0.000
1606130646.206,39.062,-18.555,-13.672,145.996,0.000
1606130646.210,-19.043,-20.020,-20.508,29.297,0.000
1606130646.214,-89.355,-24.902,-27.832,-147.461,0.000
1606130646.217,-83.984,-27.344,-31.738,-154.785,0.000
1606130646.221,-5.859,-23.926,-30.273,23.926,0.000
1606130646.225,35.645,-22.461,-28.809,130.371,0.000
1606130646.229,-6.836,-23.438,-27.832,41.992,0.000
1606130646.233,-82.031,-31.250,-31.738,-132.812,0.000
1606130646.237,-87.891,-37.109,-33.691,-169.434,0.000
1606130646.241,-9.277,-27.344,-21.973,0.000,0.000
1606130646.245,44.922,-18.066,-16.602,127.930,0.000
1606130646.249,16.113,-20.996,-22.461,54.688,0.000
1606130646.253,-57.617,-26.855,-23.438,-124.023,0.000
1606130646.256,-84.961,-31.250,-26.367,-185.547,0.000
1606130646.260,-21.484,-27.344,-28.809,-40.039,0.000
1606130646.264,43.457,-20.508,-30.273,109.863,0.000
1606130646.268,20.996,-23.438,-28.320,76.660,0.000
1606130646.272,-60.547,-10.742,-28.809,-105.957,0.000
1606130646.276,-104.980,-6.348,-35.645,-195.801,0.000
1606130646.280,-50.293,-25.879,-27.344,-70.801,0.000
1606130646.284,25.879,-26.367,-27.344,94.238,0.000
1606130646.288,21.973,-23.438,-27.344,84.473,0.000
1606130646.292,-51.758,-27.344,-24.902,-93.750,0.000
1606130646.296,-99.121,-35.645,-37.598,-199.707,0.000
1606130646.299,-56.152,-30.762,-40.527,-101.074,0.000
1606130646.303,24.902,-24.414,-33.691,74.707,0.000
1606130646.307,33.203,-23.926,-27.832,98.633,0.000
1606130646.311,-44.434,-23.926,-30.762,-66.406,0.000
1606130646.315,-89.844,-28.320,-34.180,-184.570,0.000
1606130646.319,-49.805,-27.832,-37.109,-117.676,0.000
1606130646.323,25.879,-23.438,-30.273,63.965,0.000
1606130646.327,40.527,-29.785,-20.020,120.117,0.000
1606130646.331,-35.156,-34.180,-25.391,-44.922,0.000
1606130646.335,-93.750,-31.250,-29.785,-187.500,0.000
1606130646.339,-68.359,-35.645,-29.785,-133.301,0.000
1606130646.342,3.906,-35.645,-29.297,45.898,0.000
1606130646.346,27.344,-26.855,-27.344,115.234,0.000
1606130646.350,-28.320,-26.855,-22.949,-15.625,0.000
1606130646.354,-88.867,-37.598,-25.879,-167.969,0.000
1606130646.358,-78.125,-41.992,-27.344,-143.066,0.000
1606130646.362,7.324,-30.273,-21.484,45.898,0.000
1606130646.366,53.223,-27.344,-19.531,133.301,0.000
1606130646.370,-11.719,-27.832,-20.020,13.184,0.000
1606130646.374,-84.473,-10.742,-23.926,-140.625,0.000
1606130646.378,-68.848,-14.160,-25.391,-143.066,0.000
1606130646.381,4.395,-18.066,-21.973,15.625,0.000
1606130646.385,36.621,-14.160,-27.344,115.723,0.000
1606130646.389,-13.672,-18.066,-33.203,14.648,0.000
1606130646.393,-83.008,-23.926,-40.039,-152.344,0.000
1606130646.397,-84.961,-25.879,-37.109,-169.434,0.000
1606130646.401,-12.207,-21.484,-33.203,-12.207,0.000
1606130646.405,41.504,-21.484,-29.297,115.723,0.000
1606130646.409,10.742,-26.367,-28.809,61.035,0.000
1606130646.413,-66.406,-26.855,-40.527,-118.164,0.000
1606130646.417,-85.449,-36.133,-38.574,-183.105,0.000
1606130646.421,-22.949,-39.551,-28.809,-41.016,0.000
1606130646.424,42.480,-24.902,-28.809,112.793,0.000
1606130646.428,23.926,-23.926,-32.227,75.195,0.000
1606130646.432,-55.664,-31.250,-34.668,-108.887,0.000
1606130646.436,-83.008,-32.715,-33.691,-188.477,0.000
1606130646.440,-25.879,-28.320,-30.273,-62.012,0.000
1606130646.444,38.086,-22.461,-28.320,99.609,0.000
1606130646.448,24.902,-26.855,-29.785,86.914,0.000
1606130646.452,-48.340,-23.438,-31.738,-91.797,0.000
1606130646.456,-87.402,-20.020,-30.762,-184.570,0.000
1606130646.460,-49.805,-22.461,-28.320,-84.473,0.000
1606130646.464,17.090,-21.484,-23.438,77.148,0.000
1606130646.467,24.902,-20.508,-20.508,98.145,0.000
1606130646.471,-48.828,-29.785,-27.344,-69.336,0.000
1606130646.475,-96.191,-32.227,-29.785,-184.082,0.000
1606130646.479,-51.270,-29.785,-23.438,-105.469,0.000
1606130646.483,21.973,-27.832,-20.020,69.824,0.000
1606130646.487,40.039,-20.508,-16.113,121.094,0.000
1606130646.491,-20.996,-18.066,-17.090,-30.273,0.000
1606130646.495,-84.961,-28.320,-27.832,-171.875,0.000
1606130646.499,-61.035,-31.738,-35.156,-116.699,0.000
1606130646.503,20.508,-22.461,-31.250,65.430,0.000
1606130646.506,44.922,-21.973,-24.414,127.441,0.000
1606130646.510,-13.672,-29.785,-21.973,-8.301,0.000
1606130646.514,-77.148,-33.691,-29.297,-160.156,0.000
1606130646.518,-66.406,-32.227,-31.250,-140.625,0.000
1606130646.522,3.906,-25.391,-27.832,35.156,0.000
1606130646.526,35.156,-21.973,-25.391,121.094,0.000
1606130646.530,-13.672,-27.832,-25.391,2.441,0.000
1606130646.534,-79.590,-38.086,-33.203,-155.762,0.000
1606130646.538,-78.613,-40.039,-36.621,-154.297,0.000
1606130646.542,0.488,-29.297,-24.414,25.391,0.000
1606130646.546,53.223,-24.414,-20.020,146.484,0.000
1606130646.549,7.324,-29.297,-24.414,54.199,0.000
1606130646.553,-70.801,-27.344,-28.809,-126.953,0.000
1606130646.557,-81.543,-34.668,-37.598,-167.969,0.000
1606130646.561,-12.695,-36.133,-35.645,-12.207,0.000
1606130646.565,41.504,-31.250,-30.762,119.141,0.000
1606130646.569,5.371,-34.180,-30.273,50.781,0.000
1606130646.573,-75.195,-35.156,-32.715,-128.418,0.000
1606130646.577,-97.656,-39.062,-32.715,-178.711,0.000
1606130646.581,-28.809,-33.203,-26.855,-23.438,0.000
1606130646.585,32.227,-21.484,-21.973,124.512,0.000
1606130646.589,6.836,-23.926,-20.020,78.125,0.000
1606130646.592,-70.801,-26.367,-21.973,-100.586,0.000
1606130646.596,-95.703,-25.391,-28.809,-173.340,0.000
1606130646.600,-30.762,-24.414,-26.855,-46.387,0.000
1606130646.604,33.691,-20.996,-19.531,105.469,0.000
1606130646.608,18.555,-24.902,-17.578,88.867,0.000
1606130646.612,-55.176,-25.879,-22.949,-86.914,0.000
1606130646.616,-89.844,-25.879,-30.762,-184.570,0.000
1606130646.620,-39.551,-25.391,-24.902,-77.148,0.000
1606130646.624,28.320,-20.996,-17.090,88.867,0.000
1606130646.628,28.320,-20.996,-13.184,100.098,0.000
1606130646.631,-52.246,-27.344,-20.508,-79.590,0.000
1606130646.635,-105.469,-32.715,-30.273,-204.102,0.000
1606130646.639,-64.453,-29.785,-30.273,-118.652,0.000
1606130646.643,7.812,-22.949,-27.832,60.059,0.000
1606130646.647,28.320,-23.926,-23.438,107.910,0.000
1606130646.651,-35.156,-19.043,-29.785,-51.758,0.000
1606130646.655,-94.727,-5.859,-30.762,-189.941,0.000
1606130646.659,-63.477,-20.508,-23.438,-124.512,0.000
1606130646.663,20.508,-25.879,-20.996,59.082,0.000
1606130646.667,51.270,-16.602,-21.484,123.535,0.000
1606130646.671,-11.719,-22.949,-30.762,-16.602,0.000
1606130646.674,-81.543,-33.691,-29.785,-165.039,0.000
1606130646.678,-79.590,-36.133,-12.695,-142.578,0.000
1606130646.682,-19.043,-29.297,-5.859,26.367,0.000
1606130646.686,18.066,-21.484,-6.836,122.559,0.000
1606130646.690,-32.227,-30.273,-1.465,11.230,0.000
1606130646.694,-107.422,-44.922,-1.465,-153.320,0.000
1606130646.698,-103.516,-41.504,-2.441,-152.832,0.000
1606130646.702,-24.902,-34.668,2.930,22.461,0.000
1606130646.706,16.113,-37.598,5.859,132.812,0.000
1606130646.710,-24.902,-40.527,0.977,36.621,0.000
1606130646.714,-94.238,-39.551,-7.324,-134.277,0.000
1606130646.717,-107.422,-40.527,-7.812,-167.480,0.000
1606130646.721,-39.551,-36.621,-2.930,-7.812,0.000
1606130646.725,15.625,-32.227,1.465,123.047,0.000
1606130646.729,-16.113,-36.133,1.465,56.641,0.000
1606130646.733,-94.238,-39.551,-9.277,-117.676,0.000
1606130646.737,-110.352,-38.574,-17.578,-166.992,0.000
1606130646.741,-42.480,-37.109,-9.766,-23.926,0.000
1606130646.745,24.414,-31.738,-4.883,119.629,0.000
1606130646.749,8.789,-33.203,-10.254,85.938,0.000
1606130646.753,-64.941,-38.574,-18.555,-91.797,0.000
1606130646.756,-85.938,-39.062,-19.043,-165.039,0.000
1606130646.760,-29.785,-34.668,-13.672,-36.621,0.000
1606130646.764,29.297,-30.273,-13.184,112.305,0.000
1606130646.768,17.578,-32.227,-20.508,93.750,0.000
1606130646.772,-62.500,-38.574,-29.785,-85.938,0.000
1606130646.776,-101.074,-41.504,-28.809,-185.059,0.000
1606130646.780,-50.293,-32.715,-19.531,-68.848,0.000
1606130646.784,21.973,-20.996,-16.113,105.957,0.000
1606130646.788,24.414,-20.996,-14.648,120.117,0.000
1606130646.792,-51.270,-19.043,-20.508,-53.711,0.000
1606130646.796,-99.609,-21.973,-27.832,-173.828,0.000
1606130646.799,-57.617,-29.297,-19.531,-87.891,0.000
1606130646.803,16.113,-25.391,-19.531,90.820,0.000
1606130646.807,28.320,-28.320,-27.344,129.883,0.000
1606130646.811,-37.598,-34.668,-24.902,-31.738,0.000
1606130646.815,-92.773,-32.715,-20.508,-159.180,0.000
1606130646.819,-62.012,-31.738,-23.438,-96.680,0.000
1606130646.823,15.625,-31.738,-25.391,71.777,0.000
1606130646.827,38.086,-24.902,-20.508,130.859,0.000
1606130646.831,-20.508,-27.832,-23.438,-0.488,0.000
1606130646.835,-86.426,-41.016,-24.902,-156.250,0.000
1606130646.839,-68.848,-38.574,-15.137,-136.719,0.000
1606130646.842,9.766,-26.367,-11.230,44.922,0.000
1606130646.846,36.133,-20.508,-18.066,129.395,0.000
1606130646.850,-20.020,-20.020,-23.438,8.301,0.000
1606130646.854,-89.355,-24.902,-27.832,-151.367,0.000
1606130646.858,-82.031,-27.344,-32.715,-145.996,0.000
1606130646.862,-9.766,-20.996,-32.227,25.391,0.000
1606130646.866,33.203,-17.090,-28.809,124.023,0.000
1606130646.870,-2.441,-22.461,-30.273,32.227,0.000
1606130646.874,-79.590,-31.738,-31.250,-134.277,0.000
1606130646.878,-78.613,-26.855,-23.438,-156.250,0.000
1606130646.881,3.906,-16.602,-15.625,8.789,0.000
1606130646.885,47.363,-20.020,-17.090,128.906,0.000
1606130646.889,9.766,-27.832,-23.438,60.547,0.000
1606130646.893,-67.383,-29.785,-28.320,-112.305,0.000
1606130646.897,-81.543,-26.367,-26.367,-161.621,0.000
1606130646.901,-9.766,-24.902,-26.855,-16.113,0.000
1606130646.905,42.480,-22.949,-28.320,117.676,0.000
1606130646.909,12.207,-21.484,-29.785,68.359,0.000
1606130646.913,-66.895,-26.367,-36.621,-111.328,0.000
1606130646.917,-91.309,-27.832,-29.297,-183.105,0.000
1606130646.921,-32.715,-22.949,-19.531,-54.688,0.000
1606130646.924,29.297,-19.043,-25.391,103.516,0.000
1606130646.928,13.672,-21.973,-24.902,91.309,0.000
1606130646.932,-65.918,-37.109,-27.344,-89.844,0.000
1606130646.936,-103.027,-42.969,-31.738,-190.918,0.000
1606130646.940,-50.293,-34.180,-29.785,-82.520,0.000
1606130646.944,17.578,-23.438,-24.414,80.566,0.000
1606130646.948,11.230,-17.578,-20.020,91.309,0.000
1606130646.952,-58.105,-21.484,-18.555,-69.824,0.000
1606130646.956,-101.562,-25.391,-18.555,-187.012,0.000
1606130646.960,-58.105,-25.879,-25.391,-107.422,0.000
1606130646.964,19.043,-21.973,-26.367,67.871,0.000
1606130646.967,30.273,-20.020,-25.879,107.422,0.000
1606130646.971,-43.457,-22.461,-30.762,-50.781,0.000
1606130646.975,-102.539,-30.273,-30.762,-191.895,0.000
1606130646.979,-62.012,-34.180,-29.297,-133.789,0.000
1606130646.983,15.137,-27.344,-23.438,47.363,0.000
1606130646.987,22.461,-22.949,-9.277,103.027,0.000
1606130646.991,-41.992,-31.738,-7.324,-34.668,0.000
1606130646.995,-92.773,-36.621,-15.137,-169.434,0.000
1606130646.999,-77.148,-34.668,-22.461,-139.648,0.000
1606130647.003,-0.977,-25.879,-19.531,33.203,0.000
1606130647.006,34.668,-17.578,-16.113,114.258,0.000
1606130647.010,-28.320,-25.391,-22.949,-8.301,0.000
1606130647.014,-89.844,-30.273,-22.949,-153.809,0.000
1606130647.018,-76.172,-28.320,-20.996,-141.113,0.000
1606130647.022,-2.930,-20.996,-19.531,32.227,0.000
1606130647.026,40.527,-19.043,-17.578,136.230,0.000
1606130647.030,-9.766,-28.809,-19.043,30.273,0.000
1606130647.034,-78.125,-42.969,-26.367,-137.207,0.000
1606130647.038,-73.242,-38.574,-26.855,-152.344,0.000
1606130647.042,6.348,-21.484,-26.367,12.695,0.000
1606130647.046,57.129,-17.090,-23.926,133.301,0.000
1606130647.049,20.996,-21.973,-21.484,56.641,0.000
1606130647.053,-55.176,-28.320,-27.344,-119.629,0.000
1606130647.057,-68.359,-23.926,-28.320,-165.527,0.000
1606130647.061,1.465,-20.508,-25.879,-11.230,0.000
1606130647.065,49.805,-18.555,-18.555,132.324,0.000
1606130647.069,16.602,-23.438,-24.414,83.496,0.000
1606130647.073,-61.035,-41.992,-31.250,-94.727,0.000
1606130647.077,-92.285,-43.457,-32.227,-171.387,0.000
1606130647.081,-36.133,-31.250,-30.762,-46.875,0.000
1606130647.085,30.273,-21.484,-20.508,111.816,0.000
1606130647.089,18.555,-16.602,-20.508,99.121,0.000
1606130647.092,-59.570,-25.391,-20.508,-79.102,0.000
1606130647.096,-97.168,-28.809,-19.531,-176.758,0.000
1606130647.100,-45.410,-20.508,-21.484,-71.777,0.000
1606130647.104,24.414,-16.602,-20.996,94.727,0.000
1606130647.108,21.484,-15.625,-20.996,104.004,0.000
1606130647.112,-48.340,-33.691,-16.602,-58.594,0.000
1606130647.116,-87.891,-47.363,-16.113,-169.434,0.000
1606130647.120,-41.504,-24.902,-20.020,-97.168,0.000
1606130647.124,31.250,-18.555,-20.996,68.359,0.000
1606130647.128,34.668,-18.555,-20.508,105.469,0.000
1606130647.131,-39.551,-20.020,-26.855,-49.805,0.000
1606130647.135,-92.773,-27.344,-29.785,-179.688,0.000
1606130647.139,-61.035,-25.391,-24.414,-119.629,0.000
1606130647.143,9.766,-23.926,-18.555,63.965,0.000
1606130647.147,25.879,-25.879,-20.508,125.000,0.000
1606130647.151,-37.598,-24.414,-21.973,-13.672,0.000
1606130647.155,-102.051,-27.344,-22.949,-161.621,0.000
1606130647.159,-84.473,-31.250,-35.156,-132.812,0.000
1606130647.163,-4.395,-31.250,-29.785,42.969,0.000
1606130647.167,20.020,-36.133,-26.855,118.164,0.000
1606130647.171,-38.086,-35.645,-35.645,-1.465,0.000
1606130647.174,-89.355,-37.109,-31.250,-156.738,0.000
1606130647.178,-85.449,-40.527,-24.902,-152.344,0.000
1606130647.182,-17.090,-33.691,-29.297,15.137,0.000
1606130647.186,28.320,-23.926,-30.273,115.234,0.000
1606130647.190,-19.043,-20.996,-32.715,19.043,0.000
1606130647.194,-88.379,-29.297,-40.039,-146.484,0.000
1606130647.198,-91.797,-35.645,-39.062,-170.410,0.000
1606130647.202,-20.020,-28.320,-27.344,-4.395,0.000
1606130647.206,35.645,-21.973,-15.137,126.953,0.000
1606130647.210,3.906,-21.484,-18.066,49.805,0.000
1606130647.214,-73.242,-24.902,-25.391,-131.348,0.000
1606130647.217,-92.285,-26.367,-21.973,-184.082,0.000
1606130647.221,-24.414,-21.973,-22.461,-34.180,0.000
1606130647.225,37.598,-19.043,-21.973,108.887,0.000
1606130647.229,3.906,-16.113,-17.578,61.035,0.000
1606130647.233,-82.031,-24.902,-27.832,-116.699,0.000
1606130647.237,-102.539,-38.086,-34.180,-189.453,0.000
1606130647.241,-37.109,-28.809,-25.879,-55.176,0.000
1606130647.245,26.367,-18.555,-22.461,106.934,0.000
1606130647.249,11.719,-20.996,-21.484,91.797,0.000
1606130647.253,-59.570,-16.602,-22.949,-83.008,0.000
1606130647.256,-97.168,-19.043,-21.484,-181.152,0.000
1606130647.260,-43.457,-29.785,-25.879,-71.289,0.000
1606130647.264,29.297,-20.996,-27.832,94.727,0.000
1606130647.268,26.367,-12.695,-20.996,104.980,0.000
1606130647.272,-47.363,-20.996,-24.414,-72.266,0.000
1606130647.276,-93.262,-27.344,-29.785,-191.406,0.000
1606130647.280,-51.758,-28.320,-30.762,-103.027,0.000
1606130647.284,24.902,-24.902,-22.461,74.219,0.000
1606130647.288,31.738,-22.461,-17.578,114.746,0.000
1606130647.292,-48.340,-34.668,-29.785,-51.270,0.000
1606130647.296,-101.562,-44.434,-36.621,-186.523,0.000
1606130647.299,-64.453,-35.156,-34.180,-117.188,0.000
1606130647.303,16.602,-25.879,-18.555,69.336,0.000
1606130647.307,33.203,-22.461,-9.766,124.512,0.000
1606130647.311,-31.250,-29.785,-25.391,-23.926,0.000
1606130647.315,-87.402,-40.527,-38.574,-170.410,0.000
1606130647.319,-74.219,-26.367,-26.367,-127.441,0.000
1606130647.323,-0.977,-11.230,-16.602,55.664,0.000
1606130647.327,24.902,-23.438,-31.738,126.953,0.000
1606130647.331,-34.180,-31.250,-42.969,9.766,0.000
1606130647.335,-95.215,-31.738,-28.320,-145.996,0.000
1606130647.339,-85.449,-31.250,-18.555,-139.648,0.000
1606130647.342,-11.230,-29.785,-18.555,51.270,0.000
1606130647.346,41.992,-21.973,-26.367,154.297,0.000
1606130647.350,-3.418,-6.836,-41.504,44.922,0.000
1606130647.354,-84.961,-3.418,-42.480,-131.348,0.000
1606130647.358,-98.145,-16.602,-43.457,-170.898,0.000
1606130647.362,-23.926,-7.812,-40.039,-5.859,0.000
1606130647.366,28.320,6.836,-43.945,107.422,0.000
1606130647.370,-10.254,5.371,-45.898,26.367,0.000
1606130647.374,-77.637,6.836,-41.504,-131.836,0.000
1606130647.378,-94.727,-0.977,-51.270,-175.293,0.000
1606130647.381,-38.574,-6.836,-52.734,-33.691,0.000
1606130647.385,18.555,-2.930,-45.898,100.586,0.000
1606130647.389,3.906,-3.906,-48.828,59.082,0.000
1606130647.393,-58.594,-3.418,-49.805,-110.352,0.000
1606130647.397,-75.684,-15.137,-54.199,-183.105,0.000
1606130647.401,-9.277,-11.719,-45.898,-42.480,0.000
1606130647.405,56.152,-9.277,-32.227,120.117,0.000
1606130647.409,37.598,-16.602,-41.016,97.656,0.000
1606130647.413,-37.598,-16.113,-50.781,-84.473,0.000
1606130647.417,-71.289,-20.508,-43.457,-168.457,0.000
1606130647.421,-22.461,-22.461,-33.203,-45.898,0.000
1606130647.424,50.781,-17.090,-29.785,116.211,0.000
1606130647.428,48.828,-18.555,-36.133,120.605,0.000
1606130647.432,-21.484,-20.996,-44.922,-46.875,0.000
1606130647.436,-68.848,-26.367,-42.480,-156.738,0.000
1606130647.440,-34.180,-28.320,-39.062,-63.477,0.000
1606130647.444,38.086,-27.344,-38.086,104.004,0.000
1606130647.448,46.875,-28.809,-32.715,139.160,0.000
1606130647.452,-17.578,-24.414,-34.668,-12.207,0.000
1606130647.456,-69.824,-26.855,-41.992,-143.555,0.000
1606130647.460,-44.922,-31.738,-39.062,-78.125,0.000
1606130647.464,31.250,-22.461,-33.691,97.656,0.000
1606130647.467,50.293,-25.879,-32.715,140.137,0.000
1606130647.471,-20.020,-25.391,-31.250,-6.836,0.000
1606130647.475,-80.566,-27.344,-29.785,-156.738,0.000
1606130647.479,-61.523,-39.062,-29.297,-119.629,0.000
1606130647.483,15.625,-32.227,-29.297,67.871,0.000
1606130647.487,52.734,-27.832,-23.438,150.879,0.000
1606130647.491,-7.324,-25.879,-24.414,20.996,0.000
1606130647.495,-83.008,-15.137,-32.227,-146.973,0.000
1606130647.499,-71.289,-25.879,-26.855,-138.672,0.000
1606130647.503,2.441,-32.227,-22.461,26.367,0.000
1606130647.506,31.250,-25.879,-20.020,119.629,0.000
1606130647.510,-4.395,-34.668,-20.508,16.113,0.000
1606130647.514,-63.965,-41.992,-26.855,-151.855,0.000
1606130647.518,-83.008,-43.945,-31.250,-162.109,0.000
1606130647.522,-15.137,-34.668,-25.879,3.906,0.000
1606130647.526,39.551,-25.391,-29.297,118.652,0.000
1606130647.530,1.465,-21.973,-40.527,41.504,0.000
1606130647.534,-76.172,-28.809,-41.016,-129.395,0.000
1606130647.538,-86.914,-41.016,-38.086,-166.504,0.000
1606130647.542,-20.020,-37.598,-29.785,-16.113,0.000
1606130647.546,35.645,-30.762,-21.973,123.047,0.000
1606130647.549,14.160,-33.203,-27.344,80.566,0.000
1606130647.553,-64.453,-38.574,-29.785,-99.609,0.000
1606130647.557,-93.262,-38.086,-32.227,-169.922,0.000
1606130647.561,-33.203,-31.250,-29.785,-30.273,0.000
1606130647.565,32.227,-20.996,-25.879,125.000,0.000
1606130647.569,20.508,-23.438,-29.785,101.562,0.000
1606130647.573,-59.082,-30.762,-37.598,-87.891,0.000
1606130647.577,-97.168,-32.715,-39.062,-178.711,0.000
1606130647.581,-38.574,-27.832,-29.297,-52.246,0.000
1606130647.585,33.203,-18.066,-22.949,111.816,0.000
1606130647.589,28.320,-18.555,-28.809,106.934,0.000
1606130647.592,-49.805,-36.133,-41.504,-78.613,0.000
1606130647.596,-96.191,-38.086,-43.457,-191.406,0.000
1606130647.600,-48.340,-26.855,-39.062,-102.539,0.000
1606130647.604,18.555,-23.438,-36.133,64.453,0.000
1606130647.608,17.578,-25.879,-37.109,95.215,0.000
1606130647.612,-49.316,-29.297,-42.480,-68.359,0.000
1606130647.616,-105.957,-33.691,-43.945,-204.590,0.000
1606130647.620,-63.965,-31.250,-36.621,-130.371,0.000
1606130647.624,17.090,-22.949,-28.320,53.223,0.000
1606130647.628,26.855,-28.809,-32.227,99.121,0.000
1606130647.631,-40.039,-39.062,-35.645,-49.805,0.000
1606130647.635,-103.027,-43.945,-34.668,-190.430,0.000
1606130647.639,-87.402,-34.668,-33.691,-151.367,0.000
1606130647.643,-9.766,-23.926,-23.438,31.250,0.000
1606130647.647,19.531,-29.785,-15.625,115.234,0.000
1606130647.651,-39.551,-36.133,-23.926,-8.301,0.000
1606130647.655,-104.004,-36.621,-27.832,-161.133,0.000
1606130647.659,-92.773,-35.156,-27.832,-143.066,0.000
1606130647.663,-16.602,-33.691,-29.297,34.668,0.000
1606130647.667,24.414,-38.086,-15.625,139.648,0.000
1606130647.671,-6.836,-31.738,-19.531,47.852,0.000
1606130647.674,-68.848,-25.391,-31.738,-115.723,0.000
1606130647.678,-77.148,-32.227,-31.738,-146.484,0.000
1606130647.682,-6.348,-24.414,-32.227,6.348,0.000
1606130647.686,41.992,-14.160,-19.043,132.324,0.000
1606130647.690,7.324,-13.184,-19.043,57.617,0.000
1606130647.694,-75.684,-25.391,-34.180,-126.465,0.000
1606130647.698,-106.445,-32.715,-37.109,-173.340,0.000
1606130647.702,-34.180,-24.414,-27.344,-16.602,0.000
1606130647.706,33.691,-16.113,-24.414,118.164,0.000
1606130647.710,7.812,-24.902,-34.668,59.082,0.000
1606130647.714,-61.523,-35.645,-42.480,-113.770,0.000
1606130647.717,-78.125,-31.250,-39.551,-174.805,0.000
1606130647.721,-17.578,-26.855,-32.227,-38.574,0.000
1606130647.725,41.016,-21.973,-31.738,109.375,0.000
1606130647.729,23.926,-15.625,-25.879,82.520,0.000
1606130647.733,-47.363,-17.090,-29.785,-96.680,0.000
1606130647.737,-82.031,-26.367,-41.504,-187.500,0.000
1606130647.741,-27.344,-25.391,-35.156,-73.242,0.000
1606130647.745,42.969,-14.160,-24.414,88.379,0.000
1606130647.749,35.156,-14.648,-29.297,86.426,0.000
1606130647.753,-36.133,-20.996,-35.156,-75.684,0.000
1606130647.756,-71.777,-20.996,-34.668,-180.664,0.000
1606130647.760,-29.785,-19.043,-27.344,-85.938,0.000
1606130647.764,31.738,-10.742,-15.137,85.449,0.000
1606130647.768,50.293,-2.930,-13.672,113.770,0.000
1606130647.772,-15.137,-7.324,-25.391,-49.316,0.000
1606130647.776,-83.496,-13.672,-30.762,-187.500,0.000
1606130647.780,-55.664,-25.879,-27.344,-122.070,0.000
1606130647.784,13.184,-26.367,-27.344,52.246,0.000
1606130647.788,21.973,-27.344,-27.344,101.074,0.000
1606130647.792,-44.434,-37.598,-34.668,-47.363,0.000
1606130647.796,-99.609,-41.992,-32.715,-195.312,0.000
1606130647.799,-68.359,-35.156,-21.973,-145.508,0.000
1606130647.803,8.301,-26.367,-14.160,52.246,0.000
1606130647.807,28.809,-20.020,-6.348,128.418,0.000
1606130647.811,-29.297,-19.043,-7.324,1.953,0.000
1606130647.815,-101.074,-30.273,-15.625,-154.297,0.000
1606130647.819,-92.285,-35.156,-21.973,-152.832,0.000
1606130647.823,-15.137,-31.738,-19.043,15.625,0.000
1606130647.827,20.996,-31.250,-17.578,116.699,0.000
1606130647.831,-27.344,-33.203,-16.113,22.461,0.000
1606130647.835,-98.145,-33.203,-17.090,-145.508,0.000
1606130647.839,-99.121,-27.832,-20.508,-163.574,0.000
1606130647.842,-20.996,-20.996,-17.578,5.859,0.000
1606130647.846,26.367,-17.578,-15.137,117.188,0.000
1606130647.850,-14.648,-22.461,-19.043,34.180,0.000
1606130647.854,-84.961,-25.391,-26.855,-145.508,0.000
1606130647.858,-97.168,-22.949,-28.809,-186.523,0.000
1606130647.862,-21.484,-18.555,-22.949,-20.020,0.000
1606130647.866,37.109,-21.973,-21.973,112.305,0.000
1606130647.870,10.254,-30.273,-27.344,52.246,0.000
1606130647.874,-69.336,-34.668,-28.809,-113.770,0.000
1606130647.878,-85.938,-30.762,-26.367,-165.527,0.000
1606130647.881,-27.344,-32.715,-21.484,-29.297,0.000
1606130647.885,16.602,-29.297,-19.043,122.070,0.000
1606130647.889,3.906,-25.391,-17.090,101.074,0.000
1606130647.893,-67.871,-32.227,-23.926,-79.590,0.000
1606130647.897,-100.098,-39.062,-32.227,-169.434,0.000
1606130647.901,-50.293,-32.715,-26.367,-53.711,0.000
1606130647.905,15.625,-24.902,-23.926,105.469,0.000
1606130647.909,10.742,-27.832,-28.809,103.516,0.000
1606130647.913,-62.988,-26.367,-36.133,-71.289,0.000
1606130647.917,-105.469,-35.156,-36.621,-185.547,0.000
1606130647.921,-55.176,-40.039,-33.203,-96.191,0.000
1606130647.924,24.902,-27.344,-18.555,86.914,0.000
1606130647.928,24.902,-26.855,-13.184,116.699,0.000
1606130647.932,-54.688,-36.133,-28.809,-50.293,0.000
1606130647.936,-101.074,-34.180,-34.180,-177.246,0.000
1606130647.940,-66.895,-34.180,-36.133,-114.258,0.000
1606130647.944,3.418,-34.180,-22.461,62.988,0.000
1606130647.948,13.184,-30.762,-11.230,116.211,0.000
1606130647.952,-55.664,-31.250,-19.531,-28.320,0.000
1606130647.956,-110.352,-33.691,-24.902,-163.086,0.000
1606130647.960,-95.215,-36.621,-21.484,-130.859,0.000
1606130647.964,-22.949,-36.621,-19.043,35.156,0.000
1606130647.967,8.301,-33.203,-23.438,105.469,0.000
1606130647.971,-45.410,-30.762,-30.273,-27.344,0.000
1606130647.975,-110.352,-33.691,-32.227,-186.035,0.000
1606130647.979,-102.539,-41.504,-32.227,-171.875,0.000
1606130647.983,-25.879,-37.109,-23.926,9.766,0.000
1606130647.987,8.301,-35.156,-24.902,106.934,0.000
1606130647.991,-38.086,-40.527,-32.715,-3.906,0.000
1606130647.995,-101.074,-42.969,-31.250,-169.922,0.000
1606130647.999,-105.469,-40.527,-29.785,-180.664,0.000
1606130648.003,-32.227,-31.738,-20.508,-8.789,0.000
1606130648.006,18.555,-32.227,-13.672,110.352,0.000
1606130648.010,-23.926,-31.738,-21.973,33.691,0.000
1606130648.014,-98.633,-32.227,-28.809,-140.625,0.000
1606130648.018,-103.027,-37.598,-27.344,-175.293,0.000
1606130648.022,-33.691,-34.180,-21.973,-11.719,0.000
1606130648.026,23.438,-30.762,-13.672,124.512,0.000
1606130648.030,-2.441,-36.133,-15.625,69.336,0.000
1606130648.034,-72.754,-41.504,-21.973,-107.422,0.000
1606130648.038,-88.379,-41.992,-24.414,-174.316,0.000
1606130648.042,-28.320,-35.645,-20.508,-40.039,0.000
1606130648.046,31.738,-23.926,-16.113,113.770,0.000
1606130648.049,18.066,-20.508,-20.020,91.797,0.000
1606130648.053,-57.129,4.883,-26.855,-83.008,0.000
1606130648.057,-90.820,0.000,-28.809,-173.340,0.000
1606130648.061,-40.039,-29.297,-23.438,-64.941,0.000
1606130648.065,27.344,-20.996,-19.043,86.914,0.000
1606130648.069,23.926,-23.438,-18.555,77.637,0.000
1606130648.073,-48.340,-31.250,-23.926,-92.773,0.000
1606130648.077,-89.844,-31.738,-22.461,-197.754,0.000
1606130648.081,-45.410,-27.344,-18.555,-104.980,0.000
1606130648.085,31.250,-23.926,-20.996,65.918,0.000
1606130648.089,36.133,-27.344,-25.879,89.844,0.000
1606130648.092,-31.250,-27.832,-23.438,-67.383,0.000
1606130648.096,-79.102,-35.156,-27.832,-195.801,0.000
1606130648.100,-45.410,-35.156,-34.668,-131.836,0.000
1606130648.104,26.855,-26.367,-22.461,55.176,0.000
1606130648.108,42.480,-23.438,-11.230,110.840,0.000
1606130648.112,-25.879,-20.996,-21.973,-40.039,0.000
1606130648.116,-89.355,-26.855,-31.738,-187.988,0.000
1606130648.120,-70.801,-32.715,-28.809,-147.461,0.000
1606130648.124,-0.488,-28.809,-25.391,34.180,0.000
1606130648.128,20.996,-32.227,-20.508,107.910,0.000
1606130648.131,-38.086,-37.598,-22.461,-21.973,0.000
1606130648.135,-104.492,-43.457,-28.320,-182.129,0.000
1606130648.139,-96.680,-39.062,-34.180,-166.504,0.000
1606130648.143,-18.066,-28.320,-31.250,24.414,0.000
1606130648.147,25.391,-32.227,-23.438,125.488,0.000
1606130648.151,-30.273,-44.922,-20.508,14.160,0.000
1606130648.155,-113.281,-47.363,-26.367,-156.738,0.000
1606130648.159,-105.469,-45.898,-23.438,-160.645,0.000
1606130648.163,-29.297,-47.852,-13.672,17.578,0.000
1606130648.167,11.230,-44.434,-7.812,136.230,0.000
1606130648.171,-29.785,-44.434,-9.766,50.781,0.000
1606130648.174,-105.469,-51.758,-16.113,-125.488,0.000
1606130648.178,-117.676,-50.781,-16.602,-161.621,0.000
1606130648.182,-43.945,-40.039,-16.113,-10.742,0.000
1606130648.186,16.113,-37.598,-9.277,126.465,0.000
1606130648.190,-14.648,-40.527,-12.695,73.730,0.000
1606130648.194,-90.820,-45.410,-21.484,-111.328,0.000
1606130648.198,-108.398,-46.387,-26.367,-173.340,0.000
1606130648.202,-44.922,-39.551,-26.855,-34.180,0.000
1606130648.206,18.555,-35.156,-22.461,112.793,0.000
1606130648.210,4.395,-33.203,-23.926,83.984,0.000
1606130648.214,-64.941,-34.668,-25.391,-87.402,0.000
1606130648.217,-91.797,-37.109,-20.508,-165.527,0.000
1606130648.221,-44.922,-33.691,-17.090,-46.387,0.000
1606130648.225,17.090,-29.297,-15.625,112.305,0.000
1606130648.229,14.160,-29.297,-18.555,113.281,0.000
1606130648.233,-52.734,-37.109,-23.438,-57.129,0.000
1606130648.237,-90.332,-39.551,-24.414,-160.156,0.000
1606130648.241,-44.922,-36.621,-16.113,-61.523,0.000
1606130648.245,21.973,-36.133,-20.508,100.586,0.000
1606130648.249,27.344,-34.668,-27.344,118.652,0.000
1606130648.253,-41.016,-39.551,-26.367,-43.945,0.000
1606130648.256,-94.727,-40.039,-30.273,-161.621,0.000
1606130648.260,-56.641,-29.297,-23.438,-78.613,0.000
1606130648.264,18.066,-16.602,-14.648,97.168,0.000
1606130648.268,27.344,-15.137,-16.113,142.090,0.000
1606130648.272,-43.457,-27.832,-23.438,-11.230,0.000
1606130648.276,-95.703,-36.133,-28.320,-161.133,0.000
1606130648.280,-66.895,-33.691,-27.344,-118.164,0.000
1606130648.284,4.883,-30.273,-27.344,56.641,0.000
1606130648.288,28.809,-29.297,-32.715,119.141,0.000
1606130648.292,-35.156,-44.434,-38.086,-19.531,0.000
1606130648.296,-106.934,-48.828,-37.109,-179.199,0.000
1606130648.299,-92.773,-32.227,-29.785,-153.320,0.000
1606130648.303,-15.137,-23.438,-27.344,33.203,0.000
1606130648.307,21.484,-22.949,-32.227,122.559,0.000
1606130648.311,-22.461,-30.273,-33.691,12.695,0.000
1606130648.315,-91.309,-35.156,-35.156,-149.414,0.000
1606130648.319,-91.309,-33.691,-38.086,-159.180,0.000
1606130648.323,-16.602,-28.809,-40.039,7.324,0.000
1606130648.327,33.691,-22.461,-35.156,127.930,0.000
1606130648.331,0.000,-22.461,-33.203,53.711,0.000
1606130648.335,-77.148,-34.668,-41.992,-126.953,0.000
1606130648.339,-88.867,-37.109,-36.621,-167.480,0.000
1606130648.342,-16.113,-24.902,-25.391,-3.418,0.000
1606130648.346,39.062,-16.602,-16.113,138.184,0.000
1606130648.350,10.742,-21.973,-12.695,82.520,0.000
1606130648.354,-62.500,-32.227,-17.090,-97.168,0.000
1606130648.358,-90.332,-40.039,-28.320,-166.016,0.000
1606130648.362,-35.156,-37.109,-29.785,-26.367,0.000
1606130648.366,31.738,-25.391,-22.949,125.977,0.000
1606130648.370,12.695,-22.949,-23.926,90.332,0.000
1606130648.374,-64.941,-25.879,-27.832,-92.285,0.000
1606130648.378,-92.773,-28.809,-27.832,-176.758,0.000
1606130648.381,-43.457,-28.809,-26.367,-60.547,0.000
1606130648.385,17.578,-24.414,-25.879,97.168,0.000
1606130648.389,9.277,-27.344,-21.484,100.098,0.000
1606130648.393,-60.059,-34.668,-28.809,-77.148,0.000
1606130648.397,-85.449,-27.832,-37.598,-185.059,0.000
1606130648.401,-37.598,-32.715,-28.320,-79.590,0.000
1606130648.405,20.020,-31.738,-18.555,89.844,0.000
1606130648.409,13.672,-31.250,-13.672,106.934,0.000
1606130648.413,-66.406,-46.387,-14.648,-58.594,0.000
1606130648.417,-117.676,-49.316,-17.578,-174.316,0.000
1606130648.421,-78.125,-42.480,-13.672,-104.980,0.000
1606130648.424,-7.324,-37.598,-10.254,64.453,0.000
1606130648.428,13.184,-31.738,-11.719,105.957,0.000
1606130648.432,-44.434,-38.574,-14.648,-46.875,0.000
1606130648.436,-114.746,-52.734,-20.020,-185.547,0.000
1606130648.440,-86.914,-43.457,-18.066,-134.277,0.000
1606130648.444,-3.418,-34.668,-9.277,49.316,0.000
1606130648.448,20.508,-32.227,-11.719,120.605,0.000
1606130648.452,-33.691,-33.691,-19.531,-15.137,0.000
1606130648.456,-95.215,-36.133,-23.438,-166.016,0.000
1606130648.460,-89.844,-38.574,-21.484,-147.949,0.000
1606130648.464,-5.859,-31.250,-18.066,28.809,0.000
1606130648.467,33.691,-21.484,-18.555,126.465,0.000
1606130648.471,-22.949,-41.016,-21.484,12.695,0.000
1606130648.475,-93.262,-54.688,-23.438,-155.273,0.000
1606130648.479,-86.914,-43.457,-20.508,-165.039,0.000
1606130648.483,-4.883,-30.762,-11.230,13.672,0.000
1606130648.487,45.898,-20.020,-3.418,137.207,0.000
1606130648.491,0.000,-23.438,-14.160,46.387,0.000
1606130648.495,-77.148,-29.297,-25.879,-131.836,0.000
1606130648.499,-89.844,-30.273,-23.926,-165.039,0.000
1606130648.503,-14.160,-28.809,-19.043,-6.348,0.000
1606130648.506,37.598,-25.879,-15.625,125.488,0.000
1606130648.510,1.465,-25.391,-16.113,63.965,0.000
1606130648.514,-73.730,-24.902,-20.020,-110.840,0.000
1606130648.518,-100.098,-25.391,-23.438,-168.457,0.000
1606130648.522,-32.715,-19.531,-23.926,-31.250,0.000
1606130648.526,28.809,-19.531,-22.949,109.375,0.000
1606130648.530,10.254,-24.902,-21.484,73.242,0.000
1606130648.534,-69.336,-26.367,-29.297,-106.934,0.000
1606130648.538,-104.004,-37.598,-38.086,-193.359,0.000
1606130648.542,-40.527,-36.621,-34.180,-71.777,0.000
1606130648.546,23.926,-31.250,-32.227,87.402,0.000
1606130648.549,15.625,-25.391,-29.785,90.820,0.000
1606130648.553,-59.570,-22.949,-29.297,-78.125,0.000
1606130648.557,-102.539,-34.668,-34.180,-186.035,0.000
1606130648.561,-49.316,-31.250,-37.109,-87.891,0.000
1606130648.565,27.344,-23.438,-31.738,89.844,0.000
1606130648.569,28.809,-25.391,-28.809,112.793,0.000
1606130648.573,-47.363,-27.344,-35.645,-58.594,0.000
1606130648.577,-99.121,-36.621,-39.062,-185.547,0.000
1606130648.581,-58.594,-29.785,-32.715,-105.957,0.000
1606130648.585,22.461,-19.043,-25.879,79.102,0.000
1606130648.589,37.598,-25.879,-21.484,128.418,0.000
1606130648.592,-33.203,-37.109,-23.926,-22.461,0.000
1606130648.596,-92.773,-41.016,-23.926,-160.645,0.000
1606130648.600,-66.406,-38.574,-22.461,-109.863,0.000
1606130648.604,4.883,-31.738,-23.438,62.012,0.000
1606130648.608,29.297,-27.832,-26.367,128.418,0.000
1606130648.612,-29.785,-25.391,-33.203,-1.953,0.000
1606130648.616,-95.215,-27.344,-36.133,-163.574,0.000
1606130648.620,-81.543,-33.203,-33.691,-149.414,0.000
1606130648.624,7.812,-20.996,-24.414,32.715,0.000
1606130648.628,43.945,-16.113,-20.508,126.953,0.000
1606130648.631,-25.391,-23.926,-28.809,14.160,0.000
1606130648.635,-96.191,-36.133,-37.109,-149.414,0.000
1606130648.639,-90.820,-37.109,-35.645,-154.785,0.000
1606130648.643,-5.371,-24.414,-26.367,21.484,0.000
1606130648.647,44.922,-24.902,-15.137,137.207,0.000
1606130648.651,-6.836,-32.715,-16.113,44.434,0.000
1606130648.655,-78.613,-30.762,-25.391,-130.859,0.000
1606130648.659,-87.402,-28.809,-29.785,-166.016,0.000
1606130648.663,-19.043,-25.391,-20.020,-5.371,0.000
1606130648.667,33.691,-20.508,-17.578,126.465,0.000
1606130648.671,10.254,-18.555,-28.320,55.176,0.000
1606130648.674,-63.477,-20.020,-27.344,-125.488,0.000
1606130648.678,-93.262,-26.855,-27.344,-181.641,0.000
1606130648.682,-28.320,-21.484,-25.391,-37.598,0.000
1606130648.686,30.273,-21.973,-17.090,108.887,0.000
1606130648.690,2.930,-28.320,-20.508,67.383,0.000
1606130648.694,-78.125,-36.133,-20.508,-109.863,0.000
1606130648.698,-104.004,-42.480,-19.043,-171.387,0.000
1606130648.702,-39.062,-26.367,-22.461,-35.156,0.000
1606130648.706,34.668,-16.113,-21.484,115.723,0.000
1606130648.710,24.902,-20.508,-20.020,96.680,0.000
1606130648.714,-65.430,-20.020,-31.250,-95.215,0.000
1606130648.717,-107.910,-22.949,-33.691,-198.242,0.000
1606130648.721,-46.387,-26.855,-27.344,-89.355,0.000
1606130648.725,31.250,-18.555,-30.273,78.613,0.000
1606130648.729,34.180,-16.602,-25.391,99.121,0.000
1606130648.733,-42.480,-28.809,-22.461,-67.871,0.000
1606130648.737,-90.332,-32.715,-28.320,-183.105,0.000
1606130648.741,-53.711,-25.391,-31.738,-109.375,0.000
1606130648.745,18.555,-17.578,-28.320,62.500,0.000
1606130648.749,39.551,-11.230,-23.438,122.070,0.000
1606130648.753,-25.391,-6.836,-30.762,-32.227,0.000
1606130648.756,-94.238,-18.555,-37.109,-172.363,0.000
1606130648.760,-75.684,-28.809,-34.668,-114.746,0.000
1606130648.764,4.883,-26.367,-29.785,57.129,0.000
1606130648.768,28.809,-24.902,-25.879,120.605,0.000
1606130648.772,-28.809,-24.902,-31.738,-8.789,0.000
1606130648.776,-83.984,-29.297,-37.598,-160.156,0.000
1606130648.780,-69.336,-34.180,-30.762,-142.578,0.000
1606130648.784,8.789,-30.762,-29.785,31.738,0.000
1606130648.788,47.852,-20.020,-21.484,124.023,0.000
1606130648.792,-4.395,-26.855,-13.672,10.254,0.000
1606130648.796,-81.543,-33.203,-26.855,-162.598,0.000
1606130648.799,-79.590,-28.809,-32.715,-162.109,0.000
1606130648.803,-8.301,-21.484,-23.438,17.090,0.000
1606130648.807,32.227,-26.367,-16.602,119.629,0.000
1606130648.811,-11.230,-26.367,-24.902,24.902,0.000
1606130648.815,-86.426,-16.113,-30.273,-139.160,0.000
1606130648.819,-84.473,-30.273,-26.367,-166.992,0.000
1606130648.823,-23.438,-32.715,-25.879,-9.766,0.000
1606130648.827,17.578,-29.297,-27.344,116.211,0.000
1606130648.831,-11.719,-34.668,-26.855,50.781,0.000
1606130648.835,-87.891,-37.598,-31.738,-123.535,0.000
1606130648.839,-107.422,-44.434,-34.668,-188.965,0.000
1606130648.842,-41.016,-41.016,-23.926,-45.410,0.000
1606130648.846,23.926,-38.086,-22.461,106.934,0.000
1606130648.850,0.977,-37.109,-29.785,63.477,0.000
1606130648.854,-81.055,-32.715,-35.645,-121.582,0.000
1606130648.858,-106.445,-44.922,-34.180,-197.754,0.000
1606130648.862,-42.480,-43.457,-22.949,-63.965,0.000
1606130648.866,32.227,-27.832,-15.137,106.445,0.000
1606130648.870,25.391,-29.785,-20.020,98.145,0.000
1606130648.874,-59.570,-42.969,-23.926,-87.891,0.000
1606130648.878,-96.680,-42.480,-22.461,-187.988,0.000
1606130648.881,-53.223,-37.598,-17.578,-83.984,0.000
1606130648.885,10.742,-34.180,-15.625,77.637,0.000
1606130648.889,18.066,-31.250,-18.555,96.191,0.000
1606130648.893,-57.617,-36.133,-26.855,-65.918,0.000
1606130648.897,-108.398,-43.457,-32.715,-188.965,0.000
1606130648.901,-70.801,-41.992,-32.227,-117.188,0.000
1606130648.905,3.418,-34.180,-28.809,60.547,0.000
1606130648.909,21.484,-31.250,-21.973,111.328,0.000
1606130648.913,-45.898,-35.156,-26.855,-45.410,0.000
1606130648.917,-98.633,-39.551,-31.250,-183.594,0.000
1606130648.921,-68.359,-33.691,-27.832,-124.023,0.000
1606130648.924,16.113,-21.484,-16.113,62.500,0.000
1606130648.928,41.016,-21.973,-13.672,126.465,0.000
1606130648.932,-27.832,-27.344,-21.484,-12.207,0.000
1606130648.936,-91.797,-26.855,-25.391,-158.203,0.000
1606130648.940,-76.172,-24.414,-28.809,-140.137,0.000
1606130648.944,-0.977,-27.832,-23.926,34.180,0.000
1606130648.948,31.250,-22.949,-18.555,121.094,0.000
1606130648.952,-21.973,-30.762,-27.832,1.465,0.000
1606130648.956,-90.332,-38.574,-34.668,-151.855,0.000
1606130648.960,-87.402,-31.738,-33.691,-156.250,0.000
1606130648.964,-10.742,-24.414,-26.855,9.766,0.000
1606130648.967,29.785,-24.414,-22.949,120.117,0.000
1606130648.971,-12.695,-32.715,-24.902,28.320,0.000
1606130648.975,-80.566,-36.133,-22.949,-145.020,0.000
1606130648.979,-97.656,-37.598,-31.250,-178.223,0.000
1606130648.983,-16.113,-30.762,-26.855,-11.230,0.000
1606130648.987,49.805,-21.484,-20.020,122.559,0.000
1606130648.991,-5.371,-34.668,-29.297,43.457,0.000
1606130648.995,-82.520,-53.711,-30.273,-136.719,0.000
1606130648.999,-90.820,-45.410,-25.391,-186.523,0.000
1606130649.003,-26.855,-33.691,-25.391,-40.527,0.000
1606130649.006,29.785,-30.762,-27.344,104.004,0.000
1606130649.010,12.207,-32.227,-26.855,64.453,0.000
1606130649.014,-62.012,-34.180,-29.297,-114.746,0.000
1606130649.018,-87.891,-31.738,-30.762,-190.918,0.000
1606130649.022,-31.250,-33.203,-27.832,-63.477,0.000
1606130649.026,24.414,-29.297,-21.484,92.773,0.000
1606130649.030,11.719,-27.832,-20.996,87.402,0.000
1606130649.034,-65.430,-34.668,-25.879,-84.473,0.000
1606130649.038,-107.910,-39.062,-23.926,-188.965,0.000
1606130649.042,-56.641,-35.156,-14.160,-83.008,0.000
1606130649.046,11.719,-25.391,-14.160,86.426,0.000
1606130649.049,11.230,-20.996,-18.066,104.004,0.000
1606130649.053,-58.105,-22.949,-21.484,-56.152,0.000
1606130649.057,-105.469,-24.902,-21.973,-170.898,0.000
1606130649.061,-61.035,-21.973,-13.184,-97.168,0.000
1606130649.065,10.254,-19.531,-13.184,80.566,0.000
1606130649.069,15.137,-25.879,-19.043,123.535,0.000
1606130649.073,-44.922,-31.250,-21.973,-33.203,0.000
1606130649.077,-97.168,-30.762,-21.484,-161.133,0.000
1606130649.081,-71.289,-30.273,-17.090,-101.562,0.000
1606130649.085,9.766,-23.438,-12.207,76.660,0.000
1606130649.089,30.762,-24.414,-10.254,136.719,0.000
1606130649.092,-33.691,-36.133,-24.902,-11.719,0.000
1606130649.096,-95.703,-34.668,-32.715,-161.621,0.000
1606130649.100,-76.172,-26.855,-23.438,-128.906,0.000
1606130649.104,0.977,-29.297,-19.531,45.410,0.000
1606130649.108,31.738,-31.738,-21.484,126.465,0.000
1606130649.112,-24.414,-30.762,-26.367,13.672,0.000
1606130649.116,-94.238,-35.645,-30.762,-145.508,0.000
1606130649.120,-90.820,-41.016,-29.785,-152.344,0.000
1606130649.124,-16.602,-34.180,-24.902,17.090,0.000
1606130649.128,34.668,-19.043,-15.137,134.766,0.000
1606130649.131,-6.348,-35.645,-14.160,45.410,0.000
1606130649.135,-79.590,-52.246,-23.438,-127.441,0.000
1606130649.139,-88.379,-38.086,-25.879,-161.133,0.000
1606130649.143,-16.113,-27.344,-24.414,-5.859,0.000
1606130649.147,37.109,-18.066,-19.043,125.488,0.000
1606130649.151,0.977,-20.996,-12.695,63.965,0.000
1606130649.155,-79.102,-28.809,-18.066,-114.258,0.000
1606130649.159,-106.445,-35.156,-23.438,-170.898,0.000
1606130649.163,-41.504,-36.621,-21.973,-30.273,0.000
1606130649.167,20.996,-31.738,-19.531,109.863,0.000
1606130649.171,-2.441,-30.762,-21.973,62.988,0.000
1606130649.174,-78.125,-31.250,-28.320,-116.211,0.000
1606130649.178,-101.562,-29.297,-23.926,-185.547,0.000
1606130649.182,-45.410,-27.832,-20.508,-58.105,0.000
1606130649.186,20.020,-22.949,-15.137,103.027,0.000
1606130649.190,14.648,-21.973,-11.719,92.285,0.000
1606130649.194,-64.453,-30.762,-26.367,-94.238,0.000
1606130649.198,-102.051,-35.645,-31.250,-195.801,0.000
1606130649.202,-51.270,-33.203,-24.902,-89.844,0.000
1606130649.206,11.230,-26.367,-26.367,79.102,0.000
1606130649.210,14.648,-17.090,-30.762,101.074,0.000
1606130649.214,-52.246,-18.555,-34.668,-68.359,0.000
1606130649.217,-98.145,-27.832,-32.227,-184.082,0.000
1606130649.221,-59.570,-27.344,-26.855,-100.586,0.000
1606130649.225,14.648,-19.043,-19.531,74.707,0.000
1606130649.229,26.855,-14.160,-15.625,123.535,0.000
1606130649.233,-50.781,-34.180,-29.785,-44.434,0.000
1606130649.237,-106.445,-39.551,-38.574,-186.523,0.000
1606130649.241,-68.848,-31.250,-37.598,-122.559,0.000
1606130649.245,7.324,-28.809,-33.691,53.711,0.000
1606130649.249,31.250,-22.949,-25.391,120.605,0.000
1606130649.253,-31.738,-26.855,-29.785,-13.184,0.000
1606130649.256,-98.145,-36.133,-33.203,-163.574,0.000
1606130649.260,-75.684,-33.203,-29.785,-135.742,0.000
1606130649.264,16.113,-20.020,-21.973,53.223,0.000
1606130649.268,51.758,-15.137,-15.625,149.902,0.000
1606130649.272,-20.508,-47.363,-21.484,15.625,0.000
1606130649.276,-95.703,-66.895,-28.320,-152.832,0.000
1606130649.280,-83.496,-38.086,-26.855,-146.484,0.000
1606130649.284,-12.695,-26.855,-20.020,18.066,0.000
1606130649.288,20.996,-27.344,-18.555,122.070,0.000
1606130649.292,-24.414,-28.809,-18.066,28.320,0.000
1606130649.296,-98.145,-33.691,-23.438,-145.508,0.000
1606130649.299,-98.633,-31.250,-27.832,-170.898,0.000
1606130649.303,-16.602,-25.879,-19.531,0.977,0.000
1606130649.307,36.133,-25.879,-18.066,130.371,0.000
1606130649.311,6.836,-27.344,-19.043,62.500,0.000
1606130649.315,-70.801,-29.785,-19.043,-109.863,0.000
1606130649.319,-90.820,-32.715,-22.949,-166.504,0.000
1606130649.323,-22.949,-29.785,-23.926,-22.461,0.000
1606130649.327,30.273,-23.926,-17.578,121.094,0.000
1606130649.331,12.695,-21.973,-20.508,85.449,0.000
1606130649.335,-63.965,-28.809,-24.902,-97.168,0.000
1606130649.339,-94.238,-30.762,-20.508,-177.734,0.000
1606130649.342,-31.250,-30.762,-21.484,-46.387,0.000
1606130649.346,34.668,-25.391,-20.020,115.234,0.000
1606130649.350,27.832,-20.508,-22.949,106.445,0.000
1606130649.354,-49.805,-34.180,-26.367,-74.707,0.000
1606130649.358,-86.914,-35.645,-24.902,-168.945,0.000
1606130649.362,-34.668,-24.902,-28.320,-58.105,0.000
1606130649.366,28.809,-20.996,-27.832,101.562,0.000
1606130649.370,25.879,-23.438,-21.484,104.004,0.000
1606130649.374,-51.270,-41.016,-23.926,-75.684,0.000
1606130649.378,-99.121,-43.945,-32.227,-195.801,0.000
1606130649.381,-56.641,-28.320,-31.738,-106.934,0.000
1606130649.385,15.137,-23.926,-30.273,71.777,0.000
1606130649.389,25.879,-21.484,-30.762,115.723,0.000
1606130649.393,-43.945,-27.832,-31.738,-37.109,0.000
1606130649.397,-97.168,-29.297,-31.738,-174.316,0.000
1606130649.401,-60.547,-25.391,-34.180,-117.676,0.000
1606130649.405,23.438,-14.648,-27.344,66.406,0.000
1606130649.409,43.945,-9.277,-23.926,133.301,0.000
1606130649.413,-28.809,-40.527,-29.297,-13.672,0.000
1606130649.417,-93.750,-42.969,-33.203,-176.758,0.000
1606130649.421,-73.242,-23.926,-33.691,-147.949,0.000
1606130649.424,9.766,-12.695,-20.996,42.480,0.000
1606130649.428,42.969,-7.812,-20.996,128.418,0.000
1606130649.432,-11.230,-15.137,-31.738,13.184,0.000
1606130649.436,-76.172,-21.973,-32.227,-138.184,0.000
1606130649.440,-72.754,-22.949,-24.902,-136.230,0.000
1606130649.444,1.465,-18.066,-17.090,39.551,0.000
1606130649.448,43.945,-17.090,-20.508,134.277,0.000
1606130649.452,-0.488,-23.926,-25.879,34.668,0.000
1606130649.456,-70.312,-30.273,-27.832,-126.953,0.000
1606130649.460,-76.172,-25.391,-23.926,-157.715,0.000
1606130649.464,-10.254,-20.508,-19.531,3.906,0.000
1606130649.467,40.039,-21.484,-19.531,125.977,0.000
1606130649.471,7.812,-33.691,-20.508,56.152,0.000
1606130649.475,-72.754,-43.945,-30.762,-116.699,0.000
1606130649.479,-85.449,-31.250,-31.250,-163.086,0.000
1606130649.483,-20.508,-19.531,-25.879,-20.996,0.000
1606130649.487,33.691,-11.719,-24.414,116.211,0.000
1606130649.491,9.766,-14.648,-22.949,74.219,0.000
1606130649.495,-65.918,-24.414,-25.879,-105.957,0.000
1606130649.499,-86.426,-20.508,-27.344,-171.387,0.000
1606130649.503,-32.715,-17.578,-27.832,-43.457,0.000
1606130649.506,26.367,-18.066,-26.855,101.074,0.000
1606130649.510,12.207,-27.344,-31.738,79.102,0.000
1606130649.514,-70.312,-41.016,-38.574,-102.051,0.000
1606130649.518,-109.863,-38.086,-34.180,-195.801,0.000
1606130649.522,-61.523,-33.691,-30.273,-86.426,0.000
1606130649.526,13.184,-30.273,-25.391,88.867,0.000
1606130649.530,20.020,-28.809,-22.949,104.980,0.000
1606130649.534,-57.617,-29.785,-25.391,-72.266,0.000
1606130649.538,-101.074,-36.133,-26.367,-191.895,0.000
1606130649.542,-62.500,-36.621,-22.461,-108.887,0.000
1606130649.546,13.672,-23.926,-12.207,78.125,0.000
1606130649.549,34.180,-20.020,-9.277,129.395,0.000
1606130649.553,-47.363,-36.133,-24.414,-39.551,0.000
1606130649.557,-107.910,-38.574,-29.785,-185.059,0.000
1606130649.561,-72.754,-36.621,-26.367,-129.395,0.000
1606130649.565,2.930,-40.527,-25.879,47.363,0.000
1606130649.569,24.414,-36.621,-19.043,111.328,0.000
1606130649.573,-37.598,-37.109,-26.367,-32.227,0.000
1606130649.577,-94.727,-36.621,-36.133,-177.246,0.000
1606130649.581,-64.941,-30.273,-32.227,-134.766,0.000
1606130649.585,17.090,-23.438,-21.973,44.922,0.000
1606130649.589,37.109,-27.344,-20.020,121.094,0.000
1606130649.592,-21.973,-33.691,-31.250,-0.977,0.000
1606130649.596,-90.332,-38.574,-33.203,-163.574,0.000
1606130649.600,-85.449,-43.457,-29.297,-161.621,0.000
1606130649.604,-6.836,-40.039,-25.391,19.043,0.000
1606130649.608,35.645,-33.203,-17.090,133.301,0.000
1606130649.612,-15.625,-41.504,-22.461,34.180,0.000
1606130649.616,-90.820,-42.969,-27.832,-142.578,0.000
1606130649.620,-91.797,-31.738,-24.902,-163.574,0.000
1606130649.624,-17.578,-29.297,-21.484,-0.977,0.000
1606130649.628,35.156,-28.320,-20.508,119.629,0.000
1606130649.631,3.418,-33.203,-27.832,48.340,0.000
1606130649.635,-73.730,-37.109,-34.668,-128.906,0.000
1606130649.639,-94.238,-31.250,-28.320,-174.805,0.000
1606130649.643,-24.414,-25.879,-17.578,-21.973,0.000
1606130649.647,33.203,-16.113,-19.531,118.164,0.000
1606130649.651,3.906,-37.109,-26.367,71.777,0.000
1606130649.655,-72.754,-73.242,-24.414,-107.422,0.000
1606130649.659,-94.727,-45.410,-19.531,-172.363,0.000
1606130649.663,-35.645,-21.973,-16.602,-36.621,0.000
1606130649.667,27.832,-26.367,-20.508,113.281,0.000
1606130649.671,17.578,-29.297,-24.414,93.262,0.000
1606130649.674,-58.105,-32.227,-23.926,-81.055,0.000
1606130649.678,-92.285,-31.250,-20.996,-176.270,0.000
1606130649.682,-32.227,-21.973,-19.531,-73.730,0.000
1606130649.686,40.527,-11.230,-22.949,92.285,0.000
1606130649.690,33.691,-19.043,-20.996,106.445,0.000
1606130649.694,-42.480,-35.156,-18.066,-63.965,0.000
1606130649.698,-88.379,-24.414,-21.484,-176.758,0.000
1606130649.702,-51.270,-15.137,-23.438,-93.262,0.000
1606130649.706,24.414,-15.137,-18.555,82.520,0.000
1606130649.710,35.645,-16.113,-21.973,116.211,0.000
1606130649.714,-33.203,-21.973,-26.855,-39.551,0.000
1606130649.717,-87.402,-26.367,-20.508,-169.922,0.000
1606130649.721,-59.082,-23.438,-18.555,-109.375,0.000
1606130649.725,25.391,-19.043,-21.973,76.172,0.000
1606130649.729,48.340,-17.578,-28.320,137.695,0.000
1606130649.733,-21.484,-18.555,-41.016,-11.230,0.000
1606130649.737,-84.961,-20.508,-46.387,-174.805,0.000
1606130649.741,-66.406,-26.855,-43.457,-154.785,0.000
1606130649.745,1.953,-25.879,-37.109,21.484,0.000
1606130649.749,24.902,-20.020,-35.156,108.887,0.000
1606130649.753,-26.367,-42.480,-38.086,-5.371,0.000
1606130649.756,-94.727,-56.641,-43.457,-165.527,0.000
1606130649.760,-83.008,-32.715,-38.574,-154.785,0.000
1606130649.764,-1.465,-20.020,-35.156,23.926,0.000
1606130649.768,43.457,-16.602,-35.156,129.883,0.000
1606130649.772,1.465,-21.484,-34.180,36.133,0.000
1606130649.776,-75.684,-28.320,-42.480,-144.043,0.000
1606130649.780,-80.078,-26.367,-37.598,-175.293,0.000
1606130649.784,-1.465,-19.531,-29.297,-4.395,0.000
1606130649.788,45.898,-14.160,-25.391,125.977,0.000
1606130649.792,-0.488,-22.949,-25.879,46.387,0.000
1606130649.796,-81.055,-34.668,-36.621,-138.672,0.000
1606130649.799,-86.914,-21.973,-34.180,-173.828,0.000
1606130649.803,-8.789,-16.602,-28.320,-15.625,0.000
1606130649.807,53.711,-8.301,-23.438,124.023,0.000
1606130649.811,29.297,-7.324,-21.484,75.195,0.000
1606130649.815,-53.711,-20.996,-33.691,-104.492,0.000
1606130649.819,-83.496,-21.484,-37.109,-165.527,0.000
1606130649.823,-18.066,-20.508,-33.203,-40.039,0.000
1606130649.827,53.223,-12.207,-22.949,113.281,0.000
1606130649.831,39.551,-17.090,-21.484,102.539,0.000
1606130649.835,-40.527,-48.828,-26.367,-75.684,0.000
1606130649.839,-82.031,-41.992,-20.508,-170.410,0.000
1606130649.842,-38.086,-23.926,-21.973,-50.781,0.000
1606130649.846,33.691,-16.113,-25.391,119.629,0.000
1606130649.850,35.156,-19.043,-24.414,114.746,0.000
1606130649.854,-45.410,-34.668,-31.738,-54.688,0.000
1606130649.858,-92.773,-36.133,-29.785,-157.227,0.000
1606130649.862,-43.457,-26.367,-25.391,-79.102,0.000
1606130649.866,26.855,-25.391,-25.391,81.055,0.000
1606130649.870,32.227,-27.344,-23.926,119.629,0.000
1606130649.874,-27.832,-25.879,-27.344,-20.996,0.000
1606130649.878,-81.543,-24.414,-30.273,-146.973,0.000
1606130649.881,-54.688,-23.438,-25.879,-101.562,0.000
1606130649.885,22.461,-19.043,-18.066,85.938,0.000
1606130649.889,42.480,-21.484,-11.719,150.879,0.000
1606130649.893,-20.508,-44.922,-18.066,-5.371,0.000
1606130649.897,-81.543,-39.551,-21.484,-154.785,0.000
1606130649.901,-62.012,-23.926,-17.578,-126.465,0.000
1606130649.905,13.184,-26.855,-23.926,42.480,0.000
1606130649.909,38.574,-29.297,-26.855,125.000,0.000
1606130649.913,-22.461,-29.785,-26.367,5.859,0.000
1606130649.917,-84.961,-36.621,-33.203,-151.855,0.000
1606130649.921,-76.172,-40.039,-39.551,-144.531,0.000
1606130649.924,2.930,-25.391,-31.250,39.062,0.000
1606130649.928,50.293,-20.508,-18.555,145.020,0.000
1606130649.932,-0.977,-31.250,-28.320,33.691,0.000
1606130649.936,-74.219,-33.203,-38.574,-140.625,0.000
1606130649.940,-83.008,-35.156,-31.250,-157.227,0.000
1606130649.944,-11.230,-33.691,-25.879,16.602,0.000
1606130649.948,36.621,-25.391,-22.949,132.324,0.000
1606130649.952,-4.883,-29.297,-23.926,48.340,0.000
1606130649.956,-82.520,-35.645,-30.273,-128.906,0.000
1606130649.960,-97.656,-36.621,-35.645,-174.316,0.000
1606130649.964,-23.926,-28.809,-26.855,-13.672,0.000
1606130649.967,35.156,-14.648,-21.484,125.977,0.000
1606130649.971,0.977,-19.531,-26.855,64.453,0.000
1606130649.975,-82.031,-34.180,-30.273,-121.094,0.000
1606130649.979,-108.887,-33.203,-36.133,-191.406,0.000
1606130649.983,-54.199,-29.297,-33.203,-52.246,0.000
1606130649.987,19.043,-28.320,-26.367,103.516,0.000
1606130649.991,12.207,-26.367,-24.902,76.660,0.000
1606130649.995,-70.312,-31.738,-28.320,-105.469,0.000
1606130649.999,-107.422,-40.527,-31.738,-190.918,0.000
1606130650.003,-57.129,-33.691,-25.879,-77.637,0.000
1606130650.006,10.254,-25.879,-21.484,82.031,0.000
1606130650.010,4.883,-28.320,-22.461,94.238,0.000
1606130650.014,-64.453,-25.391,-21.973,-62.988,0.000
1606130650.018,-97.656,-20.996,-21.484,-163.574,0.000
1606130650.022,-53.711,-26.855,-21.484,-80.566,0.000
1606130650.026,14.160,-29.785,-20.996,84.473,0.000
1606130650.030,18.066,-31.250,-22.461,113.281,0.000
1606130650.034,-54.199,-49.316,-24.902,-40.527,0.000
1606130650.038,-99.121,-46.387,-23.926,-172.363,0.000
1606130650.042,-66.406,-28.809,-22.461,-121.582,0.000
1606130650.046,6.836,-28.320,-21.484,59.570,0.000
1606130650.049,25.879,-25.879,-15.625,120.117,0.000
1606130650.053,-41.504,-33.691,-18.555,-26.367,0.000
1606130650.057,-98.145,-37.109,-30.273,-174.805,0.000
1606130650.061,-78.613,-28.320,-32.227,-145.996,0.000
1606130650.065,-6.348,-23.926,-26.855,31.738,0.000
1606130650.069,23.438,-20.508,-26.367,104.980,0.000
1606130650.073,-38.574,-30.762,-31.738,-28.809,0.000
1606130650.077,-104.980,-39.062,-34.668,-188.965,0.000
1606130650.081,-89.355,-35.645,-34.180,-172.852,0.000
1606130650.085,-12.695,-33.203,-39.062,-4.883,0.000
1606130650.089,22.461,-26.367,-36.621,86.914,0.000
1606130650.092,-23.926,-29.297,-29.297,-12.695,0.000
1606130650.096,-89.844,-33.691,-39.062,-178.223,0.000
1606130650.100,-91.797,-30.273,-43.945,-196.289,0.000
1606130650.104,-22.949,-26.855,-32.227,-20.996,0.000
1606130650.108,25.879,-22.461,-26.855,116.699,0.000
1606130650.112,-14.160,-27.832,-31.738,39.551,0.000
1606130650.116,-86.914,-38.574,-35.645,-140.137,0.000
1606130650.120,-101.562,-37.598,-31.738,-188.965,0.000
1606130650.124,-35.645,-31.250,-26.367,-32.227,0.000
1606130650.128,30.762,-22.949,-26.367,118.164,0.000
1606130650.131,3.906,-23.926,-30.273,67.383,0.000
1606130650.135,-88.379,-30.273,-31.738,-119.141,0.000
1606130650.139,-115.723,-32.715,-35.645,-189.941,0.000
1606130650.143,-51.758,-28.320,-30.762,-55.176,0.000
1606130650.147,2.930,-26.367,-27.832,94.238,0.000
1606130650.151,-16.113,-34.180,-35.156,65.918,0.000
1606130650.155,-84.473,-32.715,-37.109,-109.375,0.000
1606130650.159,-112.305,-26.367,-32.715,-195.312,0.000
1606130650.163,-63.477,-28.809,-28.809,-82.031,0.000
1606130650.167,5.371,-29.297,-24.902,94.727,0.000
1606130650.171,12.207,-27.832,-25.879,107.422,0.000
1606130650.174,-57.129,-30.273,-33.691,-72.266,0.000
1606130650.178,-119.629,-36.133,-38.086,-185.547,0.000
1606130650.182,-78.613,-34.180,-35.156,-93.262,0.000
1606130650.186,1.953,-29.785,-26.367,73.730,0.000
1606130650.190,10.254,-23.438,-22.949,106.934,0.000
1606130650.194,-55.176,-25.391,-22.461,-44.434,0.000
1606130650.198,-103.516,-37.109,-27.832,-169.922,0.000
1606130650.202,-67.383,-29.297,-25.879,-104.980,0.000
1606130650.206,16.113,-13.672,-11.719,85.938,0.000
1606130650.210,34.180,-16.113,-18.066,139.160,0.000
1606130650.214,-34.668,-45.898,-31.250,-19.043,0.000
1606130650.217,-92.773,-53.223,-31.738,-165.039,0.000
1606130650.221,-74.219,-31.738,-30.273,-125.977,0.000
1606130650.225,-2.930,-23.926,-21.973,46.387,0.000
1606130650.229,19.531,-22.461,-22.461,119.141,0.000
1606130650.233,-38.574,-29.785,-24.414,-4.883,0.000
1606130650.237,-96.191,-35.645,-22.949,-161.133,0.000
1606130650.241,-85.449,-35.156,-23.926,-149.414,0.000
1606130650.245,-12.695,-29.297,-18.555,25.391,0.000
1606130650.249,25.391,-17.578,-11.719,128.418,0.000
1606130650.253,-19.043,-22.461,-19.043,30.273,0.000
1606130650.256,-84.473,-34.668,-23.438,-140.625,0.000
1606130650.260,-87.402,-31.250,-17.578,-159.668,0.000
1606130650.264,-14.648,-22.949,-16.602,12.207,0.000
1606130650.268,39.062,-16.602,-13.672,131.836,0.000
1606130650.272,-0.977,-21.973,-17.578,44.434,0.000
1606130650.276,-84.473,-27.832,-30.273,-139.648,0.000
1606130650.280,-92.285,-25.391,-28.320,-185.059,0.000
1606130650.284,-13.672,-17.090,-17.090,-22.949,0.000
1606130650.288,45.410,-9.766,-11.230,121.094,0.000
1606130650.292,15.137,-16.113,-19.531,59.570,0.000
1606130650.296,-67.871,-29.297,-34.668,-135.742,0.000
1606130650.299,-90.820,-31.738,-34.180,-193.359,0.000
1606130650.303,-29.297,-28.320,-31.250,-42.969,0.000
1606130650.307,41.016,-20.996,-26.367,113.281,0.000
1606130650.311,29.297,-20.020,-26.367,82.520,0.000
1606130650.315,-55.176,-25.879,-39.062,-105.957,0.000
1606130650.319,-83.008,-28.809,-39.062,-186.035,0.000
1606130650.323,-25.391,-32.715,-29.785,-58.594,0.000
1606130650.327,38.086,-22.949,-30.762,102.051,0.000
1606130650.331,29.785,-12.695,-36.133,99.609,0.000
1606130650.335,-48.340,-19.531,-37.109,-76.660,0.000
1606130650.339,-88.379,-21.484,-40.527,-190.430,0.000
1606130650.342,-55.176,-20.996,-42.480,-105.957,0.000
1606130650.346,6.836,-15.137,-32.227,72.754,0.000
1606130650.350,16.602,-20.020,-30.762,112.793,0.000
1606130650.354,-58.594,-39.551,-41.504,-64.941,0.000
1606130650.358,-105.469,-37.598,-34.668,-194.336,0.000
1606130650.362,-62.988,-30.762,-25.391,-108.887,0.000
1606130650.366,11.230,-26.367,-29.297,66.406,0.000
1606130650.370,28.809,-25.879,-27.832,121.094,0.000
1606130650.374,-29.297,-26.367,-23.926,-19.531,0.000
1606130650.378,-88.867,-27.832,-28.320,-167.480,0.000
1606130650.381,-71.289,-32.227,-34.180,-126.953,0.000
1606130650.385,5.371,-33.203,-37.598,53.223,0.000
1606130650.389,32.715,-28.809,-34.180,131.836,0.000
1606130650.393,-22.461,-35.645,-29.297,16.113,0.000
1606130650.397,-85.449,-37.109,-36.133,-140.137,0.000
1606130650.401,-71.777,-32.227,-39.062,-137.695,0.000
1606130650.405,3.906,-29.785,-34.668,35.156,0.000
1606130650.409,39.551,-24.902,-24.902,138.184,0.000
1606130650.413,-2.441,-24.414,-20.020,37.109,0.000
1606130650.417,-70.801,-26.367,-32.227,-136.719,0.000
1606130650.421,-76.172,-26.367,-39.551,-160.156,0.000
1606130650.424,-4.395,-17.090,-29.785,10.254,0.000
1606130650.428,37.109,-14.648,-27.344,131.348,0.000
1606130650.432,-4.883,-22.461,-29.297,51.270,0.000
1606130650.436,-68.359,-26.367,-29.785,-121.094,0.000
1606130650.440,-79.590,-31.250,-29.297,-163.574,0.000
1606130650.444,-16.602,-31.250,-21.973,-8.789,0.000
1606130650.448,45.898,-21.484,-21.973,126.953,0.000
1606130650.452,18.066,-28.809,-27.344,72.266,0.000
1606130650.456,-56.152,-40.039,-29.785,-108.398,0.000
1606130650.460,-74.219,-32.227,-29.297,-175.781,0.000
1606130650.464,-19.043,-26.855,-28.809,-33.691,0.000
1606130650.467,40.527,-18.066,-20.508,119.141,0.000
1606130650.471,19.043,-20.508,-20.020,86.914,0.000
1606130650.475,-62.988,-30.762,-26.367,-93.750,0.000
1606130650.479,-96.191,-34.180,-30.762,-182.617,0.000
1606130650.483,-40.527,-26.855,-27.344,-63.477,0.000
1606130650.487,28.809,-17.090,-20.508,101.074,0.000
1606130650.491,23.438,-25.879,-20.996,92.773,0.000
1606130650.495,-56.152,-36.133,-29.297,-82.520,0.000
1606130650.499,-101.074,-33.203,-31.250,-192.871,0.000
1606130650.503,-52.246,-27.832,-23.926,-102.539,0.000
1606130650.506,22.461,-18.066,-19.043,74.707,0.000
1606130650.510,23.926,-21.973,-19.043,98.633,0.000
1606130650.514,-53.223,-31.738,-27.344,-71.289,0.000
1606130650.518,-104.004,-33.203,-29.297,-198.242,0.000
1606130650.522,-68.848,-33.203,-29.297,-135.742,0.000
1606130650.526,9.277,-30.762,-26.855,46.875,0.000
1606130650.530,36.621,-18.555,-14.648,108.887,0.000
1606130650.534,-28.320,-18.066,-19.043,-38.086,0.000
1606130650.538,-93.262,-31.738,-28.320,-185.547,0.000
1606130650.542,-63.965,-26.367,-21.484,-144.043,0.000
1606130650.546,15.137,-21.973,-20.508,38.574,0.000
1606130650.549,37.598,-22.949,-24.414,120.117,0.000
1606130650.553,-25.391,-29.785,-20.996,-5.859,0.000
1606130650.557,-96.680,-39.062,-26.367,-166.992,0.000
1606130650.561,-83.008,-36.621,-28.320,-148.926,0.000
1606130650.565,-4.883,-29.785,-13.672,41.016,0.000
1606130650.569,28.320,-27.344,-10.742,140.137,0.000
1606130650.573,-19.043,-27.832,-18.555,29.297,0.000
1606130650.577,-91.309,-33.691,-25.879,-136.719,0.000
1606130650.581,-98.145,-36.621,-33.691,-152.832,0.000
1606130650.585,-28.320,-28.809,-31.250,11.719,0.000
1606130650.589,13.672,-26.367,-25.391,125.000,0.000
1606130650.592,-33.203,-46.387,-30.762,30.762,0.000
1606130650.596,-104.980,-54.199,-37.598,-145.996,0.000
1606130650.600,-104.004,-38.086,-33.203,-181.152,0.000
1606130650.604,-32.227,-27.832,-26.367,-24.902,0.000
1606130650.608,20.020,-24.902,-18.555,116.699,0.000
1606130650.612,-6.836,-28.809,-23.926,64.941,0.000
1606130650.616,-83.496,-33.691,-36.621,-120.117,0.000
1606130650.620,-104.492,-34.668,-33.691,-181.152,0.000
1606130650.624,-35.645,-28.320,-21.973,-37.109,0.000
1606130650.628,23.438,-22.949,-25.391,115.234,0.000
1606130650.631,-8.789,-21.973,-26.367,81.055,0.000
1606130650.635,-93.262,-33.691,-23.438,-107.422,0.000
1606130650.639,-114.746,-37.598,-26.367,-190.918,0.000
1606130650.643,-55.176,-31.250,-20.996,-74.219,0.000
1606130650.647,11.719,-32.227,-14.160,84.473,0.000
1606130650.651,11.230,-28.809,-22.461,86.914,0.000
1606130650.655,-57.129,-31.738,-30.273,-84.961,0.000
1606130650.659,-96.680,-36.621,-27.832,-191.406,0.000
1606130650.663,-57.617,-37.598,-28.320,-96.191,0.000
1606130650.667,18.555,-34.180,-31.738,80.566,0.000
1606130650.671,32.715,-29.785,-31.738,106.934,0.000
1606130650.674,-36.133,-30.273,-36.621,-60.547,0.000
1606130650.678,-80.078,-31.738,-33.691,-183.594,0.000
1606130650.682,-52.734,-33.203,-31.738,-113.281,0.000
1606130650.686,11.719,-32.227,-33.691,59.082,0.000
1606130650.690,34.180,-31.250,-24.902,125.000,0.000
1606130650.694,-30.762,-33.691,-22.949,-18.555,0.000
1606130650.698,-91.309,-30.762,-28.809,-170.898,0.000
1606130650.702,-68.359,-26.367,-28.320,-130.371,0.000
1606130650.706,6.836,-21.484,-21.484,49.805,0.000
1606130650.710,38.574,-16.113,-16.602,128.906,0.000
1606130650.714,-18.555,-16.602,-12.207,1.953,0.000
1606130650.717,-83.984,-20.020,-15.137,-161.133,0.000
1606130650.721,-70.801,-21.973,-20.996,-146.973,0.000
1606130650.725,5.859,-19.043,-14.648,30.273,0.000
1606130650.729,37.598,-17.090,-13.184,120.117,0.000
1606130650.733,-15.625,-20.996,-23.926,8.789,0.000
1606130650.737,-85.938,-28.320,-31.738,-158.691,0.000
1606130650.741,-87.402,-29.297,-28.809,-168.457,0.000
1606130650.745,-14.648,-20.996,-24.902,3.906,0.000
1606130650.749,31.738,-20.508,-24.902,119.629,0.000
1606130650.753,-7.324,-23.926,-26.855,41.016,0.000
1606130650.756,-73.242,-26.367,-23.926,-123.047,0.000
1606130650.760,-83.008,-29.785,-29.297,-167.969,0.000
1606130650.764,-20.020,-30.273,-32.715,-22.461,0.000
1606130650.768,37.598,-17.090,-24.902,116.699,0.000
1606130650.772,15.137,-31.250,-28.320,63.477,0.000
1606130650.776,-65.430,-51.270,-36.621,-117.188,0.000
1606130650.780,-84.961,-35.645,-30.273,-173.828,0.000
1606130650.784,-17.090,-27.344,-24.414,-26.367,0.000
1606130650.788,40.527,-20.996,-23.926,124.023,0.000
1606130650.792,19.531,-20.020,-24.902,91.309,0.000
1606130650.796,-56.641,-28.320,-28.809,-89.844,0.000
1606130650.799,-87.402,-29.785,-31.250,-166.504,0.000
1606130650.803,-36.133,-29.297,-30.762,-47.363,0.000
1606130650.807,30.762,-20.996,-22.461,110.352,0.000
1606130650.811,32.227,-16.602,-19.531,118.164,0.000
1606130650.815,-43.457,-22.949,-24.414,-53.223,0.000
1606130650.819,-98.145,-31.250,-23.926,-169.434,0.000
1606130650.823,-63.477,-37.109,-22.949,-88.379,0.000
1606130650.827,11.719,-34.180,-18.066,80.566,0.000
1606130650.831,24.902,-35.645,-7.324,123.047,0.000
1606130650.835,-47.363,-35.156,-16.602,-42.480,0.000
1606130650.839,-101.562,-32.715,-29.785,-185.547,0.000
1606130650.842,-63.965,-36.621,-22.461,-113.281,0.000
1606130650.846,18.066,-25.879,-14.160,74.707,0.000
1606130650.850,29.297,-23.438,-15.137,127.441,0.000
1606130650.854,-38.574,-31.250,-20.508,-23.438,0.000
1606130650.858,-94.238,-31.738,-18.555,-165.527,0.000
1606130650.862,-66.406,-28.320,-15.137,-119.141,0.000
1606130650.866,14.160,-26.367,-19.043,59.570,0.000
1606130650.870,36.621,-25.879,-18.066,134.277,0.000
1606130650.874,-25.879,-27.832,-20.020,4.883,0.000
1606130650.878,-80.078,-33.203,-25.879,-149.902,0.000
1606130650.881,-61.035,-29.785,-22.949,-129.883,0.000
1606130650.885,8.789,-28.320,-15.625,41.992,0.000
1606130650.889,40.039,-30.273,-16.602,128.418,0.000
1606130650.893,-6.836,-27.344,-26.367,21.973,0.000
1606130650.897,-82.520,-36.133,-31.738,-145.508,0.000
1606130650.901,-93.750,-45.410,-27.832,-161.621,0.000
1606130650.905,-20.996,-39.551,-22.949,9.277,0.000
1606130650.909,31.738,-29.785,-17.578,126.953,0.000
1606130650.913,-1.465,-28.320,-18.066,43.945,0.000
1606130650.917,-76.172,-34.668,-30.273,-139.648,0.000
1606130650.921,-89.355,-36.621,-32.715,-181.641,0.000
1606130650.924,-16.113,-29.297,-25.879,-11.719,0.000
1606130650.928,39.062,-26.367,-26.367,127.930,0.000
1606130650.932,6.836,-28.320,-28.809,71.289,0.000
1606130650.936,-71.289,-32.227,-37.109,-100.098,0.000
1606130650.940,-90.332,-38.574,-33.691,-164.062,0.000
1606130650.944,-20.508,-34.180,-25.879,-22.949,0.000
1606130650.948,45.898,-26.855,-23.438,126.465,0.000
1606130650.952,26.367,-31.738,-24.414,96.191,0.000
1606130650.956,-56.152,-37.109,-31.738,-76.172,0.000
1606130650.960,-89.844,-40.039,-32.227,-158.691,0.000
1606130650.964,-37.109,-33.691,-25.391,-47.363,0.000
1606130650.967,34.180,-26.855,-23.926,110.840,0.000
1606130650.971,33.203,-19.043,-28.320,109.863,0.000
1606130650.975,-41.504,-20.020,-33.691,-72.266,0.000
1606130650.979,-77.148,-31.250,-28.809,-176.270,0.000
1606130650.983,-32.715,-27.344,-20.996,-80.078,0.000
1606130650.987,32.227,-17.090,-24.902,83.984,0.000
1606130650.991,39.062,-14.160,-22.949,111.816,0.000
1606130650.995,-30.762,-29.297,-20.996,-48.828,0.000
1606130650.999,-85.938,-40.039,-29.297,-172.852,0.000
1606130651.003,-51.758,-38.086,-29.785,-99.121,0.000
1606130651.006,20.020,-39.551,-29.785,74.219,0.000
1606130651.010,37.109,-28.320,-25.391,121.582,0.000
1606130651.014,-25.391,-21.484,-25.879,-30.762,0.000
1606130651.018,-79.590,-30.273,-26.855,-170.410,0.000
1606130651.022,-54.199,-31.738,-26.367,-119.141,0.000
1606130651.026,20.508,-25.879,-23.926,60.547,0.000
1606130651.030,47.363,-21.973,-20.996,128.906,0.000
1606130651.034,-6.836,-25.391,-29.785,-2.441,0.000
1606130651.038,-73.242,-30.762,-35.156,-156.250,0.000
1606130651.042,-71.777,-37.598,-33.203,-143.066,0.000
1606130651.046,8.789,-27.832,-23.438,42.969,0.000
1606130651.049,50.293,-20.996,-22.461,139.648,0.000
1606130651.053,-7.812,-29.297,-30.762,21.973,0.000
1606130651.057,-83.008,-38.086,-34.668,-146.973,0.000
1606130651.061,-89.355,-41.992,-33.203,-160.156,0.000
1606130651.065,-15.137,-36.133,-28.809,17.090,0.000
1606130651.069,43.457,-28.809,-23.926,140.137,0.000
1606130651.073,4.395,-33.203,-27.832,45.898,0.000
1606130651.077,-74.219,-38.574,-40.527,-138.184,0.000
1606130651.081,-82.031,-35.156,-42.480,-169.922,0.000
1606130651.085,-13.672,-33.203,-31.738,-13.184,0.000
1606130651.089,44.434,-27.344,-18.066,119.141,0.000
1606130651.092,7.812,-33.691,-16.602,68.359,0.000
1606130651.096,-74.707,-40.039,-20.508,-104.492,0.000
1606130651.100,-96.191,-39.062,-23.926,-177.246,0.000
1606130651.104,-27.832,-35.645,-21.484,-34.180,0.000
1606130651.108,39.062,-28.809,-22.949,120.117,0.000
1606130651.112,19.043,-28.809,-32.227,76.660,0.000
1606130651.116,-61.523,-37.598,-38.574,-111.816,0.000
1606130651.120,-92.773,-41.016,-41.016,-200.684,0.000
1606130651.124,-37.598,-35.645,-37.598,-79.102,0.000
1606130651.128,34.668,-26.367,-25.391,95.215,0.000
1606130651.131,29.297,-25.391,-21.484,101.074,0.000
1606130651.135,-57.129,-34.180,-29.297,-75.195,0.000
1606130651.139,-96.680,-35.156,-27.832,-174.805,0.000
1606130651.143,-46.875,-23.926,-23.438,-69.824,0.000
1606130651.147,21.484,-16.602,-22.949,95.703,0.000
1606130651.151,16.602,-29.297,-26.855,105.957,0.000
1606130651.155,-59.570,-45.898,-33.691,-56.641,0.000
1606130651.159,-98.633,-38.086,-30.273,-180.664,0.000
1606130651.163,-58.594,-28.809,-27.832,-103.027,0.000
1606130651.167,12.695,-25.391,-25.879,77.148,0.000
1606130651.171,20.508,-21.973,-19.531,119.141,0.000
1606130651.174,-54.199,-29.785,-19.043,-30.273,0.000
1606130651.178,-108.887,-38.086,-21.973,-167.969,0.000
1606130651.182,-85.449,-37.109,-20.020,-119.629,0.000
1606130651.186,-10.742,-27.344,-15.137,54.199,0.000
1606130651.190,13.672,-23.926,-8.789,134.766,0.000
1606130651.194,-41.504,-28.320,-13.184,1.953,0.000
1606130651.198,-98.633,-33.691,-25.879,-161.621,0.000
1606130651.202,-86.426,-36.133,-27.344,-143.555,0.000
1606130651.206,-11.719,-33.691,-25.879,36.133,0.000
1606130651.210,28.809,-28.320,-26.367,133.301,0.000
1606130651.214,-19.531,-29.297,-25.391,19.043,0.000
1606130651.217,-90.820,-39.062,-26.367,-158.203,0.000
1606130651.221,-78.125,-39.551,-27.832,-168.457,0.000
1606130651.225,-5.859,-31.250,-22.949,6.836,0.000
1606130651.229,24.902,-21.484,-19.531,118.164,0.000
1606130651.233,-13.184,-21.484,-25.391,29.297,0.000
1606130651.237,-76.172,-30.273,-32.227,-140.625,0.000
1606130651.241,-88.379,-34.668,-34.668,-177.246,0.000
1606130651.245,-18.555,-29.785,-29.297,-25.391,0.000
1606130651.249,35.156,-21.973,-18.555,108.887,0.000
1606130651.253,-4.883,-17.090,-24.414,50.293,0.000
1606130651.256,-86.426,-20.996,-34.668,-134.277,0.000
1606130651.260,-106.445,-29.297,-30.762,-196.777,0.000
1606130651.264,-39.062,-26.367,-28.320,-46.875,0.000
1606130651.268,20.996,-22.949,-28.809,111.816,0.000
1606130651.272,-1.465,-27.344,-29.297,81.055,0.000
1606130651.276,-78.125,-34.180,-33.203,-102.539,0.000
1606130651.280,-108.398,-31.738,-32.227,-183.105,0.000
1606130651.284,-53.711,-25.879,-24.902,-57.617,0.000
1606130651.288,16.113,-23.438,-17.578,106.445,0.000
1606130651.292,9.277,-20.020,-21.484,100.586,0.000
1606130651.296,-73.242,-27.832,-31.738,-91.797,0.000
1606130651.299,-111.328,-34.180,-33.203,-192.871,0.000
1606130651.303,-62.988,-33.203,-32.227,-83.008,0.000
1606130651.307,8.301,-32.227,-31.250,83.984,0.000
1606130651.311,9.277,-25.879,-31.250,97.656,0.000
1606130651.315,-65.918,-31.250,-29.297,-62.988,0.000
1606130651.319,-112.793,-38.086,-25.391,-174.805,0.000
1606130651.323,-69.824,-34.668,-25.391,-97.168,0.000
1606130651.327,5.859,-27.832,-20.996,79.102,0.000
1606130651.331,18.555,-18.555,-21.484,126.953,0.000
1606130651.335,-46.387,-10.742,-28.809,-28.320,0.000
1606130651.339,-104.492,-29.297,-31.738,-176.270,0.000
1606130651.342,-76.660,-39.062,-27.832,-128.906,0.000
1606130651.346,6.348,-24.902,-20.508,54.199,0.000
1606130651.350,31.250,-25.391,-20.020,120.117,0.000
1606130651.354,-27.344,-34.180,-25.879,-21.484,0.000
1606130651.358,-89.355,-37.109,-30.762,-176.758,0.000
1606130651.362,-77.637,-32.227,-31.250,-151.367,0.000
1606130651.366,-2.441,-24.902,-26.855,32.227,0.000
1606130651.370,33.691,-25.391,-24.414,123.535,0.000
1606130651.374,-12.695,-27.832,-23.926,10.254,0.000
1606130651.378,-81.055,-36.133,-24.902,-151.367,0.000
1606130651.381,-84.961,-38.086,-24.414,-159.180,0.000
1606130651.385,-13.184,-33.203,-26.855,10.742,0.000
1606130651.389,32.715,-30.762,-24.902,120.117,0.000
1606130651.393,-6.348,-24.414,-21.973,34.668,0.000
1606130651.397,-81.543,-27.832,-23.438,-137.207,0.000
1606130651.401,-87.402,-31.738,-21.973,-167.969,0.000
1606130651.405,-22.461,-29.297,-26.367,-2.441,0.000
1606130651.409,32.227,-22.461,-19.043,128.418,0.000
1606130651.413,6.836,-21.973,-15.625,62.988,0.000
1606130651.417,-74.219,-30.762,-25.879,-121.094,0.000
1606130651.421,-98.633,-31.738,-25.391,-178.711,0.000
1606130651.424,-32.715,-23.926,-20.020,-25.391,0.000
1606130651.428,27.832,-25.879,-20.020,120.605,0.000
1606130651.432,1.465,-24.902,-28.320,73.242,0.000
1606130651.436,-69.824,-20.508,-29.785,-106.445,0.000
1606130651.440,-91.309,-29.297,-23.926,-177.246,0.000
1606130651.444,-36.621,-32.715,-28.809,-54.199,0.000
1606130651.448,24.902,-25.391,-34.180,98.633,0.000
1606130651.452,17.090,-20.020,-31.250,85.449,0.000
1606130651.456,-53.223,-19.531,-30.273,-89.355,0.000
1606130651.460,-93.750,-22.949,-34.180,-193.359,0.000
1606130651.464,-44.434,-21.484,-25.391,-86.914,0.000
1606130651.467,34.180,-14.648,-18.555,97.656,0.000
1606130651.471,37.598,-28.320,-30.762,111.328,0.000
1606130651.475,-38.086,-46.387,-33.691,-71.289,0.000
1606130651.479,-85.449,-40.039,-33.203,-188.965,0.000
1606130651.483,-46.875,-35.645,-33.203,-113.770,0.000
1606130651.487,26.367,-28.809,-29.297,62.988,0.000
1606130651.491,41.504,-25.391,-31.250,110.840,0.000
1606130651.495,-23.438,-33.203,-37.109,-49.316,0.000
1606130651.499,-84.473,-41.504,-37.109,-188.965,0.000
1606130651.503,-60.547,-32.715,-28.320,-127.441,0.000
1606130651.506,20.996,-18.555,-22.461,62.988,0.000
1606130651.510,44.922,-19.531,-23.438,129.883,0.000
1606130651.514,-13.184,-20.996,-26.367,-4.883,0.000
1606130651.518,-67.871,-23.438,-24.902,-147.949,0.000
1606130651.522,-50.293,-23.438,-18.066,-122.559,0.000
1606130651.526,20.996,-20.020,-16.602,51.758,0.000
1606130651.530,52.734,-22.461,-18.555,137.207,0.000
1606130651.534,8.789,-23.926,-16.602,30.762,0.000
1606130651.538,-57.129,-20.508,-23.926,-127.930,0.000
1606130651.542,-57.129,-22.949,-29.785,-142.578,0.000
1606130651.546,15.625,-16.113,-22.949,27.344,0.000
1606130651.549,62.988,-11.230,-19.531,145.020,0.000
1606130651.553,19.531,-17.090,-26.367,55.176,0.000
1606130651.557,-56.641,-25.879,-34.180,-124.512,0.000
1606130651.561,-68.848,-29.785,-30.273,-164.062,0.000
1606130651.565,-2.441,-21.973,-21.484,-4.395,0.000
1606130651.569,49.316,-16.113,-16.113,129.883,0.000
1606130651.573,10.254,-6.348,-21.484,69.336,0.000
1606130651.577,-68.359,-16.113,-26.855,-104.004,0.000
1606130651.581,-82.031,-22.461,-27.344,-153.320,0.000
1606130651.585,-16.602,-20.020,-31.250,-22.461,0.000
1606130651.589,37.598,-28.809,-32.227,106.934,0.000
1606130651.592,14.160,-28.320,-28.320,71.289,0.000
1606130651.596,-57.617,-29.297,-28.320,-104.980,0.000
1606130651.600,-90.820,-37.109,-27.344,-185.059,0.000
1606130651.604,-32.227,-30.273,-20.508,-62.988,0.000
1606130651.608,36.621,-26.367,-19.531,87.891,0.000
1606130651.612,27.832,-8.789,-25.879,87.402,0.000
1606130651.616,-49.805,1.953,-34.668,-81.543,0.000
1606130651.620,-100.098,-27.344,-37.598,-198.242,0.000
1606130651.624,-53.223,-36.133,-29.785,-97.168,0.000
1606130651.628,25.879,-26.367,-18.555,81.055,0.000
1606130651.631,28.809,-21.973,-11.719,113.281,0.000
1606130651.635,-48.828,-28.809,-16.602,-49.316,0.000
1606130651.639,-92.773,-29.785,-29.297,-189.453,0.000
1606130651.643,-44.434,-26.367,-23.438,-119.141,0.000
1606130651.647,31.250,-28.809,-13.184,73.730,0.000
1606130651.651,38.086,-24.414,-18.066,128.418,0.000
1606130651.655,-35.645,-19.531,-18.066,-39.551,0.000
1606130651.659,-92.773,-24.902,-17.090,-178.223,0.000
1606130651.663,-73.242,-29.297,-20.996,-114.258,0.000
1606130651.667,5.859,-38.086,-20.508,78.125,0.000
1606130651.671,38.574,-22.949,-24.414,141.113,0.000
1606130651.674,-23.438,1.953,-30.762,-17.090,0.000
1606130651.678,-98.633,-18.555,-33.691,-177.246,0.000
1606130651.682,-86.426,-31.250,-34.180,-156.250,0.000
1606130651.686,0.977,-25.391,-23.926,33.203,0.000
1606130651.690,31.738,-20.020,-16.602,121.582,0.000
1606130651.694,-24.902,-27.832,-26.367,-16.113,0.000
1606130651.698,-93.750,-34.180,-31.738,-162.109,0.000
1606130651.702,-89.355,-28.809,-32.227,-151.367,0.000
1606130651.706,-9.277,-19.531,-32.227,3.906,0.000
1606130651.710,37.598,-20.996,-26.367,115.723,0.000
1606130651.714,-5.859,-20.996,-29.297,25.391,0.000
1606130651.717,-87.402,-20.508,-32.227,-159.668,0.000
1606130651.721,-98.145,-31.738,-33.203,-183.105,0.000
1606130651.725,-20.020,-28.320,-34.668,-18.066,0.000
1606130651.729,32.715,-26.367,-25.879,102.051,0.000
1606130651.733,-4.883,-31.250,-26.367,31.250,0.000
1606130651.737,-77.148,-36.621,-33.691,-131.348,0.000
1606130651.741,-93.262,-33.203,-29.785,-180.664,0.000
1606130651.745,-38.086,-27.344,-31.738,-54.199,0.000
1606130651.749,16.113,-21.484,-28.809,99.121,0.000
1606130651.753,1.953,-30.273,-26.367,74.707,0.000
1606130651.756,-68.359,-39.551,-33.203,-108.398,0.000
1606130651.760,-90.820,-29.785,-28.320,-173.340,0.000
1606130651.764,-34.668,-25.879,-23.438,-42.480,0.000
1606130651.768,28.320,-22.949,-21.973,91.309,0.000
1606130651.772,15.625,-24.902,-24.414,71.289,0.000
1606130651.776,-56.641,-29.785,-24.902,-92.285,0.000
1606130651.780,-100.586,-33.691,-26.367,-191.895,0.000
1606130651.784,-62.500,-32.227,-27.344,-84.473,0.000
1606130651.788,10.742,-24.902,-20.508,93.262,0.000
1606130651.792,12.695,-24.414,-19.043,96.191,0.000
1606130651.796,-61.523,-30.762,-24.414,-90.820,0.000
1606130651.799,-106.934,-35.645,-31.738,-204.102,0.000
1606130651.803,-67.871,-37.598,-36.621,-125.488,0.000
1606130651.807,15.137,-26.367,-31.250,54.199,0.000
1606130651.811,27.832,-24.414,-21.484,108.398,0.000
1606130651.815,-53.223,-33.203,-28.809,-57.129,0.000
1606130651.819,-108.887,-34.180,-38.086,-202.637,0.000
1606130651.823,-80.078,-37.598,-36.133,-144.531,0.000
1606130651.827,-10.742,-34.180,-31.250,42.969,0.000
1606130651.831,12.695,-32.715,-30.273,108.398,0.000
1606130651.835,-44.434,-41.992,-40.527,-40.039,0.000
1606130651.839,-105.469,-47.363,-44.922,-185.059,0.000
1606130651.842,-83.984,-39.551,-38.086,-160.645,0.000
1606130651.846,-2.441,-25.879,-37.109,8.301,0.000
1606130651.850,33.691,-22.461,-31.738,104.492,0.000
1606130651.854,-19.043,-26.855,-28.320,0.977,0.000
1606130651.858,-85.449,-26.367,-31.250,-151.855,0.000
1606130651.862,-77.637,-24.414,-33.203,-153.320,0.000
1606130651.866,6.348,-18.066,-29.785,16.113,0.000
1606130651.870,53.223,-16.113,-23.926,141.113,0.000
1606130651.874,3.418,-26.855,-25.879,48.340,0.000
1606130651.878,-75.684,-33.203,-31.738,-134.277,0.000
1606130651.881,-82.520,-27.344,-30.273,-159.668,0.000
1606130651.885,-9.766,-20.996,-24.902,4.883,0.000
1606130651.889,34.668,-21.973,-28.320,136.719,0.000
1606130651.893,6.348,-25.879,-32.715,71.777,0.000
1606130651.897,-67.871,-34.668,-29.785,-104.492,0.000
1606130651.901,-92.773,-38.086,-24.414,-149.902,0.000
1606130651.905,-33.691,-34.180,-21.973,-2.441,0.000
1606130651.909,24.414,-24.414,-20.508,139.648,0.000
1606130651.913,2.930,-23.926,-25.391,84.473,0.000
1606130651.917,-79.590,-36.621,-32.715,-97.168,0.000
1606130651.921,-110.840,-40.039,-34.180,-168.457,0.000
1606130651.924,-57.129,-36.133,-23.926,-42.969,0.000
1606130651.928,9.766,-36.133,-17.090,117.188,0.000
1606130651.932,7.812,-34.180,-25.391,113.770,0.000
1606130651.936,-69.824,-31.250,-33.203,-64.453,0.000
1606130651.940,-106.934,-29.297,-33.691,-174.316,0.000
1606130651.944,-62.012,-25.391,-34.180,-84.473,0.000
1606130651.948,4.883,-26.367,-31.250,68.848,0.000
1606130651.952,5.371,-28.320,-30.273,79.102,0.000
1606130651.956,-66.895,-26.367,-37.598,-74.707,0.000
1606130651.960,-105.957,-32.715,-36.621,-183.594,0.000
1606130651.964,-63.965,-33.691,-30.762,-109.375,0.000
1606130651.967,14.160,-29.785,-31.250,58.594,0.000
1606130651.971,23.926,-28.320,-29.297,104.492,0.000
1606130651.975,-40.039,-33.691,-32.227,-44.434,0.000
1606130651.979,-92.285,-41.504,-38.574,-182.129,0.000
1606130651.983,-64.941,-37.598,-35.156,-113.281,0.000
1606130651.987,17.090,-31.738,-27.832,65.430,0.000
1606130651.991,35.645,-22.949,-25.391,121.582,0.000
1606130651.995,-27.832,-5.859,-30.762,-4.395,0.000
1606130651.999,-88.867,-29.785,-29.297,-150.391,0.000
1606130652.003,-74.219,-46.387,-31.738,-140.625,0.000
1606130652.006,4.395,-29.785,-31.738,34.180,0.000
1606130652.010,40.039,-23.926,-29.785,132.324,0.000
1606130652.014,-11.719,-27.832,-23.438,23.438,0.000
1606130652.018,-82.031,-32.227,-23.438,-143.066,0.000
1606130652.022,-79.102,-29.297,-31.250,-145.508,0.000
1606130652.026,-5.859,-23.926,-23.438,30.273,0.000
1606130652.030,38.574,-16.602,-20.508,136.719,0.000
1606130652.034,-9.277,-16.602,-29.785,47.852,0.000
1606130652.038,-88.867,-31.738,-36.621,-126.465,0.000
1606130652.042,-99.121,-37.598,-35.645,-158.203,0.000
1606130652.046,-32.227,-31.250,-29.785,-2.930,0.000
1606130652.049,12.695,-24.414,-25.391,123.047,0.000
1606130652.053,-19.043,-28.809,-27.832,52.734,0.000
1606130652.057,-87.402,-41.504,-30.762,-130.859,0.000
1606130652.061,-105.469,-36.621,-33.691,-183.105,0.000
1606130652.065,-36.133,-26.855,-27.344,-31.250,0.000
1606130652.069,27.344,-25.391,-22.949,108.398,0.000
1606130652.073,0.488,-26.367,-29.297,66.406,0.000
1606130652.077,-73.730,-30.762,-31.738,-105.957,0.000
1606130652.081,-90.332,-29.297,-25.391,-170.410,0.000
1606130652.085,-35.645,-26.855,-26.855,-46.875,0.000
1606130652.089,28.320,-26.367,-24.414,103.027,0.000
1606130652.092,23.438,-28.320,-23.438,92.285,0.000
1606130652.096,-50.293,-30.273,-31.738,-82.520,0.000
1606130652.100,-81.055,-30.762,-26.367,-173.828,0.000
1606130652.104,-28.809,-31.250,-21.973,-63.477,0.000
1606130652.108,41.504,-24.902,-26.367,96.191,0.000
1606130652.112,35.645,-21.973,-25.879,113.770,0.000
1606130652.116,-43.945,-32.227,-29.785,-50.781,0.000
1606130652.120,-90.332,-35.645,-35.156,-177.246,0.000
1606130652.124,-53.223,-35.156,-29.785,-95.703,0.000
1606130652.128,23.438,-29.785,-25.391,84.961,0.000
1606130652.131,34.668,-22.949,-29.297,111.816,0.000
1606130652.135,-29.297,-24.414,-31.250,-49.805,0.000
1606130652.139,-78.125,-27.344,-25.879,-169.434,0.000
1606130652.143,-57.617,-26.855,-26.855,-107.422,0.000
1606130652.147,20.020,-20.996,-22.461,72.266,0.000
1606130652.151,45.410,-16.113,-11.719,129.883,0.000
1606130652.155,-29.297,-22.461,-19.043,-18.066,0.000
1606130652.159,-99.121,-29.785,-28.320,-166.992,0.000
1606130652.163,-80.566,-29.297,-28.809,-135.254,0.000
1606130652.167,-3.418,-24.902,-29.785,36.621,0.000
1606130652.171,24.414,-20.996,-30.762,113.281,0.000
1606130652.174,-23.438,-20.996,-31.738,-3.418,0.000
1606130652.178,-89.355,-25.391,-31.250,-166.504,0.000
1606130652.182,-87.891,-27.832,-34.180,-169.922,0.000
1606130652.186,-12.695,-25.879,-36.621,-1.465,0.000
1606130652.190,32.227,-19.043,-24.902,102.051,0.000
1606130652.194,-8.301,-15.137,-28.320,14.160,0.000
1606130652.198,-72.266,-22.949,-35.645,-149.414,0.000
1606130652.202,-75.684,-33.203,-38.086,-181.152,0.000
1606130652.206,0.000,-26.855,-33.691,-17.578,0.000
1606130652.210,58.105,-19.043,-25.879,114.258,0.000
1606130652.214,19.531,-21.973,-29.297,49.805,0.000
1606130652.217,-61.035,-26.855,-32.227,-126.465,0.000
1606130652.221,-79.590,-29.297,-29.785,-187.012,0.000
1606130652.225,-12.695,-26.855,-28.320,-44.434,0.000
1606130652.229,48.828,-23.926,-30.762,103.516,0.000
1606130652.233,24.902,-32.227,-27.344,59.570,0.000
1606130652.237,-52.734,-33.203,-27.832,-118.652,0.000
1606130652.241,-83.008,-26.367,-32.227,-182.617,0.000
1606130652.245,-26.855,-25.391,-26.367,-52.246,0.000
1606130652.249,37.598,-20.020,-18.555,104.980,0.000
1606130652.253,19.043,-20.508,-17.090,89.355,0.000
1606130652.256,-59.082,-28.809,-21.973,-83.984,0.000
1606130652.260,-85.938,-30.273,-20.996,-171.875,0.000
1606130652.264,-37.598,-28.809,-20.508,-74.219,0.000
1606130652.268,22.949,-19.043,-25.391,83.984,0.000
1606130652.272,18.066,-34.668,-28.320,96.680,0.000
1606130652.276,-60.547,-60.547,-32.227,-76.172,0.000
1606130652.280,-106.934,-47.363,-30.273,-187.500,0.000
1606130652.284,-58.105,-29.785,-19.531,-96.680,0.000
1606130652.288,22.949,-23.438,-17.578,76.172,0.000
1606130652.292,37.598,-23.926,-16.113,115.234,0.000
1606130652.296,-39.551,-28.320,-22.461,-41.016,0.000
1606130652.299,-97.656,-27.832,-29.785,-176.758,0.000
1606130652.303,-62.012,-22.949,-28.320,-125.000,0.000
1606130652.307,12.695,-21.973,-32.715,48.340,0.000
1606130652.311,28.809,-20.020,-34.668,114.746,0.000
1606130652.315,-35.645,-28.809,-39.062,-23.438,0.000
1606130652.319,-95.215,-36.133,-35.156,-172.852,0.000
1606130652.323,-74.219,-29.785,-31.738,-146.484,0.000
1606130652.327,8.789,-20.020,-22.949,29.785,0.000
1606130652.331,40.039,-13.184,-15.137,116.699,0.000
1606130652.335,-18.555,-14.160,-23.926,-1.465,0.000
1606130652.339,-85.938,-29.297,-32.715,-162.598,0.000
1606130652.342,-71.777,-35.156,-27.344,-154.297,0.000
1606130652.346,5.859,-23.926,-21.973,26.367,0.000
1606130652.350,44.434,-18.066,-28.809,134.277,0.000
1606130652.354,4.395,-26.855,-34.668,38.086,0.000
1606130652.358,-61.523,-34.180,-35.645,-130.859,0.000
1606130652.362,-65.430,-31.738,-35.645,-152.832,0.000
1606130652.366,8.301,-28.320,-26.855,5.371,0.000
1606130652.370,57.617,-20.508,-23.926,127.441,0.000
1606130652.374,14.160,-21.484,-29.785,54.199,0.000
1606130652.378,-63.965,-33.691,-37.598,-129.883,0.000
1606130652.381,-76.172,-34.180,-37.109,-176.758,0.000
1606130652.385,-1.953,-25.391,-24.902,-20.996,0.000
1606130652.389,56.152,-23.438,-21.484,120.117,0.000
1606130652.393,23.438,-25.391,-25.879,78.125,0.000
1606130652.397,-57.129,-29.785,-25.391,-102.051,0.000
1606130652.401,-88.379,-35.645,-28.320,-178.711,0.000
1606130652.405,-30.762,-35.645,-26.855,-46.387,0.000
1606130652.409,34.668,-31.250,-20.996,107.910,0.000
1606130652.413,19.043,-32.715,-27.832,85.938,0.000
1606130652.417,-55.176,-38.086,-34.180,-88.379,0.000
1606130652.421,-81.543,-31.738,-27.832,-175.781,0.000
1606130652.424,-25.391,-25.879,-24.414,-65.918,0.000
1606130652.428,38.574,-28.320,-26.855,102.539,0.000
1606130652.432,29.297,-25.391,-23.926,111.816,0.000
1606130652.436,-46.387,-29.297,-24.414,-64.453,0.000
1606130652.440,-89.844,-35.156,-31.250,-183.105,0.000
1606130652.444,-51.270,-39.551,-32.227,-104.492,0.000
1606130652.448,18.066,-37.109,-26.855,62.012,0.000
1606130652.452,29.297,-23.438,-23.438,101.562,0.000
1606130652.456,-32.227,-26.367,-27.344,-43.457,0.000
1606130652.460,-85.449,-41.016,-33.203,-178.223,0.000
1606130652.464,-57.129,-37.598,-30.273,-128.418,0.000
1606130652.467,15.625,-31.250,-23.438,44.922,0.000
1606130652.471,30.273,-27.344,-25.391,104.980,0.000
1606130652.475,-33.203,-25.391,-38.086,-37.109,0.000
1606130652.479,-91.309,-37.109,-41.992,-182.617,0.000
1606130652.483,-71.777,-42.969,-36.133,-148.438,0.000
1606130652.487,-0.977,-35.645,-36.133,25.879,0.000
1606130652.491,32.715,-26.367,-34.668,102.051,0.000
1606130652.495,-13.672,-28.320,-35.156,-13.184,0.000
1606130652.499,-84.961,-36.621,-37.109,-164.551,0.000
1606130652.503,-89.355,-39.062,-31.738,-171.875,0.000
1606130652.506,-22.949,-42.969,-21.973,-4.883,0.000
1606130652.510,25.391,-35.156,-15.625,108.887,0.000
1606130652.514,-14.648,-23.926,-18.066,9.277,0.000
1606130652.518,-89.844,-38.574,-24.414,-168.945,0.000
1606130652.522,-92.285,-40.527,-25.879,-187.500,0.000
1606130652.526,-23.438,-39.062,-21.484,-16.602,0.000
1606130652.530,15.625,-41.504,-22.949,98.633,0.000
1606130652.534,-20.996,-35.156,-25.391,26.367,0.000
1606130652.538,-89.355,-39.551,-29.297,-135.254,0.000
1606130652.542,-103.516,-42.480,-30.762,-176.758,0.000
1606130652.546,-39.551,-33.203,-22.949,-24.902,0.000
1606130652.549,21.484,-27.344,-14.160,129.395,0.000
1606130652.553,6.348,-18.555,-16.113,92.285,0.000
1606130652.557,-72.266,-23.926,-28.320,-97.168,0.000
1606130652.561,-100.098,-43.945,-28.320,-173.828,0.000
1606130652.565,-36.133,-37.598,-26.855,-41.992,0.000
1606130652.569,34.668,-29.297,-24.902,107.422,0.000
1606130652.573,23.926,-24.902,-18.555,89.355,0.000
1606130652.577,-54.199,-28.320,-22.949,-82.520,0.000
1606130652.581,-85.449,-30.273,-24.414,-170.410,0.000
1606130652.585,-27.344,-20.996,-19.531,-62.988,0.000
1606130652.589,32.715,-20.020,-10.254,98.633,0.000
1606130652.592,24.414,-22.949,-11.230,106.445,0.000
1606130652.596,-40.527,-28.809,-16.602,-64.453,0.000
1606130652.600,-83.984,-33.691,-12.207,-172.363,0.000
1606130652.604,-41.016,-23.438,-11.230,-82.031,0.000
1606130652.608,33.203,-23.438,-14.160,85.449,0.000
1606130652.612,44.434,-20.508,-16.113,117.676,0.000
1606130652.616,-23.438,-24.414,-20.996,-38.086,0.000
1606130652.620,-77.637,-32.227,-20.996,-170.898,0.000
1606130652.624,-52.246,-28.320,-20.996,-110.840,0.000
1606130652.628,13.184,-23.438,-22.461,64.941,0.000
1606130652.631,33.691,-17.578,-20.020,127.930,0.000
1606130652.635,-24.414,-24.902,-23.926,-11.230,0.000
1606130652.639,-81.543,-31.250,-29.785,-153.320,0.000
1606130652.643,-67.383,-28.320,-30.273,-118.164,0.000
1606130652.647,3.418,-23.926,-21.484,53.711,0.000
1606130652.651,28.320,-30.762,-19.531,129.395,0.000
1606130652.655,-31.738,-39.551,-27.832,-0.488,0.000
1606130652.659,-94.727,-39.062,-34.668,-165.039,0.000
1606130652.663,-85.449,-38.086,-30.273,-155.762,0.000
1606130652.667,-8.301,-37.109,-23.438,12.207,0.000
1606130652.671,32.715,-26.367,-22.461,109.863,0.000
1606130652.674,-10.254,-25.391,-24.414,13.184,0.000
1606130652.678,-78.613,-29.785,-28.809,-153.320,0.000
1606130652.682,-84.473,-29.297,-29.785,-175.781,0.000
1606130652.686,-3.418,-25.391,-21.484,-12.695,0.000
1606130652.690,48.828,-16.602,-21.973,110.352,0.000
1606130652.694,2.930,-20.020,-36.133,26.367,0.000
1606130652.698,-75.195,-29.297,-41.016,-149.414,0.000
1606130652.702,-81.055,-29.785,-32.715,-188.477,0.000
1606130652.706,-10.742,-26.367,-20.508,-42.480,0.000
1606130652.710,47.363,-22.949,-20.508,95.703,0.000
1606130652.714,22.949,-19.531,-27.832,63.965,0.000
1606130652.717,-60.059,-26.367,-32.715,-110.840,0.000
1606130652.721,-80.566,-26.367,-34.180,-188.965,0.000
1606130652.725,-5.859,-14.160,-26.855,-46.387,0.000
1606130652.729,56.152,-8.789,-20.996,114.258,0.000
1606130652.733,37.109,-6.348,-19.531,99.121,0.000
1606130652.737,-47.852,-20.020,-22.949,-76.660,0.000
1606130652.741,-87.891,-28.809,-24.414,-173.828,0.000
1606130652.745,-33.691,-24.902,-19.531,-62.988,0.000
1606130652.749,38.574,-22.949,-8.789,105.469,0.000
1606130652.753,37.598,-9.766,-9.766,110.840,0.000
1606130652.756,-38.574,-13.184,-22.949,-63.477,0.000
1606130652.760,-92.285,-36.621,-27.832,-179.199,0.000
1606130652.764,-55.664,-40.039,-24.902,-94.727,0.000
1606130652.768,24.414,-31.250,-19.043,85.938,0.000
1606130652.772,29.297,-22.949,-19.531,109.863,0.000
1606130652.776,-49.805,-28.809,-27.832,-59.082,0.000
1606130652.780,-99.609,-34.668,-33.691,-186.035,0.000
1606130652.784,-69.336,-32.715,-32.227,-125.977,0.000
1606130652.788,3.906,-32.715,-25.879,51.758,0.000
1606130652.792,30.762,-23.926,-21.973,117.188,0.000
1606130652.796,-28.809,-28.320,-29.297,-17.578,0.000
1606130652.799,-87.891,-36.133,-34.180,-160.156,0.000
1606130652.803,-63.477,-27.344,-31.738,-131.348,0.000
1606130652.807,13.672,-17.578,-24.414,37.109,0.000
1606130652.811,38.574,-11.719,-23.926,113.770,0.000
1606130652.815,-15.625,-16.113,-32.715,-1.465,0.000
1606130652.819,-82.031,-25.879,-39.551,-158.691,0.000
1606130652.823,-74.219,-28.320,-39.062,-161.621,0.000
1606130652.827,6.836,-23.926,-33.691,16.113,0.000
1606130652.831,41.992,-17.578,-38.574,124.512,0.000
1606130652.835,-8.789,-13.184,-45.410,17.090,0.000
1606130652.839,-71.777,-23.438,-41.992,-152.832,0.000
1606130652.842,-73.242,-29.785,-36.133,-169.434,0.000
1606130652.846,-7.812,-23.926,-35.645,2.441,0.000
1606130652.850,31.738,-24.902,-31.738,132.812,0.000
1606130652.854,-9.277,-29.297,-27.344,56.152,0.000
1606130652.858,-78.613,-32.227,-33.691,-112.793,0.000
1606130652.862,-91.309,-30.762,-31.738,-154.785,0.000
1606130652.866,-22.949,-29.785,-33.203,-11.230,0.000
1606130652.870,35.156,-23.438,-31.738,129.395,0.000
1606130652.874,7.812,-22.949,-28.320,86.914,0.000
1606130652.878,-61.035,-31.738,-29.785,-88.379,0.000
1606130652.881,-96.191,-31.738,-23.926,-164.551,0.000
1606130652.885,-49.805,-29.785,-18.066,-35.645,0.000
1606130652.889,28.809,-23.438,-16.113,112.793,0.000
1606130652.893,19.043,-12.207,-20.020,102.051,0.000
1606130652.897,-68.359,-20.508,-22.949,-72.266,0.000
1606130652.901,-100.098,-29.297,-23.926,-173.340,0.000
1606130652.905,-40.527,-32.715,-22.949,-54.688,0.000
1606130652.909,23.926,-35.156,-26.367,81.543,0.000
1606130652.913,7.812,-36.133,-31.738,83.496,0.000
1606130652.917,-54.688,-37.109,-30.273,-65.430,0.000
1606130652.921,-86.426,-35.645,-34.180,-172.852,0.000
1606130652.924,-38.574,-32.715,-28.320,-74.219,0.000
1606130652.928,37.598,-27.344,-20.508,85.938,0.000
1606130652.932,39.551,-20.020,-24.902,101.562,0.000
1606130652.936,-33.691,-20.508,-29.297,-56.641,0.000
1606130652.940,-93.262,-33.691,-37.109,-187.012,0.000
1606130652.944,-65.918,-36.621,-36.133,-121.094,0.000
1606130652.948,10.742,-29.297,-23.438,57.129,0.000
1606130652.952,26.855,-27.832,-24.902,113.281,0.000
1606130652.956,-29.297,-34.668,-28.809,-28.320,0.000
1606130652.960,-83.008,-34.668,-31.738,-162.598,0.000
1606130652.964,-66.895,-32.227,-37.109,-123.535,0.000
1606130652.967,17.090,-22.461,-32.227,45.898,0.000
1606130652.971,49.316,-11.230,-31.250,125.977,0.000
1606130652.975,-19.531,-18.555,-38.086,9.277,0.000
1606130652.979,-87.891,-33.203,-36.621,-144.531,0.000
1606130652.983,-84.961,-42.969,-35.156,-142.090,0.000
1606130652.987,-11.719,-35.156,-34.180,26.367,0.000
1606130652.991,30.762,-17.090,-28.809,127.441,0.000
1606130652.995,-12.207,-22.461,-31.250,19.531,0.000
1606130652.999,-85.449,-40.039,-41.016,-149.414,0.000
1606130653.003,-89.844,-40.527,-42.480,-157.715,0.000
1606130653.006,-19.531,-30.273,-36.621,4.883,0.000
1606130653.010,29.297,-26.367,-28.320,124.512,0.000
1606130653.014,-0.488,-31.738,-30.273,53.711,0.000
1606130653.018,-80.078,-37.598,-37.598,-119.629,0.000
1606130653.022,-103.516,-39.551,-32.227,-162.109,0.000
1606130653.026,-33.691,-33.203,-25.879,-9.766,0.000
1606130653.030,26.855,-25.879,-20.996,118.652,0.000
1606130653.034,-4.883,-32.715,-20.508,67.871,0.000
1606130653.038,-83.496,-44.434,-34.668,-101.074,0.000
1606130653.042,-100.098,-42.480,-39.062,-174.316,0.000
1606130653.046,-40.527,-39.551,-28.320,-45.898,0.000
1606130653.049,21.484,-35.645,-21.973,119.629,0.000
1606130653.053,4.395,-27.344,-21.973,102.539,0.000
1606130653.057,-63.965,-29.297,-23.438,-84.473,0.000
1606130653.061,-85.938,-38.574,-27.344,-174.805,0.000
1606130653.065,-33.691,-37.109,-27.344,-59.570,0.000
1606130653.069,32.227,-29.297,-25.391,95.703,0.000
1606130653.073,19.531,-22.461,-33.203,91.797,0.000
1606130653.077,-55.664,-26.367,-37.109,-84.473,0.000
1606130653.081,-92.773,-33.691,-32.227,-193.359,0.000
1606130653.085,-58.105,-34.668,-30.273,-107.422,0.000
1606130653.089,2.441,-38.086,-28.320,62.988,0.000
1606130653.092,13.184,-37.598,-27.832,89.355,0.000
1606130653.096,-51.758,-37.598,-32.715,-68.359,0.000
1606130653.100,-97.656,-34.668,-28.809,-181.641,0.000
1606130653.104,-65.918,-28.809,-27.832,-119.629,0.000
1606130653.108,13.672,-24.902,-24.902,62.988,0.000
1606130653.112,33.203,-22.461,-20.508,130.371,0.000
1606130653.116,-34.180,-26.855,-26.367,-25.879,0.000
1606130653.120,-94.238,-31.250,-30.273,-176.270,0.000
1606130653.124,-76.660,-31.250,-34.180,-140.625,0.000
1606130653.128,7.324,-27.832,-31.250,32.227,0.000
1606130653.131,37.109,-21.973,-25.391,109.375,0.000
1606130653.135,-23.438,-20.996,-28.809,-18.066,0.000
1606130653.139,-81.543,-22.949,-36.133,-162.598,0.000
1606130653.143,-71.289,-21.973,-29.297,-140.137,0.000
1606130653.147,-6.836,-22.461,-15.137,18.066,0.000
1606130653.151,18.555,-20.996,-12.207,106.445,0.000
1606130653.155,-29.785,-23.926,-10.742,14.648,0.000
1606130653.159,-95.703,-31.738,-4.395,-144.531,0.000
1606130653.163,-98.633,-36.621,-9.277,-167.969,0.000
1606130653.167,-15.625,-29.297,-11.230,4.883,0.000
1606130653.171,36.133,-16.602,-0.488,129.883,0.000
1606130653.174,-17.578,-20.020,-0.488,42.480,0.000
1606130653.178,-91.797,-40.039,-4.395,-131.836,0.000
