timestamps,TP9,AF7,AF8,TP10,Right AUX
1606142775.536,0.000,0.000,0.000,0.000,0.000
1606142775.539,0.000,0.000,-0.488,0.977,0.000
1606142775.543,-4.883,-0.977,-0.977,-13.184,0.000
1606142775.547,9.277,1.953,1.465,25.391,0.000
1606142775.551,-40.527,-11.230,-11.230,-104.980,0.000
1606142775.555,-124.023,-25.879,-23.926,-342.773,0.000
1606142775.559,-66.895,-20.996,-24.902,-183.105,0.000
1606142775.563,52.246,-18.555,-20.508,202.637,0.000
1606142775.567,73.730,-22.461,-18.555,289.062,0.000
1606142775.571,-29.785,-29.297,-26.855,-48.828,0.000
1606142775.575,-117.676,-29.297,-28.809,-329.590,0.000
1606142775.579,-81.543,-23.926,-25.391,-219.238,0.000
1606142775.582,41.016,-18.066,-23.926,159.668,0.000
1606142775.586,83.984,-15.625,-9.277,312.012,0.000
1606142775.590,-19.531,-26.367,-11.230,14.648,0.000
1606142775.594,-126.953,-37.109,-33.691,-323.242,0.000
1606142775.598,-107.422,-38.574,-30.762,-273.926,0.000
1606142775.602,23.926,-39.551,-15.137,122.070,0.000
1606142775.606,87.402,-26.367,-13.184,328.125,0.000
1606142775.610,-2.930,-25.879,-31.738,63.965,0.000
1606142775.614,-117.676,-35.645,-42.480,-306.152,0.000
1606142775.618,-116.699,-36.621,-35.156,-316.895,0.000
1606142775.622,3.418,-31.738,-26.855,59.082,0.000
1606142775.625,73.730,-23.926,-20.996,299.316,0.000
1606142775.629,3.906,-28.320,-17.578,103.027,0.000
1606142775.633,-116.211,-38.574,-23.438,-270.508,0.000
1606142775.637,-142.090,-37.109,-33.203,-341.797,0.000
1606142775.641,-25.879,-34.668,-26.367,10.742,0.000
1606142775.645,68.359,-24.414,-11.719,303.711,0.000
1606142775.649,16.113,-26.367,-13.184,158.203,0.000
1606142775.653,-111.328,-96.191,-29.785,-229.004,0.000
1606142775.657,-141.602,-116.211,-32.227,-356.445,0.000
1606142775.661,-38.086,-47.852,-27.344,-42.969,0.000
1606142775.664,62.500,-20.996,-20.020,271.973,0.000
1606142775.668,39.551,-20.020,-18.066,186.523,0.000
1606142775.672,-85.938,-24.902,-26.367,-201.660,0.000
1606142775.676,-133.789,-24.902,-29.297,-371.582,0.000
1606142775.680,-47.852,-21.973,-28.809,-90.820,0.000
1606142775.684,63.477,-15.137,-19.043,259.766,0.000
1606142775.688,54.688,-10.254,-18.066,238.770,0.000
1606142775.692,-78.125,-27.344,-39.551,-154.297,0.000
1606142775.696,-141.602,-24.902,-39.062,-371.094,0.000
1606142775.700,-58.594,-41.504,-23.438,-125.000,0.000
1606142775.704,58.105,-63.965,-28.809,230.957,0.000
1606142775.707,65.918,-31.250,-31.738,250.000,0.000
1606142775.711,-55.176,-27.344,-32.227,-115.723,0.000
1606142775.715,-140.625,-30.762,-36.133,-371.582,0.000
1606142775.719,-79.590,-20.996,-34.668,-204.590,0.000
1606142775.723,39.062,-17.090,-30.273,177.246,0.000
1606142775.727,62.500,-18.066,-27.832,274.414,0.000
1606142775.731,-41.504,-21.973,-27.832,-74.707,0.000
1606142775.735,-134.277,-25.879,-35.156,-367.676,0.000
1606142775.739,-97.168,-23.926,-38.574,-241.211,0.000
1606142775.743,26.367,-17.090,-33.691,149.902,0.000
1606142775.747,73.730,1.465,-25.879,300.293,0.000
1606142775.750,-23.926,-36.621,-30.273,-8.301,0.000
1606142775.754,-128.906,-83.984,-43.457,-350.098,0.000
1606142775.758,-97.168,-40.039,-41.504,-281.250,0.000
1606142775.762,32.227,-9.766,-36.621,124.023,0.000
1606142775.766,90.332,-12.695,-24.414,318.359,0.000
1606142775.770,4.883,-20.996,-21.484,51.758,0.000
1606142775.774,-112.305,-31.250,-37.598,-309.570,0.000
1606142775.778,-105.957,-26.855,-39.551,-302.246,0.000
1606142775.782,19.531,-18.066,-23.926,85.449,0.000
1606142775.786,85.449,-19.531,-22.461,316.895,0.000
1606142775.789,11.230,-22.949,-31.250,96.680,0.000
1606142775.793,-105.469,-29.785,-30.273,-269.043,0.000
1606142775.797,-123.535,-26.367,-32.715,-333.008,0.000
1606142775.801,-7.812,-46.875,-26.855,16.113,0.000
1606142775.805,74.707,-48.340,-18.555,292.480,0.000
1606142775.809,23.438,-17.578,-27.344,139.160,0.000
1606142775.813,-96.680,-17.090,-30.762,-232.422,0.000
1606142775.817,-138.184,-24.902,-39.062,-345.703,0.000
1606142775.821,-30.762,-25.391,-34.668,-21.973,0.000
1606142775.825,69.336,-12.207,-22.949,291.504,0.000
1606142775.829,33.203,-11.719,-25.391,194.824,0.000
1606142775.832,-86.914,-21.484,-24.414,-198.242,0.000
1606142775.836,-124.512,-22.461,-26.855,-320.801,0.000
1606142775.840,-30.762,-21.484,-28.809,-13.184,0.000
1606142775.844,63.965,-11.719,-21.973,285.156,0.000
1606142775.848,44.434,-7.324,-25.879,231.934,0.000
1606142775.852,-82.520,-78.125,-40.039,-165.527,0.000
1606142775.856,-139.648,-86.914,-37.109,-367.188,0.000
1606142775.860,-55.176,-19.043,-29.297,-128.418,0.000
1606142775.864,56.641,-11.230,-28.320,226.074,0.000
1606142775.868,53.711,-13.672,-21.973,241.699,0.000
1606142775.872,-70.801,-21.973,-32.227,-134.766,0.000
1606142775.875,-148.926,-23.438,-43.945,-387.207,0.000
1606142775.879,-81.055,-18.066,-37.109,-194.824,0.000
1606142775.883,36.133,-20.996,-31.738,186.035,0.000
1606142775.887,56.641,-14.648,-31.250,261.719,0.000
1606142775.891,-50.293,-19.531,-28.320,-90.820,0.000
1606142775.895,-141.602,-21.973,-28.809,-380.371,0.000
1606142775.899,-97.168,-31.738,-30.273,-240.234,0.000
1606142775.903,25.879,-57.129,-27.832,151.367,0.000
1606142775.907,63.965,-30.762,-31.250,277.344,0.000
1606142775.911,-35.156,-17.578,-37.109,-42.480,0.000
1606142775.914,-134.277,-25.879,-43.457,-359.863,0.000
1606142775.918,-99.609,-17.090,-41.992,-270.508,0.000
1606142775.922,32.227,-11.719,-31.738,118.164,0.000
1606142775.926,83.008,-13.672,-29.297,294.922,0.000
1606142775.930,0.000,-6.836,-28.320,35.156,0.000
1606142775.934,-103.516,-9.277,-31.738,-300.293,0.000
1606142775.938,-100.098,-20.020,-41.016,-290.527,0.000
1606142775.942,16.602,-16.113,-33.203,78.125,0.000
1606142775.946,86.914,-11.719,-25.879,303.223,0.000
1606142775.950,15.625,-17.090,-38.574,83.496,0.000
1606142775.954,-97.656,-23.926,-42.969,-280.273,0.000
1606142775.957,-97.656,-10.742,-35.645,-309.082,0.000
1606142775.961,16.113,-47.363,-37.598,55.664,0.000
1606142775.965,86.914,-75.195,-35.156,305.176,0.000
1606142775.969,24.902,-28.320,-36.621,129.883,0.000
1606142775.973,-95.703,-26.367,-41.016,-246.094,0.000
1606142775.977,-123.535,-18.066,-39.062,-342.773,0.000
1606142775.981,-17.578,-41.504,-36.621,-4.883,0.000
1606142775.985,76.660,-52.734,-30.762,289.062,0.000
1606142775.989,39.551,-16.602,-29.297,169.922,0.000
1606142775.993,-84.473,-18.555,-31.738,-212.891,0.000
1606142775.997,-125.488,-18.555,-35.645,-365.723,0.000
1606142776.000,-24.902,-11.230,-29.785,-70.801,0.000
1606142776.004,75.684,-4.395,-22.461,258.301,0.000
1606142776.008,54.199,-8.301,-20.996,207.520,0.000
1606142776.012,-67.383,-17.578,-30.762,-166.016,0.000
1606142776.016,-132.812,-21.973,-33.203,-362.305,0.000
1606142776.020,-50.781,-22.461,-26.855,-113.770,0.000
1606142776.024,62.988,-15.625,-26.855,242.676,0.000
1606142776.028,60.059,-12.207,-26.367,248.535,0.000
1606142776.032,-67.383,-29.785,-35.156,-135.254,0.000
1606142776.036,-149.902,-32.715,-32.715,-381.836,0.000
1606142776.039,-77.148,-41.504,-28.809,-173.340,0.000
1606142776.043,50.293,-81.543,-20.508,213.379,0.000
1606142776.047,63.965,-55.176,-11.230,280.273,0.000
1606142776.051,-54.688,-20.020,-16.602,-79.102,0.000
1606142776.055,-140.137,-25.879,-21.973,-350.098,0.000
1606142776.059,-87.402,-21.484,-16.113,-193.848,0.000
1606142776.063,30.762,-18.066,-11.230,177.734,0.000
1606142776.067,53.711,-21.973,-24.414,275.879,0.000
1606142776.071,-57.129,-28.320,-25.879,-42.480,0.000
1606142776.075,-151.855,-27.832,-23.926,-343.750,0.000
1606142776.079,-118.164,-33.691,-20.996,-259.277,0.000
1606142776.082,4.883,-61.523,-17.578,120.117,0.000
1606142776.086,49.316,-39.062,-21.973,286.133,0.000
1606142776.090,-41.016,-14.648,-23.438,11.230,0.000
1606142776.094,-141.113,-20.996,-25.391,-322.266,0.000
1606142776.098,-128.906,-26.855,-38.574,-296.387,0.000
1606142776.102,0.000,-23.438,-22.949,88.867,0.000
1606142776.106,74.219,-12.695,-7.812,319.824,0.000
1606142776.110,-7.324,-18.555,-23.438,87.891,0.000
1606142776.114,-127.930,-31.738,-29.785,-287.109,0.000
1606142776.118,-127.930,-21.484,-24.902,-318.359,0.000
1606142776.122,-1.465,-39.551,-18.555,66.406,0.000
1606142776.125,74.219,-55.664,-12.695,314.453,0.000
1606142776.129,10.742,-26.367,-18.066,119.141,0.000
1606142776.133,-108.887,-25.879,-31.250,-258.301,0.000
1606142776.137,-133.789,-34.668,-36.133,-340.332,0.000
1606142776.141,-25.391,-30.762,-28.809,3.418,0.000
1606142776.145,68.359,-16.113,-20.020,291.992,0.000
1606142776.149,30.273,-14.648,-21.973,163.086,0.000
1606142776.153,-98.145,-24.414,-33.203,-217.285,0.000
1606142776.157,-139.648,-31.250,-34.180,-345.215,0.000
1606142776.161,-38.086,-30.273,-22.461,-35.156,0.000
1606142776.164,71.289,-23.438,-16.602,296.875,0.000
1606142776.168,52.734,-24.902,-16.113,243.164,0.000
1606142776.172,-74.707,-34.668,-24.902,-152.832,0.000
1606142776.176,-132.324,-33.691,-25.391,-351.562,0.000
1606142776.180,-44.434,-41.992,-15.625,-88.867,0.000
1606142776.184,67.383,-47.852,-19.043,261.230,0.000
1606142776.188,56.152,-33.691,-20.996,251.465,0.000
1606142776.192,-63.477,-29.297,-20.508,-125.488,0.000
1606142776.196,-131.836,-25.879,-23.438,-349.609,0.000
1606142776.200,-69.336,-24.902,-18.555,-145.020,0.000
1606142776.204,34.668,-26.855,-20.508,204.102,0.000
1606142776.207,43.457,-29.785,-15.625,256.836,0.000
1606142776.211,-72.266,-34.180,-17.090,-88.379,0.000
1606142776.215,-155.762,-31.738,-23.438,-350.586,0.000
1606142776.219,-101.562,-27.344,-19.043,-199.219,0.000
1606142776.223,17.578,-23.438,-20.020,172.363,0.000
1606142776.227,51.758,-20.508,-20.996,275.391,0.000
1606142776.231,-45.898,-31.738,-25.879,-48.828,0.000
1606142776.235,-133.301,-43.457,-29.785,-341.309,0.000
1606142776.239,-103.027,-42.969,-29.297,-248.047,0.000
1606142776.243,19.531,-33.691,-19.531,131.836,0.000
1606142776.247,70.801,-29.297,-19.043,298.828,0.000
1606142776.250,-25.391,-33.691,-23.438,11.230,0.000
1606142776.254,-127.441,-32.227,-22.461,-315.430,0.000
1606142776.258,-107.910,-30.273,-18.066,-266.113,0.000
1606142776.262,10.254,-23.926,-22.949,95.215,0.000
1606142776.266,69.824,-24.902,-23.438,288.574,0.000
1606142776.270,-11.719,-37.598,-19.043,52.246,0.000
1606142776.274,-123.535,-45.410,-26.367,-295.898,0.000
1606142776.278,-118.164,-36.621,-24.414,-301.758,0.000
1606142776.282,2.441,-26.367,-24.414,66.895,0.000
1606142776.286,80.078,-26.855,-20.020,312.500,0.000
1606142776.289,20.020,-28.320,-19.531,121.582,0.000
1606142776.293,-101.074,-30.762,-21.973,-250.000,0.000
1606142776.297,-124.512,-31.738,-20.020,-320.312,0.000
1606142776.301,-15.625,-33.203,-19.043,14.160,0.000
1606142776.305,70.312,-27.832,-10.742,294.922,0.000
1606142776.309,24.414,-22.461,-18.066,162.598,0.000
1606142776.313,-101.074,-28.809,-32.715,-234.375,0.000
1606142776.317,-140.137,-34.668,-27.832,-372.559,0.000
1606142776.321,-37.598,-25.391,-24.902,-64.453,0.000
1606142776.325,61.035,-17.578,-26.855,248.535,0.000
1606142776.329,39.062,-20.020,-26.855,178.223,0.000
1606142776.332,-77.637,-25.879,-25.391,-188.477,0.000
1606142776.336,-132.324,-28.320,-29.297,-368.652,0.000
1606142776.340,-44.434,-25.879,-35.156,-109.863,0.000
1606142776.344,64.453,-23.438,-30.273,229.492,0.000
1606142776.348,55.176,-19.043,-25.879,211.426,0.000
1606142776.352,-63.477,-23.926,-31.250,-153.809,0.000
1606142776.356,-131.836,-30.273,-30.762,-376.465,0.000
1606142776.360,-67.383,-25.391,-28.809,-167.969,0.000
1606142776.364,45.410,-19.043,-33.203,187.500,0.000
1606142776.368,61.523,-24.414,-24.902,232.910,0.000
1606142776.372,-51.270,-29.785,-32.227,-116.699,0.000
1606142776.375,-132.324,-38.086,-48.340,-373.047,0.000
1606142776.379,-75.195,-28.320,-34.668,-201.660,0.000
1606142776.383,44.434,-15.625,-23.926,173.340,0.000
1606142776.387,64.941,-21.973,-29.785,268.555,0.000
1606142776.391,-39.062,-32.715,-39.551,-55.176,0.000
1606142776.395,-122.070,-35.156,-39.062,-344.727,0.000
1606142776.399,-76.660,-27.832,-26.367,-227.539,0.000
1606142776.403,52.734,-21.973,-22.949,161.133,0.000
1606142776.407,88.379,-22.949,-32.715,296.875,0.000
1606142776.411,-16.602,-35.156,-31.250,-3.906,0.000
1606142776.414,-115.234,-39.551,-30.762,-320.312,0.000
1606142776.418,-87.891,-32.715,-28.320,-254.883,0.000
1606142776.422,31.250,-27.832,-29.297,120.605,0.000
1606142776.426,85.938,-26.855,-26.367,306.641,0.000
1606142776.430,2.930,-28.320,-25.391,67.871,0.000
1606142776.434,-104.980,-26.367,-30.273,-269.531,0.000
1606142776.438,-101.562,-31.738,-26.855,-282.715,0.000
1606142776.442,9.766,-34.668,-30.273,78.125,0.000
1606142776.446,85.449,-26.367,-26.367,320.801,0.000
1606142776.450,28.320,-24.414,-24.902,128.906,0.000
1606142776.454,-88.379,-34.668,-37.109,-243.164,0.000
1606142776.457,-106.445,-36.133,-38.086,-308.594,0.000
1606142776.461,-2.441,-9.277,-28.809,28.809,0.000
1606142776.465,81.055,-1.465,-18.555,285.156,0.000
1606142776.469,31.250,-25.391,-13.184,135.742,0.000
1606142776.473,-89.355,-34.668,-19.531,-221.680,0.000
1606142776.477,-119.141,-35.645,-29.297,-330.566,0.000
1606142776.481,-16.602,-28.320,-20.020,-16.602,0.000
1606142776.485,72.266,-27.832,-12.695,285.156,0.000
1606142776.489,31.250,-31.738,-24.414,190.918,0.000
1606142776.493,-87.891,-29.297,-32.715,-179.199,0.000
1606142776.497,-133.789,-38.086,-28.320,-333.984,0.000
1606142776.500,-52.246,-19.043,-27.832,-68.848,0.000
1606142776.504,49.805,10.742,-29.785,245.117,0.000
1606142776.508,39.551,-14.160,-29.785,213.379,0.000
1606142776.512,-78.613,-33.203,-32.227,-152.344,0.000
1606142776.516,-139.648,-37.598,-35.645,-359.375,0.000
1606142776.520,-63.477,-35.156,-35.156,-127.441,0.000
1606142776.524,54.199,-23.438,-30.273,229.004,0.000
1606142776.528,62.500,-23.438,-30.762,256.836,0.000
1606142776.532,-61.035,-29.297,-32.715,-98.633,0.000
1606142776.536,-144.043,-42.969,-32.715,-353.027,0.000
1606142776.539,-83.984,-29.785,-28.809,-173.340,0.000
1606142776.543,39.062,-5.859,-25.879,198.242,0.000
1606142776.547,65.918,-23.926,-20.508,281.250,0.000
1606142776.551,-41.016,-38.574,-22.949,-51.270,0.000
1606142776.555,-129.395,-38.574,-29.785,-343.262,0.000
1606142776.559,-83.984,-32.227,-27.832,-208.984,0.000
1606142776.563,35.645,-28.809,-18.555,175.293,0.000
1606142776.567,70.312,-35.645,-24.414,300.781,0.000
1606142776.571,-26.367,-41.016,-29.297,-1.465,0.000
1606142776.575,-128.906,-37.109,-24.414,-313.965,0.000
1606142776.579,-99.609,-35.156,-30.762,-247.559,0.000
1606142776.582,27.832,-31.738,-26.855,131.836,0.000
1606142776.586,80.078,-25.391,-21.973,325.195,0.000
1606142776.590,-3.418,-20.508,-21.484,78.613,0.000
1606142776.594,-112.305,-22.949,-21.484,-269.043,0.000
1606142776.598,-108.887,-30.762,-21.484,-279.785,0.000
1606142776.602,7.812,-23.926,-18.066,86.914,0.000
1606142776.606,75.684,-17.090,-15.137,319.824,0.000
1606142776.610,1.465,-29.785,-23.926,90.820,0.000
1606142776.614,-112.793,-35.645,-35.645,-279.297,0.000
1606142776.618,-125.488,-34.180,-40.039,-331.543,0.000
1606142776.622,-10.742,-29.297,-33.691,25.879,0.000
1606142776.625,78.125,-23.926,-22.949,303.223,0.000
1606142776.629,19.043,-30.273,-24.414,136.230,0.000
1606142776.633,-104.004,-32.227,-30.762,-237.305,0.000
1606142776.637,-131.836,-35.645,-33.691,-337.402,0.000
1606142776.641,-26.855,-12.695,-28.809,-16.602,0.000
1606142776.645,77.148,3.418,-25.879,290.527,0.000
1606142776.649,45.410,-21.484,-21.973,177.246,0.000
1606142776.653,-81.055,-32.227,-28.320,-208.984,0.000
1606142776.657,-132.324,-34.180,-43.945,-369.141,0.000
1606142776.661,-35.645,-30.273,-41.992,-78.613,0.000
1606142776.664,68.848,-24.414,-31.738,261.719,0.000
1606142776.668,43.457,-20.996,-32.227,207.520,0.000
1606142776.672,-79.102,-23.926,-39.062,-182.617,0.000
1606142776.676,-130.371,-29.785,-32.715,-382.324,0.000
1606142776.680,-49.316,-16.113,-26.855,-126.465,0.000
1606142776.684,58.105,-10.742,-29.785,228.516,0.000
1606142776.688,54.199,-24.902,-25.879,223.145,0.000
1606142776.692,-71.777,-33.203,-30.762,-155.762,0.000
1606142776.696,-144.043,-41.504,-37.598,-396.973,0.000
1606142776.700,-70.801,-32.227,-30.762,-186.035,0.000
1606142776.704,50.293,-16.113,-24.414,191.406,0.000
1606142776.707,78.613,-20.020,-13.184,264.160,0.000
1606142776.711,-37.598,-35.156,-13.184,-83.008,0.000
1606142776.715,-137.695,-38.574,-24.902,-368.164,0.000
1606142776.719,-87.402,-25.391,-28.320,-221.191,0.000
1606142776.723,32.227,-24.414,-22.461,166.504,0.000
1606142776.727,61.523,-28.320,-21.973,289.062,0.000
1606142776.731,-41.016,-32.227,-25.879,-27.344,0.000
1606142776.735,-140.137,-44.922,-28.320,-358.887,0.000
1606142776.739,-110.352,-37.109,-35.645,-283.203,0.000
1606142776.743,19.531,-9.277,-28.809,109.375,0.000
1606142776.747,77.637,-14.648,-14.648,289.551,0.000
1606142776.750,-17.090,-34.180,-22.949,22.461,0.000
1606142776.754,-123.535,-37.109,-32.715,-315.430,0.000
1606142776.758,-110.840,-40.039,-31.738,-289.062,0.000
1606142776.762,8.789,-40.039,-25.879,86.914,0.000
1606142776.766,80.566,-36.133,-16.113,306.641,0.000
1606142776.770,5.859,-36.133,-27.832,82.031,0.000
1606142776.774,-104.492,-35.645,-15.625,-269.043,0.000
1606142776.778,-111.328,-33.691,-19.043,-299.316,0.000
1606142776.782,-4.395,-26.855,-39.062,48.340,0.000
1606142776.786,73.730,-20.508,-30.273,294.434,0.000
1606142776.789,19.531,-28.320,-26.367,110.352,0.000
1606142776.793,-97.168,-37.109,-32.227,-261.230,0.000
1606142776.797,-121.582,-36.621,-37.109,-345.703,0.000
1606142776.801,-9.766,-28.809,-28.320,0.977,0.000
1606142776.805,82.520,-26.855,-19.043,302.246,0.000
1606142776.809,37.109,-31.738,-21.973,175.293,0.000
1606142776.813,-88.379,-40.527,-24.902,-209.473,0.000
1606142776.817,-126.465,-37.598,-14.648,-354.980,0.000
1606142776.821,-24.414,-27.344,-8.789,-44.434,0.000
1606142776.825,75.684,-26.855,-13.184,283.691,0.000
1606142776.829,44.434,-25.879,-15.137,207.520,0.000
1606142776.832,-82.031,-34.668,-25.391,-187.012,0.000
1606142776.836,-129.395,-48.340,-33.203,-372.070,0.000
1606142776.840,-44.922,-47.363,-27.344,-101.562,0.000
1606142776.844,58.105,-35.156,-21.484,250.977,0.000
1606142776.848,59.570,-29.297,-11.719,249.512,0.000
1606142776.852,-64.941,-40.039,-18.555,-137.695,0.000
1606142776.856,-135.254,-45.898,-31.738,-380.859,0.000
1606142776.860,-54.688,-41.016,-25.391,-157.715,0.000
1606142776.864,60.059,-34.180,-16.113,223.145,0.000
1606142776.868,74.707,-29.785,-13.184,284.180,0.000
1606142776.872,-40.527,-33.203,-21.484,-72.754,0.000
1606142776.875,-135.254,-42.480,-26.367,-356.934,0.000
1606142776.879,-88.867,-43.945,-22.461,-212.891,0.000
1606142776.883,39.062,-34.180,-20.020,179.199,0.000
1606142776.887,78.125,-36.621,-17.578,301.270,0.000
1606142776.891,-36.133,-45.898,-24.902,-33.203,0.000
1606142776.895,-140.137,-44.922,-32.227,-358.398,0.000
1606142776.899,-101.074,-35.156,-24.902,-263.672,0.000
1606142776.903,26.855,-28.809,-20.996,147.461,0.000
1606142776.907,72.754,-29.297,-26.367,309.082,0.000
1606142776.911,-16.602,-31.738,-27.344,13.184,0.000
1606142776.914,-119.141,-35.156,-31.738,-320.801,0.000
1606142776.918,-107.422,-31.738,-27.832,-273.926,0.000
1606142776.922,11.719,-15.625,-25.879,109.375,0.000
1606142776.926,76.172,-20.996,-25.879,311.523,0.000
1606142776.930,-5.371,-41.016,-25.879,71.289,0.000
1606142776.934,-122.070,-47.363,-34.180,-294.922,0.000
1606142776.938,-125.000,-41.504,-36.133,-320.801,0.000
1606142776.942,-11.230,-29.785,-33.203,53.711,0.000
1606142776.946,65.918,-29.297,-27.832,308.105,0.000
1606142776.950,-1.465,-34.180,-29.297,112.305,0.000
1606142776.954,-130.371,-40.527,-40.527,-275.391,0.000
1606142776.957,-146.484,-41.016,-36.621,-351.074,0.000
1606142776.961,-28.320,-37.109,-28.320,7.812,0.000
1606142776.965,66.406,-29.785,-22.461,301.758,0.000
1606142776.969,16.602,-34.668,-18.555,163.086,0.000
1606142776.973,-112.793,-44.922,-31.250,-237.793,0.000
1606142776.977,-145.508,-49.805,-34.180,-380.371,0.000
1606142776.981,-34.668,-20.996,-26.367,-53.711,0.000
1606142776.985,65.430,11.230,-22.461,283.691,0.000
1606142776.989,28.320,-23.926,-23.438,194.824,0.000
1606142776.993,-98.633,-49.316,-32.715,-212.891,0.000
1606142776.997,-157.715,-45.898,-37.598,-395.996,0.000
1606142777.000,-66.895,-36.621,-34.180,-116.211,0.000
1606142777.004,56.152,-26.855,-23.438,245.117,0.000
1606142777.008,48.828,-19.043,-18.555,233.887,0.000
1606142777.012,-66.895,-25.879,-32.227,-142.578,0.000
1606142777.016,-131.836,-34.180,-36.621,-371.582,0.000
1606142777.020,-62.500,-28.320,-26.367,-145.996,0.000
1606142777.024,45.898,-27.832,-30.273,229.980,0.000
1606142777.028,51.758,-34.180,-33.203,273.926,0.000
1606142777.032,-56.641,-35.645,-37.598,-98.145,0.000
1606142777.036,-136.230,-37.598,-41.504,-372.559,0.000
1606142777.039,-80.078,-30.762,-29.785,-190.430,0.000
1606142777.043,45.410,-24.902,-24.902,208.496,0.000
1606142777.047,75.195,-31.738,-28.809,303.711,0.000
1606142777.051,-37.598,-38.574,-25.391,-49.805,0.000
1606142777.055,-135.742,-43.457,-32.227,-353.027,0.000
1606142777.059,-94.238,-35.645,-36.133,-217.773,0.000
1606142777.063,31.250,17.578,-23.926,187.012,0.000
1606142777.067,70.801,11.719,-19.531,329.590,0.000
1606142777.071,-37.109,-38.086,-30.273,-12.695,0.000
1606142777.075,-140.625,-41.504,-33.691,-358.398,0.000
1606142777.079,-109.863,-38.086,-31.250,-270.508,0.000
1606142777.082,20.996,-30.273,-24.414,128.906,0.000
1606142777.086,86.914,-28.809,-24.414,327.148,0.000
1606142777.090,2.441,-30.273,-34.180,69.336,0.000
1606142777.094,-116.699,-41.016,-39.551,-304.199,0.000
1606142777.098,-113.770,-46.875,-33.203,-312.012,0.000
1606142777.102,16.113,-34.180,-20.020,95.703,0.000
1606142777.106,91.309,-27.344,-24.902,347.168,0.000
1606142777.110,20.996,-30.273,-24.902,124.023,0.000
1606142777.114,-104.492,-38.086,-28.809,-276.367,0.000
1606142777.118,-129.395,-45.410,-37.109,-351.074,0.000
1606142777.122,-8.789,-37.109,-29.785,27.832,0.000
1606142777.125,83.496,-33.691,-28.320,324.219,0.000
1606142777.129,32.715,-33.203,-25.391,166.016,0.000
1606142777.133,-99.609,-37.109,-28.320,-236.328,0.000
1606142777.137,-138.672,-40.527,-41.504,-351.562,0.000
1606142777.141,-26.367,-34.668,-39.551,-18.066,0.000
1606142777.145,70.801,-34.180,-22.461,297.852,0.000
1606142777.149,31.250,-37.109,-24.414,204.102,0.000
1606142777.153,-95.215,-38.086,-41.016,-192.383,0.000
1606142777.157,-150.391,-38.086,-43.945,-372.070,0.000
1606142777.161,-60.547,-50.293,-33.203,-90.820,0.000
1606142777.164,52.734,-66.406,-23.926,264.160,0.000
1606142777.168,41.504,-48.340,-27.344,237.793,0.000
1606142777.172,-79.102,-41.016,-32.227,-155.273,0.000
1606142777.176,-132.812,-40.527,-24.902,-371.094,0.000
1606142777.180,-54.199,-40.527,-15.137,-124.512,0.000
1606142777.184,53.223,-38.574,-18.066,250.977,0.000
1606142777.188,52.734,-28.320,-20.020,276.855,0.000
1606142777.192,-61.523,-32.227,-19.043,-105.957,0.000
1606142777.196,-132.324,-32.715,-26.367,-362.793,0.000
1606142777.200,-78.125,-47.363,-29.785,-171.875,0.000
1606142777.204,34.180,-57.617,-23.926,202.148,0.000
1606142777.207,61.035,-26.855,-14.648,272.949,0.000
1606142777.211,-40.527,-23.438,-16.602,-85.938,0.000
1606142777.215,-126.465,-33.691,-25.879,-381.836,0.000
1606142777.219,-78.613,-32.715,-24.414,-252.441,0.000
1606142777.223,34.180,-23.926,-14.648,139.160,0.000
1606142777.227,56.641,-19.531,-16.113,275.879,0.000
1606142777.231,-41.016,-25.391,-27.832,-31.738,0.000
1606142777.235,-139.648,-32.227,-31.250,-360.840,0.000
1606142777.239,-120.117,-35.645,-28.320,-297.852,0.000
1606142777.243,-7.324,-26.367,-20.996,96.680,0.000
1606142777.247,52.734,-12.207,-10.254,292.480,0.000
1606142777.250,-24.414,-24.902,-17.578,18.555,0.000
1606142777.254,-132.324,-33.691,-28.809,-349.609,0.000
1606142777.258,-136.719,-24.902,-31.738,-345.215,0.000
1606142777.262,-21.484,-53.711,-31.738,41.992,0.000
1606142777.266,47.363,-57.617,-30.762,269.531,0.000
1606142777.270,-20.996,-29.297,-32.715,40.039,0.000
1606142777.274,-120.605,-31.250,-31.738,-331.055,0.000
1606142777.278,-127.930,-25.879,-26.367,-366.211,0.000
1606142777.282,-25.879,-16.602,-21.973,-2.930,0.000
1606142777.286,43.457,-14.160,-20.020,257.812,0.000
1606142777.289,-6.836,-18.555,-21.484,99.121,0.000
1606142777.293,-113.770,-22.949,-26.367,-288.086,0.000
1606142777.297,-139.648,-18.555,-27.344,-401.855,0.000
1606142777.301,-40.527,-25.391,-23.438,-54.688,0.000
1606142777.305,55.664,-25.879,-17.578,253.418,0.000
1606142777.309,25.391,-14.648,-15.137,139.160,0.000
1606142777.313,-86.426,-19.531,-20.508,-243.164,0.000
1606142777.317,-132.812,-27.344,-25.879,-404.785,0.000
1606142777.321,-52.734,-21.484,-24.414,-125.488,0.000
1606142777.325,49.316,-7.812,-21.484,219.238,0.000
1606142777.329,32.715,-17.090,-24.414,183.105,0.000
1606142777.332,-80.078,-25.879,-31.738,-199.219,0.000
1606142777.336,-123.047,-27.832,-31.250,-383.789,0.000
1606142777.340,-42.969,-0.488,-25.879,-116.211,0.000
1606142777.344,51.270,6.836,-22.461,228.516,0.000
1606142777.348,46.875,-26.855,-20.996,220.215,0.000
1606142777.352,-63.965,-36.133,-28.809,-146.973,0.000
1606142777.356,-135.742,-40.527,-35.156,-375.977,0.000
1606142777.360,-81.055,-23.438,-36.133,-181.152,0.000
1606142777.364,26.367,1.953,-38.086,187.500,0.000
1606142777.368,49.805,-17.578,-29.785,263.672,0.000
1606142777.372,-51.270,-36.133,-35.645,-78.613,0.000
1606142777.375,-136.719,-36.621,-40.527,-365.723,0.000
1606142777.379,-94.238,-32.227,-35.156,-235.840,0.000
1606142777.383,19.043,-24.414,-37.109,158.203,0.000
1606142777.387,51.270,-24.414,-39.551,292.480,0.000
1606142777.391,-36.621,-29.297,-39.551,-13.184,0.000
1606142777.395,-121.582,-36.133,-42.480,-327.148,0.000
1606142777.399,-92.773,-37.109,-42.969,-250.000,0.000
1606142777.403,26.855,-12.207,-39.551,148.438,0.000
1606142777.407,77.637,-17.578,-40.039,324.219,0.000
1606142777.411,-0.977,-29.297,-36.621,58.594,0.000
1606142777.414,-94.238,-33.203,-40.039,-276.855,0.000
1606142777.418,-82.520,-35.156,-42.480,-253.418,0.000
1606142777.422,31.738,-26.367,-28.809,136.719,0.000
1606142777.426,92.285,-22.949,-20.020,353.027,0.000
1606142777.430,21.484,-25.879,-24.902,128.906,0.000
1606142777.434,-73.730,-29.785,-35.156,-229.492,0.000
1606142777.438,-82.520,-31.250,-41.992,-267.090,0.000
1606142777.442,10.254,-38.086,-41.016,80.566,0.000
1606142777.446,79.590,-41.016,-28.809,322.754,0.000
1606142777.450,28.320,-33.691,-27.344,155.762,0.000
1606142777.454,-76.172,-34.180,-34.180,-211.914,0.000
1606142777.457,-98.633,-38.574,-36.621,-305.664,0.000
1606142777.461,-6.836,-32.715,-39.551,30.762,0.000
1606142777.465,82.520,-23.438,-26.367,339.355,0.000
1606142777.469,43.457,-23.926,-23.926,228.027,0.000
1606142777.473,-77.637,-33.691,-38.086,-168.945,0.000
1606142777.477,-107.422,-29.297,-41.504,-323.242,0.000
1606142777.481,-12.207,-37.598,-32.715,-14.648,0.000
1606142777.485,69.824,-45.898,-33.203,295.410,0.000
1606142777.489,46.875,-26.367,-36.621,224.609,0.000
1606142777.493,-49.316,-21.973,-34.668,-142.578,0.000
1606142777.497,-99.609,-25.391,-34.180,-339.355,0.000
1606142777.500,-32.715,-24.902,-28.320,-98.145,0.000
1606142777.504,53.711,-26.855,-25.391,247.559,0.000
1606142777.508,44.434,-25.391,-22.949,255.371,0.000
1606142777.512,-56.641,-21.973,-25.879,-104.004,0.000
1606142777.516,-125.000,-30.762,-33.203,-344.238,0.000
1606142777.520,-71.289,-32.715,-29.785,-154.297,0.000
1606142777.524,31.250,-21.973,-25.391,221.680,0.000
1606142777.528,54.688,-17.090,-24.414,299.316,0.000
1606142777.532,-42.480,-26.367,-30.273,-67.383,0.000
1606142777.536,-120.117,-36.133,-39.551,-353.516,0.000
1606142777.539,-68.848,-30.762,-40.527,-201.172,0.000
1606142777.543,39.062,-27.832,-34.668,175.781,0.000
1606142777.547,61.523,-26.367,-21.973,300.781,0.000
1606142777.551,-26.855,-25.879,-28.809,-21.484,0.000
1606142777.555,-105.469,-25.879,-41.992,-337.891,0.000
1606142777.559,-76.660,-24.902,-35.156,-236.816,0.000
1606142777.563,29.785,-19.043,-27.832,154.785,0.000
1606142777.567,74.219,-11.230,-27.344,316.895,0.000
1606142777.571,-2.441,-18.555,-35.156,33.203,0.000
1606142777.575,-88.867,-24.414,-35.645,-302.246,0.000
1606142777.579,-82.520,-31.738,-36.621,-276.855,0.000
1606142777.582,19.531,-27.344,-26.855,106.934,0.000
1606142777.586,73.730,-22.461,-19.531,316.406,0.000
1606142777.590,7.324,-33.203,-33.691,70.801,0.000
1606142777.594,-90.332,-35.156,-40.527,-288.086,0.000
1606142777.598,-98.145,-37.109,-35.645,-312.500,0.000
1606142777.602,13.672,-31.738,-31.738,70.801,0.000
1606142777.606,83.008,-18.066,-35.645,331.055,0.000
1606142777.610,13.672,-18.555,-46.387,114.746,0.000
1606142777.614,-86.426,-16.602,-40.527,-272.949,0.000
1606142777.618,-83.984,-15.137,-39.551,-331.543,0.000
1606142777.622,16.113,0.000,-43.457,30.762,0.000
1606142777.625,85.449,8.301,-36.133,321.777,0.000
1606142777.629,34.668,-15.625,-29.297,174.316,0.000
1606142777.633,-76.172,-31.738,-37.598,-230.469,0.000
1606142777.637,-95.703,-33.691,-50.293,-358.887,0.000
1606142777.641,-0.977,-23.438,-38.574,-30.762,0.000
1606142777.645,88.867,-16.602,-32.227,298.828,0.000
1606142777.649,65.430,-26.367,-32.715,223.633,0.000
1606142777.653,-30.762,-32.227,-32.715,-157.715,0.000
1606142777.657,-72.754,-34.180,-39.551,-342.285,0.000
1606142777.661,-5.859,-37.598,-45.898,-82.031,0.000
1606142777.664,88.379,-30.273,-34.668,276.855,0.000
1606142777.668,79.590,-27.344,-27.832,274.414,0.000
1606142777.672,-21.973,-34.180,-32.227,-105.957,0.000
1606142777.676,-84.961,-43.457,-35.156,-350.586,0.000
1606142777.680,-33.691,-24.902,-32.227,-140.137,0.000
1606142777.684,66.406,1.465,-27.344,239.746,0.000
1606142777.688,80.078,-12.207,-27.344,284.668,0.000
1606142777.692,-20.020,-25.879,-27.344,-80.078,0.000
1606142777.696,-92.285,-35.645,-33.691,-353.516,0.000
1606142777.700,-47.363,-34.668,-32.227,-187.012,0.000
1606142777.704,50.781,-29.785,-21.484,201.172,0.000
1606142777.707,73.730,-31.738,-26.855,305.176,0.000
1606142777.711,-14.160,-35.645,-41.992,-28.809,0.000
1606142777.715,-98.145,-42.969,-43.945,-332.031,0.000
1606142777.719,-68.359,-37.109,-32.715,-233.398,0.000
1606142777.723,37.598,-10.742,-28.320,145.020,0.000
1606142777.727,76.660,-14.648,-24.902,305.664,0.000
1606142777.731,-3.906,-36.621,-19.043,7.812,0.000
1606142777.735,-95.703,-42.480,-24.902,-330.566,0.000
1606142777.739,-80.078,-38.574,-30.762,-278.809,0.000
1606142777.743,22.461,-31.250,-21.484,104.492,0.000
1606142777.747,69.336,-29.785,-22.461,303.711,0.000
1606142777.750,3.418,-33.691,-29.297,60.547,0.000
1606142777.754,-85.938,-39.551,-31.250,-299.316,0.000
1606142777.758,-90.820,-36.133,-29.297,-302.734,0.000
1606142777.762,6.836,-14.160,-22.461,86.426,0.000
1606142777.766,70.801,-12.207,-21.484,326.660,0.000
1606142777.770,13.672,-27.832,-24.414,116.211,0.000
1606142777.774,-94.238,-38.086,-32.715,-264.648,0.000
1606142777.778,-107.910,-39.551,-27.832,-329.102,0.000
1606142777.782,-9.766,-32.227,-19.531,33.691,0.000
1606142777.786,57.617,-36.133,-29.785,316.406,0.000
1606142777.789,20.508,-39.551,-34.180,160.645,0.000
1606142777.793,-76.172,-40.527,-33.691,-229.980,0.000
1606142777.797,-107.422,-35.156,-33.203,-352.539,0.000
1606142777.801,-16.602,-25.391,-31.250,-20.996,0.000
1606142777.805,63.477,-23.926,-26.855,313.477,0.000
1606142777.809,39.062,-22.949,-23.926,236.328,0.000
1606142777.813,-58.105,-25.879,-28.809,-166.504,0.000
1606142777.817,-104.492,-37.598,-31.738,-361.816,0.000
1606142777.821,-32.227,-31.250,-23.438,-79.590,0.000
1606142777.825,53.711,-17.578,-16.602,277.344,0.000
1606142777.829,45.898,-25.879,-17.090,247.559,0.000
1606142777.832,-51.270,-38.574,-24.902,-149.902,0.000
1606142777.836,-110.840,-41.504,-31.250,-389.648,0.000
1606142777.840,-51.270,-39.551,-20.020,-144.531,0.000
1606142777.844,57.617,-28.809,-11.230,258.301,0.000
1606142777.848,60.059,-24.902,-23.438,270.020,0.000
1606142777.852,-51.270,-33.203,-31.250,-126.465,0.000
1606142777.856,-117.676,-36.621,-25.391,-374.512,0.000
1606142777.860,-68.359,-29.785,-21.973,-189.453,0.000
1606142777.864,35.645,-25.391,-12.207,206.543,0.000
1606142777.868,59.570,-28.809,-11.719,303.711,0.000
1606142777.872,-27.832,-28.809,-30.273,-41.016,0.000
1606142777.875,-102.539,-33.203,-37.109,-350.586,0.000
1606142777.879,-67.383,-32.715,-32.715,-235.840,0.000
1606142777.883,36.621,-24.902,-24.902,171.875,0.000
1606142777.887,70.312,-20.020,-17.090,329.590,0.000
1606142777.891,-14.160,-25.391,-16.602,22.949,0.000
1606142777.895,-101.562,-35.645,-25.879,-319.336,0.000
1606142777.899,-81.055,-33.691,-30.273,-266.602,0.000
1606142777.903,23.926,-12.207,-24.902,139.648,0.000
1606142777.907,63.965,-19.531,-24.414,338.867,0.000
1606142777.911,-18.066,-41.992,-30.762,52.734,0.000
1606142777.914,-109.863,-46.875,-36.621,-324.219,0.000
1606142777.918,-103.516,-34.180,-37.109,-316.895,0.000
1606142777.922,-7.812,-3.418,-28.320,79.102,0.000
1606142777.926,55.176,-15.625,-20.020,320.312,0.000
1606142777.930,-2.930,-42.480,-26.367,99.609,0.000
1606142777.934,-94.727,-46.387,-37.109,-273.926,0.000
1606142777.938,-100.098,-41.992,-37.598,-336.426,0.000
1606142777.942,-11.719,-32.227,-25.391,23.926,0.000
1606142777.946,61.523,-27.832,-23.438,314.453,0.000
1606142777.950,20.020,-32.227,-28.320,165.527,0.000
1606142777.954,-88.379,-38.086,-30.762,-239.258,0.000
1606142777.957,-109.863,-32.715,-29.297,-359.375,0.000
1606142777.961,-18.555,-33.691,-23.438,-13.672,0.000
1606142777.965,57.129,-38.086,-20.020,301.758,0.000
1606142777.969,29.785,-30.762,-24.902,201.172,0.000
1606142777.973,-71.777,-34.668,-34.180,-200.195,0.000
1606142777.977,-114.746,-37.109,-36.133,-367.188,0.000
1606142777.981,-33.203,-32.227,-25.391,-70.801,0.000
1606142777.985,60.547,-28.809,-22.461,278.809,0.000
1606142777.989,50.293,-32.227,-22.949,251.953,0.000
1606142777.993,-56.152,-37.109,-24.902,-142.578,0.000
1606142777.997,-106.934,-38.574,-28.809,-353.027,0.000
1606142778.000,-31.738,-15.137,-22.461,-101.562,0.000
1606142778.004,61.523,20.508,-17.090,261.719,0.000
1606142778.008,57.617,-13.184,-18.555,277.832,0.000
1606142778.012,-44.922,-40.527,-22.461,-96.680,0.000
1606142778.016,-113.770,-37.109,-22.461,-357.910,0.000
1606142778.020,-66.406,-39.062,-24.902,-170.898,0.000
1606142778.024,30.762,-33.203,-23.926,214.355,0.000
1606142778.028,52.734,-29.785,-22.949,299.316,0.000
1606142778.032,-38.574,-35.156,-28.809,-49.805,0.000
1606142778.036,-106.445,-36.133,-19.531,-346.191,0.000
1606142778.039,-63.965,-31.250,-14.648,-210.938,0.000
1606142778.043,33.203,-25.391,-29.297,183.105,0.000
1606142778.047,67.871,-25.391,-30.762,318.359,0.000
1606142778.051,-15.137,-31.250,-26.367,7.812,0.000
1606142778.055,-101.562,-46.875,-29.297,-325.684,0.000
1606142778.059,-78.125,-33.691,-28.320,-258.789,0.000
1606142778.063,23.438,-11.230,-22.949,141.113,0.000
1606142778.067,66.406,-26.855,-21.973,330.078,0.000
1606142778.071,-6.836,-38.086,-26.855,45.410,0.000
1606142778.075,-88.379,-37.598,-26.367,-317.871,0.000
1606142778.079,-71.289,-32.227,-24.902,-292.480,0.000
1606142778.082,32.715,-30.273,-21.973,101.562,0.000
1606142778.086,86.426,-32.227,-23.926,332.520,0.000
1606142778.090,25.879,-31.250,-28.320,119.141,0.000
1606142778.094,-69.336,-31.738,-27.832,-265.625,0.000
1606142778.098,-92.285,-41.504,-28.809,-328.613,0.000
1606142778.102,-4.395,-22.461,-27.832,45.898,0.000
1606142778.106,68.848,-3.418,-30.273,335.449,0.000
1606142778.110,20.508,-28.809,-28.320,155.273,0.000
1606142778.114,-85.938,-41.504,-31.250,-247.559,0.000
1606142778.118,-110.352,-40.527,-38.574,-354.980,0.000
1606142778.122,-18.066,-32.715,-28.320,-4.395,0.000
1606142778.125,67.383,-24.902,-19.043,319.824,0.000
1606142778.129,32.715,-25.879,-28.320,188.965,0.000
1606142778.133,-72.754,-30.273,-30.762,-216.309,0.000
1606142778.137,-105.957,-33.691,-33.691,-349.609,0.000
1606142778.141,-27.344,-16.113,-38.086,-57.129,0.000
1606142778.145,62.012,-13.184,-31.250,278.320,0.000
1606142778.149,47.363,-31.738,-27.344,231.445,0.000
1606142778.153,-55.664,-36.133,-26.855,-160.156,0.000
1606142778.157,-109.375,-38.086,-30.273,-375.977,0.000
1606142778.161,-39.062,-36.621,-31.250,-117.676,0.000
1606142778.164,65.918,-33.203,-27.832,268.555,0.000
1606142778.168,67.871,-29.297,-25.391,281.738,0.000
1606142778.172,-45.898,-34.668,-25.391,-114.746,0.000
1606142778.176,-112.793,-43.945,-29.297,-364.746,0.000
1606142778.180,-48.828,-23.438,-27.832,-151.855,0.000
1606142778.184,61.035,-6.836,-25.391,243.652,0.000
1606142778.188,69.336,-29.785,-22.461,314.941,0.000
1606142778.192,-34.180,-42.480,-23.438,-63.965,0.000
1606142778.196,-107.910,-43.457,-28.320,-356.934,0.000
1606142778.200,-63.477,-48.340,-22.461,-198.730,0.000
1606142778.204,42.480,-48.828,-13.672,207.520,0.000
1606142778.207,76.172,-29.297,-13.184,348.145,0.000
1606142778.211,-6.348,-27.832,-25.391,10.254,0.000
1606142778.215,-92.285,-34.668,-31.250,-328.125,0.000
1606142778.219,-68.848,-29.297,-23.926,-234.863,0.000
1606142778.223,32.715,-22.949,-18.555,173.828,0.000
1606142778.227,77.148,-22.949,-10.742,358.398,0.000
1606142778.231,-2.441,-25.391,-9.277,76.172,0.000
1606142778.235,-102.051,-36.621,-18.066,-296.875,0.000
1606142778.239,-93.750,-36.621,-17.578,-280.762,0.000
1606142778.243,10.254,-22.461,-19.531,114.746,0.000
1606142778.247,63.965,-23.438,-22.461,346.680,0.000
1606142778.250,-2.441,-34.668,-20.508,113.770,0.000
1606142778.254,-101.562,-40.039,-27.832,-267.578,0.000
1606142778.258,-105.469,-38.574,-31.738,-320.312,0.000
1606142778.262,6.836,-24.902,-22.949,61.523,0.000
1606142778.266,86.426,-18.066,-15.137,347.168,0.000
1606142778.270,31.738,-23.438,-14.160,160.645,0.000
1606142778.274,-77.148,-26.367,-17.090,-232.422,0.000
1606142778.278,-88.867,-39.062,-21.973,-322.754,0.000
1606142778.282,10.254,24.902,-20.996,31.738,0.000
1606142778.286,90.820,55.176,-17.090,336.914,0.000
1606142778.289,51.758,-23.926,-15.137,208.496,0.000
1606142778.293,-62.988,-42.969,-25.391,-201.172,0.000
1606142778.297,-103.027,-43.457,-32.715,-358.398,0.000
1606142778.301,-11.719,-39.551,-24.414,-32.227,0.000
1606142778.305,84.473,-28.809,-16.602,329.590,0.000
1606142778.309,61.523,-28.320,-19.531,270.996,0.000
1606142778.313,-55.664,-42.480,-25.879,-137.695,0.000
1606142778.317,-107.422,-47.852,-20.996,-339.355,0.000
1606142778.321,-22.949,-33.203,-15.625,-56.152,0.000
1606142778.325,75.684,-28.809,-18.066,322.754,0.000
1606142778.329,62.012,-35.645,-19.531,309.082,0.000
1606142778.332,-49.316,-36.133,-25.391,-95.703,0.000
1606142778.336,-109.863,-42.480,-34.668,-359.863,0.000
1606142778.340,-37.598,-27.344,-30.762,-149.902,0.000
1606142778.344,75.195,-15.137,-23.926,248.047,0.000
1606142778.348,81.543,-36.621,-29.785,308.105,0.000
1606142778.352,-16.113,-45.898,-33.203,-69.824,0.000
1606142778.356,-91.309,-45.898,-30.273,-353.516,0.000
1606142778.360,-62.988,-42.480,-28.809,-193.359,0.000
1606142778.364,56.152,-38.086,-19.043,214.355,0.000
1606142778.368,98.633,-35.645,-10.254,347.656,0.000
1606142778.372,-2.930,-36.133,-19.043,17.090,0.000
1606142778.375,-95.703,-42.480,-27.832,-312.012,0.000
1606142778.379,-58.105,-33.691,-28.809,-222.168,0.000
1606142778.383,58.594,7.324,-19.043,180.176,0.000
1606142778.387,91.797,-11.719,-11.719,354.980,0.000
1606142778.391,-3.418,-51.270,-9.277,55.176,0.000
1606142778.395,-104.004,-54.688,-7.812,-303.223,0.000
1606142778.399,-85.449,-54.199,-4.883,-268.066,0.000
1606142778.403,41.992,-46.875,3.418,146.484,0.000
1606142778.407,109.863,-38.086,5.859,374.023,0.000
1606142778.411,39.551,-45.410,2.441,126.465,0.000
1606142778.414,-69.824,-52.734,-4.883,-256.836,0.000
1606142778.418,-76.172,-49.316,-4.883,-289.062,0.000
1606142778.422,23.926,-62.012,1.465,93.262,0.000
1606142778.426,90.820,-54.199,1.953,366.211,0.000
1606142778.430,36.133,-37.598,2.930,171.875,0.000
1606142778.434,-76.660,-43.945,-2.441,-235.352,0.000
1606142778.438,-100.098,-47.363,-11.719,-325.684,0.000
1606142778.442,7.324,-41.016,-6.348,36.133,0.000
1606142778.446,96.191,-37.598,-1.953,354.492,0.000
1606142778.450,51.270,-35.645,-4.395,224.121,0.000
1606142778.454,-66.895,-39.551,-9.277,-195.312,0.000
1606142778.457,-101.074,-40.527,-13.184,-348.145,0.000
1606142778.461,0.977,-33.691,-5.859,-5.859,0.000
1606142778.465,99.121,-26.367,0.000,348.633,0.000
1606142778.469,65.918,-29.297,-2.441,266.602,0.000
1606142778.473,-62.012,-50.293,-9.277,-158.203,0.000
1606142778.477,-111.328,-45.898,-9.766,-356.445,0.000
1606142778.481,-25.391,-54.688,-10.254,-76.172,0.000
1606142778.485,78.613,-67.871,-11.719,287.109,0.000
1606142778.489,78.613,-42.969,-10.742,291.016,0.000
1606142778.493,-38.574,-42.480,-14.648,-106.445,0.000
1606142778.497,-102.539,-47.363,-19.043,-363.770,0.000
1606142778.500,-32.227,-45.410,-19.043,-136.230,0.000
1606142778.504,75.195,-37.109,-10.742,259.766,0.000
1606142778.508,77.637,-32.715,-8.301,312.012,0.000
1606142778.512,-43.945,-41.992,-16.602,-75.684,0.000
1606142778.516,-127.930,-43.457,-17.090,-362.793,0.000
1606142778.520,-75.195,-45.410,-22.461,-185.547,0.000
1606142778.524,41.016,-44.922,-23.926,215.820,0.000
1606142778.528,73.730,-27.344,-19.531,325.684,0.000
1606142778.532,-26.855,-29.297,-21.973,-21.484,0.000
1606142778.536,-113.770,-39.062,-24.414,-341.309,0.000
1606142778.539,-77.637,-35.156,-26.367,-231.934,0.000
1606142778.543,41.016,-27.344,-19.531,171.387,0.000
1606142778.547,84.961,-25.391,-17.090,339.844,0.000
1606142778.551,-10.742,-30.762,-21.973,26.367,0.000
1606142778.555,-113.281,-36.133,-24.414,-334.961,0.000
1606142778.559,-90.820,-32.227,-22.949,-264.160,0.000
1606142778.563,20.996,-17.578,-18.555,137.695,0.000
1606142778.567,70.801,-18.555,-18.555,324.219,0.000
1606142778.571,-7.812,-33.691,-21.973,58.105,0.000
1606142778.575,-112.793,-38.086,-25.391,-308.594,0.000
1606142778.579,-108.398,-34.180,-23.438,-321.289,0.000
1606142778.582,10.254,-22.461,-20.508,73.730,0.000
1606142778.586,82.520,-16.113,-20.020,343.750,0.000
1606142778.590,15.137,-22.461,-21.973,127.441,0.000
1606142778.594,-96.680,-29.785,-25.879,-274.902,0.000
1606142778.598,-114.746,-32.227,-27.344,-353.516,0.000
1606142778.602,-12.695,-30.273,-28.320,22.949,0.000
1606142778.606,69.824,-24.902,-26.367,325.684,0.000
1606142778.610,20.996,-28.320,-25.879,170.898,0.000
1606142778.614,-101.074,-37.598,-34.668,-234.863,0.000
1606142778.618,-133.789,-38.574,-39.551,-374.512,0.000
1606142778.622,-32.715,-35.156,-36.133,-45.898,0.000
1606142778.625,55.664,-29.297,-29.297,286.621,0.000
1606142778.629,17.578,-30.273,-23.926,194.824,0.000
1606142778.633,-100.586,-36.133,-26.855,-213.379,0.000
1606142778.637,-142.578,-30.762,-34.180,-393.555,0.000
1606142778.641,-48.340,-23.926,-31.738,-98.633,0.000
1606142778.645,57.129,-19.043,-24.902,260.254,0.000
1606142778.649,41.016,-15.625,-20.020,232.422,0.000
1606142778.653,-79.590,-23.438,-21.484,-165.527,0.000
1606142778.657,-143.555,-28.320,-27.832,-409.668,0.000
1606142778.661,-69.336,-37.109,-33.203,-172.363,0.000
1606142778.664,38.574,-48.828,-30.762,216.309,0.000
1606142778.668,41.504,-30.273,-25.879,259.766,0.000
1606142778.672,-75.684,-21.973,-27.832,-136.230,0.000
1606142778.676,-145.508,-27.832,-36.621,-408.203,0.000
1606142778.680,-78.125,-26.367,-33.691,-208.008,0.000
1606142778.684,35.645,-24.902,-20.020,194.336,0.000
1606142778.688,52.734,-24.414,-22.461,289.062,0.000
1606142778.692,-58.594,-31.250,-29.785,-80.078,0.000
1606142778.696,-131.836,-25.879,-21.973,-371.094,0.000
1606142778.700,-84.473,-26.855,-29.785,-237.305,0.000
1606142778.704,9.766,-46.387,-38.086,136.230,0.000
1606142778.707,40.527,-28.320,-23.926,279.297,0.000
1606142778.711,-49.316,-19.043,-30.273,-31.738,0.000
1606142778.715,-139.160,-30.273,-32.227,-366.211,0.000
1606142778.719,-106.934,-30.273,-27.832,-298.828,0.000
1606142778.723,12.207,-24.414,-26.855,110.840,0.000
1606142778.727,63.477,-20.020,-23.926,308.105,0.000
1606142778.731,-23.438,-26.855,-31.250,26.367,0.000
1606142778.735,-133.789,-34.668,-40.039,-338.867,0.000
1606142778.739,-134.277,-35.645,-38.574,-341.309,0.000
1606142778.743,-10.254,-28.320,-28.320,58.594,0.000
1606142778.747,62.500,-21.484,-23.926,317.383,0.000
1606142778.750,-10.254,-29.297,-28.320,95.215,0.000
1606142778.754,-128.906,-39.551,-31.738,-301.758,0.000
1606142778.758,-145.508,-37.598,-34.668,-364.258,0.000
1606142778.762,-42.480,-42.480,-32.715,7.812,0.000
1606142778.766,34.668,-41.992,-23.438,286.621,0.000
1606142778.770,-4.395,-31.738,-21.973,125.488,0.000
1606142778.774,-118.652,-35.645,-32.227,-262.207,0.000
1606142778.778,-159.668,-39.062,-39.062,-388.184,0.000
1606142778.782,-51.758,-27.832,-31.738,-40.527,0.000
1606142778.786,43.945,-20.508,-25.391,288.086,0.000
1606142778.789,8.301,-22.461,-29.297,175.781,0.000
1606142778.793,-104.492,-27.344,-33.203,-220.215,0.000
1606142778.797,-155.273,-36.133,-29.785,-393.066,0.000
1606142778.801,-64.453,-29.785,-29.297,-104.980,0.000
1606142778.805,45.898,-20.020,-23.926,247.070,0.000
1606142778.809,30.762,-26.367,-17.090,219.727,0.000
1606142778.813,-87.402,-33.203,-26.367,-177.246,0.000
1606142778.817,-146.484,-38.086,-31.738,-400.879,0.000
1606142778.821,-71.289,-37.598,-28.809,-151.855,0.000
1606142778.825,36.133,-27.344,-24.414,232.910,0.000
1606142778.829,37.109,-22.949,-28.320,254.395,0.000
1606142778.832,-74.219,-27.344,-38.086,-136.719,0.000
1606142778.836,-140.137,-26.855,-38.086,-396.484,0.000
1606142778.840,-78.125,-31.738,-35.156,-197.266,0.000
1606142778.844,30.762,-38.574,-35.156,184.082,0.000
1606142778.848,42.969,-29.297,-33.691,254.883,0.000
1606142778.852,-66.895,-29.785,-36.133,-111.816,0.000
1606142778.856,-149.902,-37.598,-38.086,-405.273,0.000
1606142778.860,-102.539,-35.645,-38.574,-260.254,0.000
1606142778.864,20.508,-25.879,-29.785,141.602,0.000
1606142778.868,52.734,-18.555,-20.020,278.320,0.000
1606142778.872,-39.062,-21.973,-30.762,-39.062,0.000
1606142778.875,-131.836,-28.320,-36.621,-366.211,0.000
1606142778.879,-104.492,-28.809,-32.715,-298.828,0.000
1606142778.883,22.949,-24.414,-27.344,113.281,0.000
1606142778.887,72.754,-15.625,-26.367,308.594,0.000
1606142778.891,-21.484,-20.996,-35.156,13.184,0.000
1606142778.895,-125.977,-27.832,-41.504,-349.121,0.000
1606142778.899,-123.535,-26.855,-36.133,-331.543,0.000
1606142778.903,-5.371,-24.414,-27.344,76.172,0.000
1606142778.907,66.406,-15.625,-24.414,316.895,0.000
1606142778.911,1.465,-16.602,-29.785,85.938,0.000
1606142778.914,-101.562,-24.414,-36.621,-289.062,0.000
1606142778.918,-106.445,-24.414,-35.156,-340.332,0.000
1606142778.922,3.906,-19.043,-32.227,30.762,0.000
1606142778.926,78.125,-20.508,-26.855,310.547,0.000
1606142778.930,24.902,-32.227,-19.531,151.367,0.000
1606142778.934,-82.031,-33.691,-26.367,-221.191,0.000
1606142778.938,-110.840,-20.508,-35.156,-331.055,0.000
1606142778.942,-26.855,-21.484,-34.668,-18.555,0.000
1606142778.946,46.875,-23.438,-37.598,265.137,0.000
1606142778.950,13.184,-17.578,-40.527,162.109,0.000
1606142778.954,-91.309,-20.508,-41.016,-222.168,0.000
1606142778.957,-133.789,-14.160,-46.875,-391.113,0.000
1606142778.961,-39.551,-6.836,-46.875,-83.984,0.000
1606142778.965,57.617,-11.230,-40.527,265.137,0.000
1606142778.969,36.133,-15.137,-40.039,207.031,0.000
1606142778.973,-69.824,-23.438,-40.039,-183.594,0.000
1606142778.977,-124.512,-21.484,-44.434,-376.953,0.000
1606142778.981,-47.852,-24.902,-43.457,-113.281,0.000
1606142778.985,53.711,-30.762,-36.133,239.746,0.000
1606142778.989,44.922,-20.508,-40.527,240.234,0.000
1606142778.993,-62.988,-20.508,-46.875,-139.160,0.000
1606142778.997,-116.211,-22.461,-46.387,-377.930,0.000
1606142779.000,-50.781,-16.602,-40.527,-170.410,0.000
1606142779.004,59.570,-10.742,-33.203,223.633,0.000
1606142779.008,75.195,-14.160,-39.551,291.504,0.000
1606142779.012,-36.133,-19.531,-45.410,-82.520,0.000
1606142779.016,-119.629,-29.785,-45.898,-374.023,0.000
1606142779.020,-74.219,-26.855,-39.551,-220.215,0.000
1606142779.024,38.086,-19.043,-30.273,185.059,0.000
1606142779.028,70.312,-23.926,-28.809,316.406,0.000
1606142779.032,-28.809,-27.344,-31.250,-28.320,0.000
1606142779.036,-119.141,-39.551,-38.574,-364.258,0.000
1606142779.039,-82.520,-33.691,-35.645,-263.184,0.000
1606142779.043,39.062,17.090,-31.250,151.855,0.000
1606142779.047,96.191,6.348,-35.156,321.289,0.000
1606142779.051,7.324,-36.621,-34.180,19.043,0.000
1606142779.055,-107.910,-41.992,-39.551,-332.520,0.000
1606142779.059,-99.121,-35.645,-45.410,-295.410,0.000
1606142779.063,24.414,-24.902,-37.598,100.098,0.000
1606142779.067,86.914,-20.508,-33.203,315.918,0.000
1606142779.071,3.418,-23.438,-37.109,70.312,0.000
1606142779.075,-99.609,-29.785,-40.039,-299.316,0.000
1606142779.079,-96.680,-30.762,-37.598,-323.730,0.000
1606142779.082,18.066,-2.441,-29.785,65.430,0.000
1606142779.086,87.402,-5.859,-19.531,336.914,0.000
1606142779.090,20.508,-32.227,-21.973,144.043,0.000
1606142779.094,-89.844,-36.133,-33.691,-257.324,0.000
1606142779.098,-112.305,-42.969,-34.180,-350.098,0.000
1606142779.102,-7.324,-41.504,-20.508,11.719,0.000
1606142779.106,81.055,-33.203,-18.066,321.777,0.000
1606142779.110,31.738,-35.156,-28.809,177.734,0.000
1606142779.114,-86.426,-42.969,-39.062,-229.492,0.000
1606142779.118,-113.770,-27.832,-42.480,-367.188,0.000
1606142779.122,-10.742,-54.688,-38.574,-36.133,0.000
1606142779.125,86.914,-80.566,-33.203,300.781,0.000
1606142779.129,56.152,-39.062,-37.109,220.703,0.000
1606142779.133,-69.336,-37.109,-40.527,-191.895,0.000
1606142779.137,-115.723,-41.016,-35.156,-383.789,0.000
1606142779.141,-32.715,-38.574,-37.598,-100.586,0.000
1606142779.145,62.988,-35.645,-30.273,258.301,0.000
1606142779.149,50.781,-30.273,-31.250,241.211,0.000
1606142779.153,-59.082,-34.668,-41.504,-151.367,0.000
1606142779.157,-120.117,-38.086,-37.109,-379.395,0.000
1606142779.161,-48.340,-35.645,-34.668,-146.973,0.000
1606142779.164,61.523,-29.785,-31.250,244.141,0.000
1606142779.168,62.500,-28.320,-26.367,298.828,0.000
1606142779.172,-59.570,-40.527,-34.668,-90.332,0.000
1606142779.176,-141.602,-40.527,-38.086,-377.441,0.000
1606142779.180,-81.543,-59.570,-33.203,-208.496,0.000
1606142779.184,41.016,-67.383,-26.367,194.336,0.000
1606142779.188,71.289,-33.203,-19.531,312.988,0.000
1606142779.192,-29.785,-30.762,-21.973,-25.879,0.000
1606142779.196,-122.559,-34.180,-29.297,-352.539,0.000
1606142779.200,-87.891,-34.668,-29.297,-243.164,0.000
1606142779.204,34.180,-26.855,-24.414,168.457,0.000
1606142779.207,71.289,-16.602,-21.484,327.148,0.000
1606142779.211,-25.879,-24.414,-27.832,19.531,0.000
1606142779.215,-120.605,-28.320,-26.855,-332.520,0.000
1606142779.219,-106.934,-31.250,-22.949,-292.480,0.000
1606142779.223,-4.395,-39.551,-29.785,100.586,0.000
1606142779.227,55.664,-31.250,-22.949,322.754,0.000
1606142779.231,-10.742,-22.461,-14.160,75.195,0.000
1606142779.235,-119.629,-29.297,-23.926,-310.059,0.000
1606142779.239,-115.234,-24.902,-24.902,-325.684,0.000
1606142779.243,2.441,-12.695,-18.555,74.219,0.000
1606142779.247,81.055,-6.348,-19.531,334.961,0.000
1606142779.250,13.672,-14.160,-26.855,120.605,0.000
1606142779.254,-105.957,-20.996,-36.621,-276.367,0.000
1606142779.258,-111.328,-21.484,-36.621,-348.633,0.000
1606142779.262,0.000,-5.371,-32.227,11.719,0.000
1606142779.266,77.148,-7.324,-29.785,304.199,0.000
1606142779.270,34.180,-22.461,-26.855,166.992,0.000
1606142779.274,-78.125,-26.855,-27.832,-235.352,0.000
1606142779.278,-114.258,-30.273,-27.344,-370.605,0.000
1606142779.282,-18.555,-27.344,-21.484,-31.738,0.000
1606142779.286,72.266,-27.832,-17.578,303.711,0.000
1606142779.289,39.551,-26.367,-21.973,213.379,0.000
1606142779.293,-74.219,-24.902,-31.738,-185.547,0.000
1606142779.297,-122.070,-32.227,-34.668,-362.305,0.000
1606142779.301,-38.574,-31.738,-24.902,-84.473,0.000
1606142779.305,56.152,-23.926,-14.160,270.020,0.000
1606142779.309,40.039,-23.438,-19.043,250.000,0.000
1606142779.313,-73.242,-34.180,-23.438,-147.949,0.000
1606142779.317,-134.277,-42.969,-22.949,-383.301,0.000
1606142779.321,-65.430,-38.086,-21.484,-153.809,0.000
1606142779.325,43.945,-31.738,-9.766,239.746,0.000
1606142779.329,47.852,-33.203,-5.371,279.297,0.000
1606142779.332,-72.754,-37.109,-21.484,-105.957,0.000
1606142779.336,-138.672,-44.434,-24.902,-363.770,0.000
1606142779.340,-78.613,-30.273,-21.484,-183.594,0.000
1606142779.344,38.086,-11.230,-20.020,210.449,0.000
1606142779.348,65.430,-21.973,-20.020,306.152,0.000
1606142779.352,-45.898,-31.250,-27.344,-67.383,0.000
1606142779.356,-135.254,-30.762,-32.715,-366.211,0.000
1606142779.360,-96.191,-24.902,-34.180,-235.352,0.000
1606142779.364,22.461,-21.484,-32.227,150.391,0.000
1606142779.368,67.383,-27.344,-24.414,306.152,0.000
1606142779.372,-26.855,-32.227,-26.367,1.953,0.000
1606142779.375,-123.047,-32.227,-33.203,-339.844,0.000
1606142779.379,-106.445,-35.645,-27.344,-293.457,0.000
1606142779.383,3.906,-32.715,-17.578,101.562,0.000
1606142779.387,59.082,-26.855,-14.160,306.641,0.000
1606142779.391,-17.090,-30.273,-16.113,44.434,0.000
1606142779.395,-125.488,-34.180,-22.949,-326.660,0.000
1606142779.399,-127.441,-31.250,-29.785,-333.984,0.000
1606142779.403,-9.766,-18.555,-28.809,76.660,0.000
1606142779.407,56.641,-19.043,-24.414,319.824,0.000
1606142779.411,-13.672,-26.855,-27.344,95.703,0.000
1606142779.414,-122.559,-37.598,-32.715,-283.691,0.000
1606142779.418,-130.371,-40.039,-36.133,-341.797,0.000
1606142779.422,-18.555,-19.531,-37.598,22.949,0.000
1606142779.426,60.547,-7.324,-32.227,309.082,0.000
1606142779.430,9.766,-21.973,-29.297,166.992,0.000
1606142779.434,-103.516,-31.250,-37.109,-216.309,0.000
1606142779.438,-130.371,-29.297,-34.180,-341.309,0.000
1606142779.442,-27.832,-23.926,-21.973,-14.648,0.000
1606142779.446,66.895,-19.531,-21.973,311.523,0.000
1606142779.450,23.926,-24.414,-27.344,205.566,0.000
1606142779.454,-100.586,-38.086,-33.203,-208.496,0.000
1606142779.457,-132.324,-32.227,-37.109,-380.371,0.000
1606142779.461,-46.387,-43.457,-38.574,-90.820,0.000
1606142779.465,44.922,-48.828,-36.133,260.742,0.000
1606142779.469,34.180,-32.227,-30.762,229.980,0.000
1606142779.473,-79.102,-36.133,-30.273,-156.738,0.000
1606142779.477,-148.438,-37.598,-27.344,-374.023,0.000
1606142779.481,-70.312,-33.691,-22.949,-133.789,0.000
1606142779.485,51.270,-25.879,-21.484,235.840,0.000
1606142779.489,56.152,-23.926,-18.066,271.484,0.000
1606142779.493,-63.477,-31.250,-20.996,-105.957,0.000
1606142779.497,-134.766,-21.973,-24.414,-352.051,0.000
1606142779.500,-75.195,-33.203,-24.414,-166.016,0.000
1606142779.504,24.902,-59.570,-26.367,184.570,0.000
1606142779.508,47.363,-35.645,-16.113,275.879,0.000
1606142779.512,-56.641,-16.113,-19.531,-65.918,0.000
1606142779.516,-144.043,-24.414,-34.180,-366.211,0.000
1606142779.520,-97.656,-29.297,-34.668,-236.328,0.000
1606142779.524,19.531,-23.438,-28.809,153.320,0.000
1606142779.528,54.199,-19.043,-30.762,296.387,0.000
1606142779.532,-39.062,-20.996,-33.691,-13.672,0.000
1606142779.536,-126.953,-21.973,-38.574,-349.609,0.000
1606142779.539,-93.750,-8.789,-40.527,-273.926,0.000
1606142779.543,29.297,1.465,-34.668,136.719,0.000
1606142779.547,77.637,-10.742,-34.668,322.754,0.000
1606142779.551,-8.789,-17.578,-40.527,31.738,0.000
1606142779.555,-111.816,-20.020,-47.852,-332.520,0.000
1606142779.559,-97.168,-25.879,-49.316,-305.176,0.000
1606142779.563,11.230,-23.926,-39.551,97.168,0.000
1606142779.567,79.102,-13.184,-33.203,335.938,0.000
1606142779.571,13.184,-16.602,-33.203,102.539,0.000
1606142779.575,-104.004,-26.367,-38.574,-279.785,0.000
1606142779.579,-104.004,-27.832,-40.527,-314.941,0.000
1606142779.582,15.137,-21.973,-34.180,54.688,0.000
1606142779.586,80.078,-18.555,-28.320,315.918,0.000
1606142779.590,16.113,-24.414,-20.508,157.227,0.000
1606142779.594,-90.820,-35.156,-20.508,-226.562,0.000
1606142779.598,-119.629,-41.016,-32.227,-356.445,0.000
1606142779.602,-20.020,-15.625,-24.414,-34.668,0.000
1606142779.606,76.172,-12.695,-10.742,291.016,0.000
1606142779.610,33.691,-35.645,-16.113,185.059,0.000
1606142779.614,-97.168,-45.410,-20.508,-222.168,0.000
1606142779.618,-139.160,-46.387,-17.090,-379.883,0.000
1606142779.622,-32.227,-45.410,-14.648,-74.219,0.000
1606142779.625,71.777,-32.715,-7.812,279.297,0.000
1606142779.629,52.734,-23.926,-7.812,230.957,0.000
1606142779.633,-58.594,-29.297,-14.160,-167.969,0.000
1606142779.637,-118.652,-32.227,-21.484,-368.652,0.000
1606142779.641,-55.664,-35.156,-29.297,-128.906,0.000
1606142779.645,58.594,-28.320,-19.043,239.258,0.000
1606142779.649,70.801,-23.438,-12.695,269.043,0.000
1606142779.653,-43.945,-32.715,-22.461,-116.699,0.000
1606142779.657,-117.676,-43.457,-29.785,-373.535,0.000
1606142779.661,-55.176,-38.574,-33.203,-184.570,0.000
1606142779.664,64.453,-24.414,-28.809,198.730,0.000
1606142779.668,80.566,-21.484,-24.902,279.785,0.000
1606142779.672,-43.457,-33.203,-33.691,-88.867,0.000
1606142779.676,-130.859,-34.180,-38.086,-376.465,0.000
1606142779.680,-75.684,-45.410,-30.762,-224.609,0.000
1606142779.684,44.922,-53.711,-21.973,179.688,0.000
1606142779.688,73.242,-36.133,-18.066,308.105,0.000
1606142779.692,-33.691,-37.109,-19.531,-27.344,0.000
1606142779.696,-126.953,-41.504,-22.461,-344.238,0.000
1606142779.700,-96.680,-31.738,-23.438,-242.676,0.000
1606142779.704,24.902,-24.414,-19.043,151.367,0.000
1606142779.707,68.848,-25.879,-15.625,322.754,0.000
1606142779.711,-21.973,-28.809,-16.113,36.133,0.000
1606142779.715,-115.234,-30.762,-23.438,-310.059,0.000
1606142779.719,-99.609,-33.691,-28.320,-277.832,0.000
1606142779.723,18.555,-26.855,-26.367,115.723,0.000
1606142779.727,80.566,-22.949,-23.438,325.195,0.000
1606142779.731,12.695,-31.250,-25.391,91.309,0.000
1606142779.735,-91.797,-39.551,-29.297,-271.973,0.000
1606142779.739,-88.379,-33.691,-22.461,-315.430,0.000
1606142779.743,10.254,-32.715,-26.855,57.617,0.000
1606142779.747,76.172,-31.738,-26.367,325.195,0.000
1606142779.750,19.531,-30.273,-21.484,133.789,0.000
1606142779.754,-104.980,-40.039,-33.691,-260.254,0.000
1606142779.758,-139.160,-40.039,-38.574,-360.840,0.000
1606142779.762,-22.461,-28.320,-24.414,-5.371,0.000
1606142779.766,80.078,-23.926,-20.020,294.434,0.000
1606142779.770,40.527,-29.785,-26.855,168.457,0.000
1606142779.774,-90.820,-31.738,-32.715,-229.004,0.000
1606142779.778,-119.141,-29.785,-29.785,-379.395,0.000
1606142779.782,-12.695,-59.082,-23.438,-57.129,0.000
1606142779.786,87.891,-59.082,-22.461,270.020,0.000
1606142779.789,51.270,-20.508,-23.926,187.012,0.000
1606142779.793,-92.285,-28.320,-35.645,-219.727,0.000
1606142779.797,-149.414,-37.109,-45.898,-422.852,0.000
1606142779.801,-69.336,-32.715,-39.062,-154.785,0.000
1606142779.805,45.410,-28.320,-23.926,213.379,0.000
1606142779.809,56.152,-20.996,-23.926,224.121,0.000
1606142779.813,-70.312,-25.879,-35.645,-148.926,0.000
1606142779.817,-164.062,-33.691,-38.574,-396.484,0.000
1606142779.821,-74.707,-22.461,-27.344,-173.828,0.000
1606142779.825,66.895,-8.789,-11.719,223.633,0.000
1606142779.829,58.105,-20.508,-13.184,285.645,0.000
1606142779.832,-70.801,-34.180,-25.391,-85.938,0.000
1606142779.836,-143.066,-45.898,-31.738,-362.793,0.000
1606142779.840,-88.867,-32.227,-31.250,-200.195,0.000
1606142779.844,26.855,-22.461,-20.508,185.059,0.000
1606142779.848,55.176,-31.250,-21.973,295.898,0.000
1606142779.852,-34.180,-36.133,-29.297,-27.832,0.000
1606142779.856,-115.234,-43.945,-32.715,-333.008,0.000
1606142779.860,-80.078,-36.133,-34.180,-240.234,0.000
1606142779.864,32.715,-29.785,-26.855,146.973,0.000
1606142779.868,72.754,-28.320,-24.414,314.941,0.000
1606142779.872,-6.348,-26.855,-29.785,33.203,0.000
1606142779.875,-97.656,-32.227,-37.598,-303.711,0.000
1606142779.879,-75.684,-36.133,-35.645,-276.855,0.000
1606142779.883,19.531,-13.672,-31.738,95.215,0.000
1606142779.887,83.008,-8.301,-26.855,312.500,0.000
1606142779.891,16.602,-27.832,-32.715,72.266,0.000
1606142779.895,-116.699,-36.621,-39.062,-304.688,0.000
1606142779.899,-107.422,-32.715,-34.180,-316.895,0.000
1606142779.903,11.230,-24.902,-29.297,70.801,0.000
1606142779.907,82.520,-26.855,-28.320,312.988,0.000
1606142779.911,38.574,-26.367,-37.598,110.840,0.000
1606142779.914,-99.121,-37.109,-45.410,-272.461,0.000
1606142779.918,-119.141,-38.574,-36.621,-347.656,0.000
1606142779.922,-1.953,-27.832,-26.367,9.766,0.000
1606142779.926,80.078,-23.926,-24.902,305.664,0.000
1606142779.930,29.297,-29.785,-27.344,158.691,0.000
1606142779.934,-86.914,-37.598,-31.250,-225.586,0.000
1606142779.938,-115.723,-40.039,-37.109,-358.398,0.000
1606142779.942,-15.137,-35.645,-27.832,-50.293,0.000
1606142779.946,74.219,-25.391,-14.160,288.574,0.000
1606142779.950,21.484,-23.926,-23.438,208.984,0.000
1606142779.954,-97.656,-32.715,-30.762,-186.523,0.000
1606142779.957,-130.859,-41.016,-31.250,-368.652,0.000
1606142779.961,-38.086,-34.180,-28.320,-91.797,0.000
1606142779.965,61.035,-23.438,-16.113,270.996,0.000
1606142779.969,60.547,-27.832,-15.625,251.953,0.000
1606142779.973,-40.039,-33.691,-27.832,-139.160,0.000
1606142779.977,-111.328,-29.785,-27.344,-371.094,0.000
1606142779.981,-44.434,-43.945,-27.832,-145.508,0.000
1606142779.985,62.500,-64.941,-31.250,227.539,0.000
1606142779.989,68.848,-38.086,-26.855,273.926,0.000
1606142779.993,-30.273,-23.438,-30.273,-91.309,0.000
1606142779.997,-112.793,-26.367,-31.250,-358.398,0.000
1606142780.000,-64.453,-25.391,-23.926,-195.312,0.000
1606142780.004,72.754,-23.438,-20.508,188.477,0.000
1606142780.008,97.656,-19.531,-23.438,300.781,0.000
1606142780.012,-30.762,-24.414,-30.273,-37.598,0.000
1606142780.016,-120.605,-26.367,-38.086,-354.004,0.000
1606142780.020,-64.941,-35.645,-36.621,-238.281,0.000
1606142780.024,47.363,-38.086,-32.715,154.785,0.000
1606142780.028,95.703,-19.043,-26.367,323.730,0.000
1606142780.032,11.230,-22.461,-27.344,22.461,0.000
1606142780.036,-105.469,-28.320,-29.297,-330.566,0.000
1606142780.039,-87.402,-25.879,-26.855,-278.809,0.000
1606142780.043,43.457,-26.367,-18.555,120.117,0.000
1606142780.047,108.887,-22.949,-20.508,330.566,0.000
1606142780.051,23.438,-22.461,-29.785,58.594,0.000
1606142780.055,-109.863,-24.902,-40.039,-302.734,0.000
1606142780.059,-80.078,-31.738,-34.180,-281.738,0.000
1606142780.063,52.734,-47.852,-30.273,92.285,0.000
1606142780.067,101.562,-36.133,-30.762,314.941,0.000
1606142780.071,32.715,-27.832,-26.855,104.980,0.000
1606142780.075,-86.914,-30.762,-28.809,-262.695,0.000
1606142780.079,-96.191,-29.297,-27.344,-327.148,0.000
1606142780.082,1.953,-25.391,-30.762,11.719,0.000
1606142780.086,57.129,-24.902,-27.344,284.668,0.000
1606142780.090,3.418,-28.320,-28.809,141.602,0.000
1606142780.094,-110.840,-29.297,-32.715,-250.000,0.000
1606142780.098,-129.395,-37.109,-28.809,-370.605,0.000
1606142780.102,-23.438,-36.133,-20.020,-30.273,0.000
1606142780.106,73.730,-27.832,-12.207,297.852,0.000
1606142780.110,28.809,-26.855,-16.602,197.754,0.000
1606142780.114,-93.262,-35.156,-27.344,-207.031,0.000
1606142780.118,-126.953,-40.039,-29.297,-388.184,0.000
1606142780.122,-41.016,-31.738,-24.414,-98.145,0.000
1606142780.125,63.965,-28.809,-22.461,259.277,0.000
1606142780.129,43.457,-34.668,-15.137,233.887,0.000
1606142780.133,-78.125,-38.574,-20.996,-162.109,0.000
1606142780.137,-119.629,-37.598,-32.227,-386.230,0.000
1606142780.141,-49.805,-35.156,-27.344,-153.809,0.000
1606142780.145,42.480,-32.227,-20.996,220.703,0.000
1606142780.149,47.852,-28.809,-19.531,250.000,0.000
1606142780.153,-59.082,-34.668,-22.949,-123.047,0.000
1606142780.157,-132.324,-37.598,-27.344,-367.676,0.000
1606142780.161,-68.848,-39.551,-31.738,-195.312,0.000
1606142780.164,40.039,-42.480,-23.926,183.105,0.000
1606142780.168,61.523,-30.273,-13.672,285.156,0.000
1606142780.172,-36.133,-27.344,-22.461,-67.383,0.000
1606142780.176,-124.023,-32.227,-34.180,-364.258,0.000
1606142780.180,-78.613,-28.320,-28.809,-226.074,0.000
1606142780.184,45.898,-21.484,-11.230,172.852,0.000
1606142780.188,64.453,-18.555,-9.766,320.801,0.000
1606142780.192,-44.434,-29.785,-19.531,-5.859,0.000
1606142780.196,-134.766,-33.203,-23.438,-335.449,0.000
1606142780.200,-96.680,-43.457,-24.902,-254.395,0.000
1606142780.204,26.855,-57.129,-24.414,131.348,0.000
1606142780.207,62.500,-35.156,-24.414,314.453,0.000
1606142780.211,-17.578,-32.227,-29.297,42.480,0.000
1606142780.215,-106.934,-34.180,-32.227,-308.594,0.000
1606142780.219,-101.562,-29.785,-26.855,-293.457,0.000
1606142780.223,21.973,-24.902,-23.438,83.496,0.000
1606142780.227,75.195,-16.602,-20.020,308.105,0.000
1606142780.231,1.953,-18.066,-23.438,94.727,0.000
1606142780.235,-101.562,-21.973,-28.809,-270.996,0.000
1606142780.239,-98.145,-25.391,-26.367,-322.266,0.000
1606142780.243,5.371,-19.531,-29.785,36.621,0.000
1606142780.247,83.008,-8.789,-27.344,315.918,0.000
1606142780.250,23.438,-14.648,-20.508,152.832,0.000
1606142780.254,-126.465,-20.020,-32.715,-240.723,0.000
1606142780.258,-144.043,-23.926,-40.039,-354.004,0.000
1606142780.262,-15.625,-28.320,-33.203,-19.531,0.000
1606142780.266,62.500,-20.508,-25.879,283.691,0.000
1606142780.270,16.602,-22.461,-15.137,183.105,0.000
1606142780.274,-89.355,-40.039,-22.461,-184.082,0.000
1606142780.278,-113.281,-34.668,-33.691,-335.449,0.000
1606142780.282,-20.996,-14.160,-31.250,-63.965,0.000
1606142780.286,51.270,-6.348,-34.180,241.211,0.000
1606142780.289,8.301,-12.207,-39.551,188.965,0.000
1606142780.293,-121.094,-21.973,-37.598,-185.059,0.000
1606142780.297,-175.781,-33.203,-36.133,-398.438,0.000
1606142780.301,-104.492,-11.230,-36.621,-158.691,0.000
1606142780.305,3.418,1.465,-31.250,203.613,0.000
1606142780.309,4.395,-24.414,-29.297,220.215,0.000
1606142780.313,-104.492,-30.273,-30.273,-135.742,0.000
1606142780.317,-172.363,-28.809,-28.320,-380.859,0.000
1606142780.321,-102.539,-24.414,-28.809,-191.895,0.000
1606142780.325,16.602,-21.973,-20.508,186.035,0.000
1606142780.329,33.691,-26.855,-16.113,262.695,0.000
1606142780.332,-75.195,-30.762,-20.508,-84.473,0.000
1606142780.336,-162.109,-35.156,-31.250,-364.258,0.000
1606142780.340,-112.305,-22.949,-36.621,-228.027,0.000
1606142780.344,4.395,1.953,-25.879,141.602,0.000
1606142780.348,36.621,-13.184,-19.043,270.996,0.000
1606142780.352,-62.012,-32.715,-22.461,-41.016,0.000
1606142780.356,-155.273,-37.109,-25.879,-350.586,0.000
1606142780.360,-122.070,-32.227,-29.785,-264.160,0.000
1606142780.364,-10.254,-23.438,-29.297,104.004,0.000
1606142780.368,25.879,-28.809,-25.879,270.996,0.000
1606142780.372,-49.316,-39.551,-28.320,22.461,0.000
1606142780.375,-119.141,-41.504,-29.785,-320.801,0.000
1606142780.379,-104.492,-41.016,-32.227,-311.523,0.000
1606142780.383,9.277,-32.715,-24.414,85.938,0.000
1606142780.387,49.316,-30.273,-14.160,303.711,0.000
1606142780.391,-30.762,-33.203,-21.973,62.500,0.000
1606142780.395,-138.672,-40.527,-28.320,-298.340,0.000
1606142780.399,-136.230,-38.574,-24.414,-333.008,0.000
1606142780.403,-22.949,-6.836,-28.320,29.785,0.000
1606142780.407,39.551,-12.695,-28.809,289.062,0.000
1606142780.411,-12.207,-30.762,-29.297,116.699,0.000
1606142780.414,-123.047,-32.715,-35.156,-267.090,0.000
1606142780.418,-145.996,-33.691,-32.227,-352.539,0.000
1606142780.422,-19.531,-26.855,-25.391,-13.672,0.000
1606142780.426,56.641,-24.414,-18.555,272.461,0.000
1606142780.430,-0.977,-21.973,-18.066,160.156,0.000
1606142780.434,-95.215,-26.367,-28.320,-206.055,0.000
1606142780.438,-123.535,-48.340,-31.738,-356.445,0.000
1606142780.442,-35.645,14.648,-26.855,-68.359,0.000
1606142780.446,61.035,64.453,-23.438,255.859,0.000
1606142780.450,39.062,-14.160,-17.578,202.148,0.000
1606142780.454,-96.680,-41.016,-21.973,-178.711,0.000
1606142780.457,-145.508,-39.062,-29.785,-377.441,0.000
1606142780.461,-52.246,-42.969,-30.762,-125.000,0.000
1606142780.465,36.621,-34.668,-25.879,218.750,0.000
1606142780.469,11.719,-32.227,-20.508,219.238,0.000
1606142780.473,-96.191,-41.016,-23.926,-146.484,0.000
1606142780.477,-159.668,-44.434,-27.832,-371.094,0.000
1606142780.481,-106.934,-48.828,-26.367,-168.457,0.000
1606142780.485,0.977,-46.875,-22.461,175.293,0.000
1606142780.489,15.625,-35.156,-23.926,241.699,0.000
1606142780.493,-88.379,-38.574,-33.203,-96.191,0.000
1606142780.497,-175.293,-41.016,-35.156,-374.512,0.000
1606142780.500,-107.910,-31.250,-33.203,-227.051,0.000
1606142780.504,27.344,-23.926,-26.367,154.297,0.000
1606142780.508,41.016,-28.809,-28.809,265.625,0.000
1606142780.512,-72.266,-37.109,-36.621,-49.805,0.000
1606142780.516,-152.344,-41.992,-41.016,-346.191,0.000
1606142780.520,-104.980,-36.133,-40.527,-254.395,0.000
1606142780.524,4.395,-27.344,-31.250,138.672,0.000
1606142780.528,60.547,-25.391,-21.973,299.805,0.000
1606142780.532,-22.461,-31.738,-23.438,13.184,0.000
1606142780.536,-132.324,-39.062,-38.086,-319.824,0.000
1606142780.539,-111.816,-33.203,-44.434,-289.062,0.000
1606142780.543,11.230,-43.945,-40.039,89.844,0.000
1606142780.547,73.242,-42.480,-36.133,301.758,0.000
1606142780.551,1.465,-31.738,-36.133,69.336,0.000
1606142780.555,-118.164,-38.086,-36.621,-291.504,0.000
1606142780.559,-120.605,-34.180,-35.156,-309.570,0.000
1606142780.563,2.930,-25.391,-32.715,48.828,0.000
1606142780.567,65.918,-22.949,-28.320,281.250,0.000
1606142780.571,0.488,-24.414,-26.367,104.492,0.000
1606142780.575,-106.934,-30.273,-31.250,-242.676,0.000
1606142780.579,-142.578,-41.992,-33.691,-328.613,0.000
1606142780.582,-34.668,-20.508,-31.250,-7.324,0.000
1606142780.586,73.730,-12.695,-26.367,284.668,0.000
1606142780.590,11.719,-30.762,-22.949,152.344,0.000
1606142780.594,-114.258,-33.203,-33.203,-228.516,0.000
1606142780.598,-145.508,-37.109,-39.062,-354.492,0.000
1606142780.602,-50.293,-34.180,-30.273,-62.500,0.000
1606142780.606,51.270,-23.438,-29.297,246.582,0.000
1606142780.610,17.090,-32.227,-34.180,185.547,0.000
1606142780.614,-89.355,-42.969,-33.691,-190.430,0.000
1606142780.618,-125.000,-32.715,-24.902,-355.957,0.000
1606142780.622,-44.922,-29.785,-27.344,-79.590,0.000
1606142780.625,59.082,-36.133,-30.273,245.605,0.000
1606142780.629,44.922,-31.250,-30.762,227.051,0.000
1606142780.633,-54.199,-23.438,-36.133,-124.023,0.000
1606142780.637,-116.699,-18.555,-36.133,-348.633,0.000
1606142780.641,-61.035,-17.578,-31.250,-151.367,0.000
1606142780.645,52.734,-17.578,-24.902,191.406,0.000
1606142780.649,57.129,-20.996,-22.461,241.699,0.000
1606142780.653,-78.613,-29.297,-33.203,-96.680,0.000
1606142780.657,-147.461,-36.621,-36.621,-366.211,0.000
1606142780.661,-84.473,-39.551,-34.668,-201.172,0.000
1606142780.664,26.855,-34.180,-32.227,172.363,0.000
1606142780.668,63.477,-27.832,-25.879,285.645,0.000
1606142780.672,-36.133,-37.109,-26.855,-28.320,0.000
1606142780.676,-128.418,-48.828,-34.668,-339.355,0.000
1606142780.680,-94.238,-51.758,-38.574,-243.164,0.000
1606142780.684,20.020,-46.387,-32.715,129.395,0.000
1606142780.688,41.016,-31.738,-22.461,294.434,0.000
1606142780.692,-52.734,-28.809,-26.367,20.996,0.000
1606142780.696,-145.020,-37.598,-35.645,-326.172,0.000
1606142780.700,-123.047,-37.598,-34.180,-283.203,0.000
1606142780.704,11.230,-31.250,-29.785,104.980,0.000
1606142780.707,58.594,-28.320,-20.508,298.340,0.000
1606142780.711,-28.320,-27.832,-24.414,52.246,0.000
1606142780.715,-125.977,-30.762,-37.598,-286.621,0.000
1606142780.719,-130.371,-25.391,-36.133,-304.199,0.000
1606142780.723,-14.160,-32.227,-27.344,63.477,0.000
1606142780.727,69.824,-40.039,-27.344,308.594,0.000
1606142780.731,-1.953,-29.785,-30.273,109.863,0.000
1606142780.735,-113.281,-32.715,-29.785,-245.117,0.000
1606142780.739,-115.723,-35.645,-30.273,-321.777,0.000
1606142780.743,-1.953,-27.344,-25.879,8.789,0.000
1606142780.747,71.777,-21.484,-21.973,294.922,0.000
1606142780.750,21.484,-25.879,-25.879,156.250,0.000
1606142780.754,-94.238,-32.715,-32.715,-213.867,0.000
1606142780.758,-103.027,-27.344,-32.227,-337.402,0.000
1606142780.762,2.441,-24.902,-33.203,-22.949,0.000
1606142780.766,68.359,-28.320,-29.785,291.992,0.000
1606142780.770,35.645,-26.855,-20.020,193.359,0.000
1606142780.774,-81.055,-33.203,-29.297,-180.176,0.000
1606142780.778,-114.258,-37.109,-39.551,-316.406,0.000
1606142780.782,-28.320,-26.367,-30.762,-56.152,0.000
1606142780.786,43.457,-19.531,-23.438,245.605,0.000
1606142780.789,34.668,-22.949,-21.484,236.816,0.000
1606142780.793,-70.801,-30.273,-28.809,-127.930,0.000
1606142780.797,-131.348,-37.598,-32.715,-341.309,0.000
1606142780.801,-63.965,-32.715,-30.273,-128.906,0.000
1606142780.805,30.273,-23.926,-28.809,223.633,0.000
1606142780.809,41.504,-19.043,-18.555,291.016,0.000
1606142780.813,-54.688,-25.391,-27.344,-58.594,0.000
1606142780.817,-132.324,-37.109,-31.250,-318.848,0.000
1606142780.821,-85.938,-41.504,-24.414,-161.133,0.000
1606142780.825,21.973,-33.203,-28.320,201.660,0.000
1606142780.829,53.223,-22.949,-26.367,291.504,0.000
1606142780.832,-49.805,-23.926,-28.809,-19.531,0.000
1606142780.836,-140.625,-23.438,-32.715,-301.270,0.000
1606142780.840,-76.660,-21.973,-28.809,-194.824,0.000
1606142780.844,31.738,-24.902,-32.227,174.805,0.000
1606142780.848,55.664,-23.926,-33.203,305.664,0.000
1606142780.852,-16.113,-25.391,-33.691,29.785,0.000
1606142780.856,-101.074,-23.438,-40.527,-269.043,0.000
1606142780.860,-88.867,-31.738,-43.457,-236.816,0.000
1606142780.864,18.555,-48.340,-37.109,105.957,0.000
1606142780.868,77.148,-25.879,-29.297,316.895,0.000
1606142780.872,3.418,-15.137,-39.551,92.773,0.000
1606142780.875,-90.820,-26.855,-38.574,-249.512,0.000
1606142780.879,-76.172,-30.273,-26.855,-259.277,0.000
1606142780.883,31.250,-23.926,-28.809,85.449,0.000
1606142780.887,72.266,-16.602,-27.832,340.332,0.000
1606142780.891,-16.602,-27.344,-27.832,142.090,0.000
1606142780.895,-106.445,-37.109,-33.203,-236.816,0.000
1606142780.899,-113.770,-35.645,-35.645,-290.039,0.000
1606142780.903,-8.301,-32.715,-36.133,85.449,0.000
1606142780.907,69.824,-20.508,-33.203,347.168,0.000
1606142780.911,13.672,-20.996,-34.180,187.988,0.000
1606142780.914,-86.914,-29.297,-37.109,-174.805,0.000
1606142780.918,-105.957,-26.367,-37.598,-301.758,0.000
1606142780.922,-16.113,-27.832,-31.250,19.043,0.000
1606142780.926,70.312,-20.020,-25.391,326.172,0.000
1606142780.930,31.738,-15.137,-27.832,243.164,0.000
1606142780.934,-78.613,-20.020,-33.203,-133.301,0.000
1606142780.938,-110.840,-25.391,-34.668,-333.496,0.000
1606142780.942,-25.879,-21.484,-38.086,-50.781,0.000
1606142780.946,67.383,-15.625,-38.574,339.355,0.000
1606142780.950,51.758,-16.602,-35.156,316.406,0.000
1606142780.954,-62.500,-23.438,-37.109,-73.242,0.000
1606142780.957,-104.492,-21.973,-38.086,-281.738,0.000
1606142780.961,-27.832,-23.438,-37.109,-20.996,0.000
1606142780.965,53.223,-28.320,-34.668,313.965,0.000
1606142780.969,44.434,-21.484,-36.621,300.781,0.000
1606142780.973,-76.660,-26.855,-41.992,-43.457,0.000
1606142780.977,-147.949,-30.273,-47.852,-299.805,0.000
1606142780.981,-95.215,-26.367,-40.527,-105.469,0.000
1606142780.985,34.668,-17.578,-30.762,274.414,0.000
1606142780.989,72.266,-10.742,-30.762,367.676,0.000
1606142780.993,-41.016,-21.973,-37.109,26.855,0.000
1606142780.997,-123.047,-22.949,-39.551,-255.859,0.000
1606142781.000,-71.289,-29.297,-40.039,-129.883,0.000
1606142781.004,37.109,-45.410,-36.133,241.699,0.000
1606142781.008,65.918,-30.762,-28.320,383.301,0.000
1606142781.012,-30.762,-21.973,-31.738,62.500,0.000
1606142781.016,-127.930,-24.902,-36.621,-243.164,0.000
1606142781.020,-97.656,-20.996,-34.668,-152.344,0.000
1606142781.024,10.254,-17.578,-35.156,203.613,0.000
1606142781.028,71.289,-12.207,-30.762,392.090,0.000
1606142781.032,-19.043,-13.672,-29.785,146.484,0.000
1606142781.036,-121.094,-18.555,-36.133,-219.727,0.000
1606142781.039,-86.914,-21.484,-39.062,-203.613,0.000
1606142781.043,-1.465,-22.461,-39.062,196.289,0.000
1606142781.047,61.523,-15.137,-31.738,413.086,0.000
1606142781.051,17.090,-15.625,-36.621,184.570,0.000
1606142781.055,-96.191,-21.484,-43.945,-190.430,0.000
1606142781.059,-105.469,-20.508,-40.527,-260.742,0.000
1606142781.063,22.461,-19.531,-39.062,106.445,0.000
1606142781.067,93.750,-13.184,-35.156,383.789,0.000
1606142781.071,19.043,-14.648,-38.086,197.266,0.000
1606142781.075,-85.938,-22.461,-37.109,-200.195,0.000
1606142781.079,-114.258,-18.066,-38.086,-292.969,0.000
1606142781.082,-38.574,-13.672,-41.504,40.039,0.000
1606142781.086,72.266,-15.625,-26.855,342.773,0.000
1606142781.090,53.223,-12.207,-26.367,244.629,0.000
1606142781.094,-69.824,-12.695,-42.480,-143.555,0.000
1606142781.098,-127.930,-11.719,-46.875,-342.773,0.000
1606142781.102,-51.758,-30.273,-40.039,-66.895,0.000
1606142781.106,59.570,-38.574,-35.645,296.875,0.000
1606142781.110,45.410,-17.578,-30.273,258.301,0.000
1606142781.114,-83.496,-20.020,-39.062,-156.250,0.000
1606142781.118,-127.930,-22.949,-41.992,-346.191,0.000
1606142781.122,-40.527,-15.625,-29.297,-60.059,0.000
1606142781.125,51.758,-17.090,-21.973,277.344,0.000
1606142781.129,59.082,-14.648,-19.531,289.062,0.000
1606142781.133,-46.387,-20.020,-29.297,-87.402,0.000
1606142781.137,-112.305,-31.738,-38.086,-297.852,0.000
1606142781.141,-45.410,-31.738,-39.062,-98.633,0.000
1606142781.145,65.918,-29.785,-34.668,252.441,0.000
1606142781.149,75.195,-28.809,-29.297,335.938,0.000
1606142781.153,-42.480,-36.133,-34.668,-7.324,0.000
1606142781.157,-125.488,-42.969,-35.645,-292.969,0.000
1606142781.161,-53.223,-35.156,-34.668,-153.809,0.000
1606142781.164,54.688,-23.926,-29.297,260.254,0.000
1606142781.168,57.129,-20.508,-16.113,384.766,0.000
1606142781.172,-40.039,-23.438,-20.508,45.410,0.000
1606142781.176,-121.582,-27.344,-32.227,-262.695,0.000
1606142781.180,-89.355,-42.969,-27.832,-189.941,0.000
1606142781.184,35.645,-40.527,-16.602,218.750,0.000
1606142781.188,82.031,-22.461,-18.066,401.367,0.000
1606142781.192,-13.184,-35.156,-23.926,103.516,0.000
1606142781.196,-91.797,-32.227,-28.320,-220.703,0.000
1606142781.200,-69.336,-33.203,-23.438,-179.199,0.000
1606142781.204,38.086,-43.457,-14.648,206.543,0.000
1606142781.207,85.938,-30.762,-25.879,405.273,0.000
1606142781.211,-17.090,-27.344,-31.250,146.484,0.000
1606142781.215,-115.723,-29.785,-27.344,-204.102,0.000
1606142781.219,-105.957,-33.203,-29.297,-222.656,0.000
1606142781.223,12.207,-26.855,-27.344,139.648,0.000
1606142781.227,81.543,-20.508,-24.414,403.320,0.000
1606142781.231,22.461,-25.879,-23.926,233.398,0.000
1606142781.235,-98.145,-33.203,-33.203,-170.410,0.000
1606142781.239,-131.348,-36.621,-29.297,-281.738,0.000
1606142781.243,-20.996,-57.617,-17.578,68.359,0.000
1606142781.247,41.016,-38.574,-21.973,377.441,0.000
1606142781.250,2.930,-14.160,-23.438,243.652,0.000
1606142781.254,-85.449,-25.391,-32.227,-160.156,0.000
1606142781.258,-121.582,-27.344,-34.668,-312.012,0.000
1606142781.262,-23.926,-24.902,-27.344,0.977,0.000
1606142781.266,82.031,-16.602,-20.508,345.703,0.000
1606142781.270,47.363,-14.648,-15.625,269.043,0.000
1606142781.274,-89.355,-30.762,-27.832,-136.719,0.000
1606142781.278,-121.094,-25.391,-36.133,-329.590,0.000
1606142781.282,-42.480,-46.875,-30.762,-59.570,0.000
1606142781.286,47.852,-72.754,-25.879,285.156,0.000
1606142781.289,45.898,-41.016,-27.832,276.855,0.000
1606142781.293,-58.105,-34.180,-34.668,-114.258,0.000
1606142781.297,-109.375,-32.715,-40.039,-368.164,0.000
1606142781.301,-38.086,-29.785,-38.086,-137.207,0.000
1606142781.305,61.523,-24.414,-23.926,252.441,0.000
1606142781.309,47.363,-18.066,-25.879,298.340,0.000
1606142781.313,-60.059,-29.297,-35.645,-73.242,0.000
1606142781.317,-121.582,-29.297,-37.109,-351.562,0.000
1606142781.321,-66.406,-31.250,-35.156,-163.574,0.000
1606142781.325,53.711,-25.879,-22.461,222.168,0.000
1606142781.329,76.172,-11.719,-19.531,319.336,0.000
1606142781.332,-35.156,-25.391,-29.785,-22.461,0.000
1606142781.336,-105.469,-29.297,-29.785,-346.191,0.000
1606142781.340,-66.406,-46.875,-25.391,-234.375,0.000
1606142781.344,35.156,-55.664,-21.973,175.781,0.000
1606142781.348,75.684,-16.113,-21.484,341.797,0.000
1606142781.352,-13.184,-20.020,-29.785,27.344,0.000
1606142781.356,-83.008,-26.855,-33.203,-307.129,0.000
1606142781.360,-51.758,-22.949,-35.645,-234.375,0.000
1606142781.364,39.551,-19.043,-31.250,142.578,0.000
1606142781.368,74.219,-12.207,-28.809,311.523,0.000
1606142781.372,-5.859,-21.484,-28.809,65.430,0.000
1606142781.375,-113.281,-35.645,-33.203,-299.316,0.000
1606142781.379,-112.305,-30.762,-33.691,-324.219,0.000
1606142781.383,3.418,-49.805,-28.320,54.199,0.000
1606142781.387,78.613,-52.246,-25.391,314.941,0.000
1606142781.391,11.719,-24.902,-29.785,107.910,0.000
1606142781.395,-97.168,-27.344,-34.180,-285.645,0.000
1606142781.399,-110.840,-36.133,-34.180,-364.258,0.000
1606142781.403,1.953,-30.762,-26.855,19.531,0.000
1606142781.407,79.590,-17.578,-22.949,312.012,0.000
1606142781.411,30.273,-22.461,-28.809,143.066,0.000
1606142781.414,-85.938,-27.832,-29.785,-250.000,0.000
1606142781.418,-110.352,-25.879,-29.785,-359.863,0.000
1606142781.422,-7.812,-41.992,-25.879,-25.391,0.000
1606142781.426,68.848,-34.668,-20.020,284.668,0.000
1606142781.430,28.809,-20.508,-21.484,201.660,0.000
1606142781.434,-88.379,-27.344,-22.949,-187.988,0.000
1606142781.438,-138.184,-31.250,-27.832,-365.234,0.000
1606142781.442,-39.062,-27.344,-28.809,-69.824,0.000
1606142781.446,59.082,-19.043,-17.578,297.363,0.000
1606142781.450,38.086,-21.484,-20.020,262.207,0.000
1606142781.454,-70.312,-26.367,-29.297,-156.738,0.000
1606142781.457,-136.719,-30.762,-34.180,-386.230,0.000
1606142781.461,-54.688,-37.109,-30.273,-145.020,0.000
1606142781.465,51.270,-27.344,-21.973,222.168,0.000
1606142781.469,41.504,-20.020,-23.926,251.465,0.000
1606142781.473,-73.242,-28.809,-32.715,-113.770,0.000
1606142781.477,-146.484,-22.949,-37.109,-380.859,0.000
1606142781.481,-74.707,-58.594,-38.086,-206.543,0.000
1606142781.485,29.297,-82.520,-32.715,198.730,0.000
1606142781.489,57.617,-33.203,-27.344,308.594,0.000
1606142781.493,-35.156,-22.949,-26.855,-50.781,0.000
1606142781.497,-118.164,-34.668,-29.297,-356.445,0.000
1606142781.500,-78.613,-34.668,-35.156,-215.820,0.000
1606142781.504,33.203,-26.367,-31.738,181.152,0.000
1606142781.508,69.336,-24.902,-26.367,315.430,0.000
1606142781.512,-33.203,-25.879,-27.344,-2.441,0.000
1606142781.516,-137.695,-24.414,-30.762,-331.543,0.000
1606142781.520,-96.191,-32.715,-29.297,-260.254,0.000
1606142781.524,31.250,-29.785,-20.020,140.137,0.000
1606142781.528,69.824,-22.461,-16.113,320.312,0.000
1606142781.532,-10.254,-28.320,-22.949,38.574,0.000
1606142781.536,-109.375,-31.738,-27.832,-313.477,0.000
1606142781.539,-109.375,-31.738,-26.855,-304.199,0.000
1606142781.543,-0.977,-27.832,-24.414,81.543,0.000
1606142781.547,59.570,-20.020,-16.602,322.754,0.000
1606142781.551,-29.785,-22.461,-19.531,93.750,0.000
1606142781.555,-138.184,-32.227,-25.391,-281.250,0.000
1606142781.559,-132.812,-31.250,-27.344,-320.801,0.000
1606142781.563,-26.367,-50.781,-25.879,30.762,0.000
1606142781.567,58.594,-45.898,-17.578,314.941,0.000
1606142781.571,22.949,-20.996,-15.625,152.344,0.000
1606142781.575,-90.332,-24.414,-24.414,-251.465,0.000
1606142781.579,-112.793,-19.043,-28.320,-346.680,0.000
1606142781.582,-9.766,-18.555,-26.367,-1.953,0.000
1606142781.586,77.148,-16.602,-15.137,292.480,0.000
1606142781.590,35.156,-13.184,-15.137,186.523,0.000
1606142781.594,-79.590,-20.508,-30.762,-208.008,0.000
1606142781.598,-113.770,-28.809,-31.738,-365.723,0.000
1606142781.602,-24.414,-25.879,-25.391,-71.289,0.000
1606142781.606,72.266,-20.020,-20.996,272.949,0.000
1606142781.610,49.805,-22.461,-19.531,225.586,0.000
1606142781.614,-74.707,-33.203,-26.367,-175.293,0.000
1606142781.618,-133.789,-30.273,-27.344,-388.184,0.000
1606142781.622,-51.758,-26.855,-19.043,-128.418,0.000
1606142781.625,49.805,-28.320,-15.625,236.328,0.000
1606142781.629,54.688,-20.020,-15.137,246.582,0.000
1606142781.633,-51.270,-21.973,-22.949,-131.836,0.000
1606142781.637,-130.371,-27.344,-24.902,-384.766,0.000
1606142781.641,-88.379,-28.320,-16.113,-197.754,0.000
1606142781.645,11.230,-31.250,-10.742,167.480,0.000
1606142781.649,31.250,-31.250,-12.695,254.395,0.000
1606142781.653,-62.988,-26.855,-20.508,-89.355,0.000
1606142781.657,-137.207,-33.691,-26.367,-381.348,0.000
1606142781.661,-88.867,-29.785,-24.902,-246.094,0.000
1606142781.664,31.250,-3.906,-20.508,141.113,0.000
1606142781.668,60.059,-10.742,-16.113,280.273,0.000
1606142781.672,-39.062,-28.320,-12.207,-49.805,0.000
1606142781.676,-132.812,-32.715,-11.719,-363.281,0.000
1606142781.680,-104.004,-38.086,-12.695,-265.625,0.000
1606142781.684,18.555,-32.227,-10.742,129.883,0.000
1606142781.688,71.289,-25.879,-6.836,297.852,0.000
1606142781.692,-20.508,-30.273,-13.184,3.418,0.000
1606142781.696,-125.977,-38.574,-16.602,-342.285,0.000
1606142781.700,-100.586,-20.508,-19.043,-297.363,0.000
1606142781.704,24.902,0.488,-16.602,87.891,0.000
1606142781.707,86.914,-13.184,-9.766,298.828,0.000
1606142781.711,11.719,-28.809,-19.531,62.988,0.000
1606142781.715,-88.379,-40.527,-24.902,-287.598,0.000
1606142781.719,-86.914,-43.457,-26.367,-324.219,0.000
1606142781.723,24.414,-37.598,-19.531,48.340,0.000
1606142781.727,98.145,-29.785,-13.672,320.312,0.000
1606142781.731,28.809,-40.527,-14.648,130.859,0.000
1606142781.735,-91.309,-49.316,-20.996,-252.930,0.000
1606142781.739,-99.609,-43.457,-18.066,-333.984,0.000
1606142781.743,19.531,-34.668,-12.695,33.203,0.000
1606142781.747,105.957,-24.414,-15.625,340.820,0.000
1606142781.750,58.105,-28.320,-20.508,197.754,0.000
1606142781.754,-55.176,-38.086,-28.809,-213.867,0.000
1606142781.758,-105.469,-48.340,-32.715,-357.422,0.000
1606142781.762,-21.484,-5.859,-29.297,-20.508,0.000
1606142781.766,80.566,19.043,-27.344,312.012,0.000
1606142781.770,61.523,-22.461,-30.762,243.164,0.000
1606142781.774,-63.477,-39.551,-38.086,-154.785,0.000
1606142781.778,-128.906,-43.457,-38.086,-353.516,0.000
1606142781.782,-43.457,-32.227,-33.203,-76.172,0.000
1606142781.786,58.105,-30.273,-32.715,273.438,0.000
1606142781.789,38.086,-37.109,-39.551,255.371,0.000
1606142781.793,-76.660,-38.086,-41.504,-122.559,0.000
1606142781.797,-141.113,-41.016,-44.922,-354.980,0.000
1606142781.801,-78.125,-34.668,-43.945,-145.996,0.000
1606142781.805,24.414,-29.785,-35.156,223.145,0.000
1606142781.809,30.762,-35.645,-27.344,285.645,0.000
1606142781.813,-74.219,-41.504,-29.785,-81.055,0.000
1606142781.817,-145.508,-43.945,-36.621,-369.141,0.000
1606142781.821,-98.633,-39.551,-35.156,-207.031,0.000
1606142781.825,17.090,-34.668,-29.297,186.035,0.000
1606142781.829,45.410,-31.250,-26.367,290.527,0.000
1606142781.832,-60.059,-34.668,-31.738,-58.105,0.000
1606142781.836,-135.254,-41.016,-32.715,-354.980,0.000
1606142781.840,-97.168,-22.949,-33.691,-227.539,0.000
1606142781.844,7.324,13.184,-33.691,166.992,0.000
1606142781.848,50.293,-3.906,-27.344,318.848,0.000
1606142781.852,-43.945,-37.109,-27.832,-0.488,0.000
1606142781.856,-149.414,-47.363,-37.109,-347.656,0.000
1606142781.860,-122.559,-41.992,-41.992,-294.434,0.000
1606142781.864,6.836,-24.902,-36.133,112.793,0.000
1606142781.868,53.711,-27.832,-32.227,324.707,0.000
1606142781.872,-26.367,-32.227,-34.180,70.312,0.000
1606142781.875,-124.512,-39.551,-38.574,-291.504,0.000
1606142781.879,-114.746,-34.180,-35.156,-294.434,0.000
1606142781.883,1.465,-19.531,-27.344,99.121,0.000
1606142781.887,68.848,-27.344,-29.297,339.355,0.000
1606142781.891,2.441,-33.203,-31.738,111.816,0.000
1606142781.895,-110.840,-37.598,-34.668,-283.691,0.000
1606142781.899,-122.070,-36.133,-36.621,-350.586,0.000
1606142781.903,-12.207,-17.090,-32.227,18.555,0.000
1606142781.907,75.684,-18.066,-28.320,316.406,0.000
1606142781.911,21.484,-30.273,-28.809,163.086,0.000
1606142781.914,-108.887,-35.156,-34.180,-238.281,0.000
1606142781.918,-144.531,-35.156,-34.668,-355.957,0.000
1606142781.922,-43.945,-27.344,-28.809,-34.668,0.000
1606142781.926,46.387,-28.320,-25.391,283.691,0.000
1606142781.930,9.277,-30.273,-25.879,201.660,0.000
1606142781.934,-108.887,-31.738,-31.738,-189.453,0.000
1606142781.938,-159.668,-43.945,-34.180,-375.977,0.000
1606142781.942,-70.312,-15.625,-28.320,-95.215,0.000
1606142781.946,22.461,1.953,-24.414,264.160,0.000
1606142781.950,-1.953,-29.297,-22.949,239.746,0.000
1606142781.954,-114.258,-40.039,-31.738,-149.902,0.000
1606142781.957,-177.246,-38.574,-37.598,-377.441,0.000
1606142781.961,-112.305,-35.156,-31.250,-140.137,0.000
1606142781.965,-3.906,-31.738,-27.344,234.863,0.000
1606142781.969,9.766,-27.832,-28.320,267.578,0.000
1606142781.973,-95.703,-31.738,-32.715,-109.375,0.000
1606142781.977,-166.992,-39.551,-37.109,-376.465,0.000
1606142781.981,-114.746,-21.484,-34.668,-190.430,0.000
1606142781.985,6.348,-4.395,-28.809,199.219,0.000
1606142781.989,39.551,-20.996,-27.832,291.016,0.000
1606142781.993,-68.359,-28.809,-30.273,-63.965,0.000
1606142781.997,-151.855,-31.250,-35.156,-370.605,0.000
1606142782.000,-107.422,-27.832,-41.504,-245.605,0.000
1606142782.004,10.254,-23.926,-39.551,150.879,0.000
1606142782.008,44.922,-24.902,-30.762,295.410,0.000
1606142782.012,-39.062,-27.344,-34.180,-19.043,0.000
1606142782.016,-124.512,-33.203,-44.922,-356.934,0.000
1606142782.020,-109.863,-29.297,-44.922,-301.270,0.000
1606142782.024,4.395,-27.344,-33.691,104.004,0.000
1606142782.028,68.848,-32.715,-23.926,331.055,0.000
1606142782.032,7.812,-28.809,-28.320,62.500,0.000
1606142782.036,-108.887,-27.344,-35.645,-323.730,0.000
1606142782.039,-126.953,-22.461,-36.621,-325.684,0.000
1606142782.043,-9.277,12.695,-35.645,76.660,0.000
1606142782.047,42.480,7.324,-33.691,314.941,0.000
1606142782.051,-30.273,-30.273,-34.180,90.332,0.000
1606142782.055,-135.742,-41.504,-36.621,-286.133,0.000
1606142782.059,-147.461,-44.922,-38.574,-333.984,0.000
1606142782.063,-33.203,-33.203,-39.062,39.062,0.000
1606142782.067,49.805,-23.926,-31.250,324.707,0.000
1606142782.071,15.137,-26.855,-23.926,159.180,0.000
1606142782.075,-94.727,-32.227,-31.738,-238.281,0.000
1606142782.079,-121.094,-32.227,-40.039,-340.332,0.000
1606142782.082,-18.066,-44.434,-34.668,-12.695,0.000
1606142782.086,72.266,-36.621,-31.250,307.129,0.000
1606142782.090,46.387,-20.996,-31.250,208.008,0.000
1606142782.094,-71.777,-27.832,-34.180,-204.102,0.000
1606142782.098,-122.070,-31.738,-39.062,-368.164,0.000
1606142782.102,-24.902,-21.484,-34.180,-60.547,0.000
1606142782.106,83.984,-9.766,-28.809,289.551,0.000
1606142782.110,62.500,-11.230,-26.855,242.676,0.000
1606142782.114,-56.152,-20.996,-31.738,-162.598,0.000
1606142782.118,-104.980,-26.855,-38.086,-367.676,0.000
1606142782.122,-20.020,-11.230,-32.715,-97.168,0.000
1606142782.125,87.891,-5.371,-25.391,274.902,0.000
1606142782.129,78.125,-17.578,-26.855,270.996,0.000
1606142782.133,-47.852,-22.949,-34.180,-120.605,0.000
1606142782.137,-109.375,-21.973,-34.180,-361.816,0.000
1606142782.141,-49.316,-27.832,-30.762,-167.480,0.000
1606142782.145,43.457,-29.297,-27.344,201.172,0.000
1606142782.149,64.941,-17.578,-22.461,290.039,0.000
1606142782.153,-40.039,-17.090,-29.785,-67.871,0.000
1606142782.157,-123.535,-25.879,-29.785,-365.234,0.000
1606142782.161,-67.871,-22.949,-25.879,-215.332,0.000
1606142782.164,32.227,-17.090,-29.297,191.895,0.000
1606142782.168,51.758,-21.973,-31.738,329.590,0.000
1606142782.172,-44.922,-26.367,-36.133,-16.113,0.000
1606142782.176,-135.742,-40.527,-36.621,-344.238,0.000
1606142782.180,-111.816,-20.508,-36.133,-260.254,0.000
1606142782.184,2.930,11.230,-31.250,139.648,0.000
1606142782.188,59.570,-21.484,-23.438,335.938,0.000
1606142782.192,-22.461,-33.203,-22.461,61.523,0.000
1606142782.196,-129.883,-35.156,-28.809,-306.641,0.000
1606142782.200,-117.676,-36.621,-26.855,-291.992,0.000
1606142782.204,8.301,-29.297,-19.043,116.211,0.000
1606142782.207,67.871,-25.879,-18.066,315.430,0.000
1606142782.211,-0.977,-24.414,-20.508,77.637,0.000
1606142782.215,-100.586,-31.250,-24.902,-251.953,0.000
1606142782.219,-109.375,-37.109,-34.180,-300.781,0.000
1606142782.223,6.836,41.992,-29.785,72.754,0.000
1606142782.227,83.008,51.270,-21.973,349.121,0.000
1606142782.231,25.879,-22.949,-28.320,165.527,0.000
1606142782.235,-88.379,-36.133,-37.598,-231.934,0.000
1606142782.239,-118.164,-41.992,-41.992,-341.797,0.000
1606142782.243,-19.531,-35.645,-34.668,11.719,0.000
1606142782.247,70.312,-30.273,-20.996,347.656,0.000
1606142782.250,32.715,-27.832,-22.949,231.445,0.000
1606142782.254,-81.055,-37.598,-31.250,-176.270,0.000
1606142782.258,-117.188,-48.340,-31.250,-325.195,0.000
1606142782.262,-22.949,6.836,-26.855,-3.418,0.000
1606142782.266,66.895,10.742,-24.414,326.172,0.000
1606142782.270,39.062,-43.457,-23.926,250.488,0.000
1606142782.274,-73.242,-48.828,-29.785,-150.879,0.000
1606142782.278,-131.348,-52.246,-32.715,-348.633,0.000
1606142782.282,-50.781,-46.875,-22.949,-81.055,0.000
1606142782.286,55.664,-39.062,-14.648,289.551,0.000
1606142782.289,38.574,-41.992,-16.602,278.320,0.000
1606142782.293,-76.660,-44.434,-21.484,-121.582,0.000
1606142782.297,-137.695,-42.969,-27.344,-367.676,0.000
1606142782.301,-75.195,-38.574,-20.996,-149.902,0.000
1606142782.305,33.691,-31.738,-12.695,243.652,0.000
1606142782.309,44.434,-33.691,-16.602,307.617,0.000
1606142782.313,-63.477,-39.062,-24.414,-75.195,0.000
1606142782.317,-149.414,-56.641,-29.785,-380.371,0.000
1606142782.321,-109.863,-20.020,-30.762,-228.027,0.000
1606142782.325,6.348,13.672,-30.762,186.035,0.000
1606142782.329,45.898,-35.645,-24.414,308.105,0.000
1606142782.332,-40.039,-42.969,-21.484,-41.016,0.000
1606142782.336,-141.113,-49.805,-27.344,-369.141,0.000
1606142782.340,-125.977,-30.273,-34.668,-270.996,0.000
1606142782.344,-14.648,-7.812,-30.273,135.254,0.000
1606142782.348,37.598,-35.645,-20.996,313.965,0.000
1606142782.352,-36.133,-39.551,-25.879,21.973,0.000
1606142782.356,-126.465,-41.016,-31.738,-324.707,0.000
1606142782.360,-109.863,-25.879,-30.762,-287.598,0.000
1606142782.364,-4.395,4.883,-30.273,101.562,0.000
1606142782.368,51.758,-11.230,-30.762,311.035,0.000
1606142782.372,-13.672,-23.926,-34.180,71.777,0.000
1606142782.375,-112.305,-29.297,-43.945,-292.969,0.000
1606142782.379,-105.957,-32.227,-47.852,-330.566,0.000
1606142782.383,2.441,-29.785,-37.109,51.270,0.000
1606142782.387,75.684,-30.273,-25.391,325.195,0.000
1606142782.391,23.438,-25.879,-27.832,124.512,0.000
1606142782.395,-90.332,-31.738,-34.180,-272.461,0.000
1606142782.399,-109.375,-37.598,-35.645,-347.168,0.000
1606142782.403,-8.301,35.645,-35.645,19.531,0.000
1606142782.407,64.941,38.086,-28.809,304.688,0.000
1606142782.411,10.254,-29.297,-29.297,155.273,0.000
1606142782.414,-108.887,-34.180,-35.156,-237.793,0.000
1606142782.418,-136.230,-36.621,-32.227,-375.000,0.000
1606142782.422,-41.992,-27.344,-30.762,-57.617,0.000
1606142782.426,43.457,-30.273,-25.879,275.879,0.000
1606142782.430,17.090,-39.551,-24.414,195.801,0.000
1606142782.434,-86.914,-40.039,-26.367,-203.613,0.000
1606142782.438,-135.254,-41.992,-26.855,-390.137,0.000
1606142782.442,-62.012,-38.574,-23.438,-121.094,0.000
1606142782.446,41.992,-31.738,-20.020,240.234,0.000
1606142782.450,46.875,-31.738,-22.949,231.445,0.000
1606142782.454,-66.406,-39.551,-28.320,-171.875,0.000
1606142782.457,-140.625,-54.199,-29.297,-412.109,0.000
1606142782.461,-86.426,-15.137,-25.879,-185.059,0.000
1606142782.465,20.508,7.324,-12.207,193.359,0.000
1606142782.469,41.504,-38.086,-7.324,261.719,0.000
1606142782.473,-59.570,-48.828,-16.602,-88.379,0.000
1606142782.477,-140.625,-47.363,-20.996,-381.836,0.000
1606142782.481,-91.797,-41.016,-15.625,-211.914,0.000
1606142782.485,20.508,-35.645,-9.277,196.777,0.000
1606142782.489,51.270,-33.691,-8.789,312.012,0.000
1606142782.493,-48.340,-36.133,-13.184,-33.203,0.000
1606142782.497,-136.719,-37.109,-17.090,-343.750,0.000
1606142782.500,-105.469,-37.598,-23.438,-225.586,0.000
1606142782.504,3.418,-34.180,-25.391,149.902,0.000
1606142782.508,53.711,-29.785,-17.090,310.059,0.000
1606142782.512,-41.992,-36.621,-16.602,16.602,0.000
1606142782.516,-152.344,-42.969,-26.367,-354.004,0.000
1606142782.520,-123.047,-40.527,-33.203,-302.246,0.000
1606142782.524,5.371,-41.504,-30.762,103.516,0.000
1606142782.528,78.613,-39.062,-26.367,309.082,0.000
1606142782.532,1.953,-34.668,-28.320,61.035,0.000
1606142782.536,-138.672,-42.480,-31.250,-300.781,0.000
1606142782.539,-152.832,-46.875,-33.203,-308.594,0.000
1606142782.543,-42.969,-48.340,-32.715,73.242,0.000
1606142782.547,12.695,-41.016,-28.809,318.359,0.000
1606142782.551,-51.270,-39.062,-27.832,116.211,0.000
1606142782.555,-156.738,-47.852,-37.598,-280.762,0.000
1606142782.559,-164.062,-47.363,-36.621,-375.488,0.000
1606142782.563,-40.039,-34.668,-26.367,15.137,0.000
1606142782.567,37.109,-27.344,-21.484,310.059,0.000
1606142782.571,-9.277,-32.715,-23.926,127.441,0.000
1606142782.575,-98.633,-34.668,-29.785,-251.465,0.000
1606142782.579,-125.977,-33.691,-31.250,-361.328,0.000
1606142782.582,-34.668,-28.809,-28.809,-31.738,0.000
1606142782.586,64.453,-27.344,-22.949,289.551,0.000
1606142782.590,41.992,-31.738,-20.996,208.008,0.000
1606142782.594,-62.012,-31.738,-26.367,-191.895,0.000
1606142782.598,-119.629,-27.832,-30.273,-374.512,0.000
1606142782.602,-51.758,-45.410,-24.902,-92.285,0.000
1606142782.606,67.383,-47.852,-21.484,260.254,0.000
1606142782.610,69.336,-24.414,-17.578,234.863,0.000
1606142782.614,-49.316,-21.973,-21.973,-159.180,0.000
1606142782.618,-128.906,-29.785,-27.344,-378.418,0.000
1606142782.622,-58.594,-33.691,-22.461,-141.602,0.000
1606142782.625,52.734,-24.902,-17.578,232.910,0.000
1606142782.629,20.020,-23.926,-19.043,262.695,0.000
1606142782.633,-92.773,-29.785,-21.484,-91.309,0.000
1606142782.637,-144.531,-33.691,-14.648,-351.074,0.000
1606142782.641,-85.938,-41.504,-15.625,-189.941,0.000
1606142782.645,49.316,-28.320,-25.391,205.566,0.000
1606142782.649,74.219,-14.648,-24.902,288.086,0.000
1606142782.653,-13.672,-11.230,-28.809,-56.641,0.000
1606142782.657,-79.590,-11.719,-37.109,-354.980,0.000
1606142782.661,-57.129,-15.137,-41.504,-251.465,0.000
1606142782.664,54.199,-10.254,-43.457,145.508,0.000
1606142782.668,67.871,-3.418,-44.922,297.363,0.000
1606142782.672,-57.129,-5.859,-52.246,-22.461,0.000
1606142782.676,-144.043,-14.648,-58.594,-362.793,0.000
1606142782.680,-113.281,-8.301,-58.594,-302.246,0.000
1606142782.684,9.277,14.648,-54.688,106.934,0.000
1606142782.688,70.801,11.230,-48.828,309.570,0.000
1606142782.692,-10.742,-1.953,-51.270,27.832,0.000
1606142782.696,-113.281,-9.277,-67.383,-342.773,0.000
1606142782.700,-91.797,1.465,-73.242,-320.801,0.000
1606142782.704,40.039,28.809,-66.895,85.938,0.000
1606142782.707,119.141,5.859,-54.199,345.215,0.000
1606142782.711,43.945,-18.066,-53.711,129.883,0.000
1606142782.715,-67.871,-22.949,-56.152,-254.883,0.000
1606142782.719,-67.871,-26.855,-49.316,-304.199,0.000
1606142782.723,31.738,-20.020,-48.340,54.199,0.000
1606142782.727,105.957,-12.695,-45.898,322.266,0.000
1606142782.731,56.641,-13.672,-46.387,160.645,0.000
1606142782.735,-50.293,-17.090,-52.734,-230.469,0.000
1606142782.739,-86.914,-23.438,-51.758,-347.656,0.000
1606142782.743,9.277,-10.742,-45.898,-12.207,0.000
1606142782.747,99.609,-0.977,-41.016,303.223,0.000
1606142782.750,63.477,-16.113,-41.992,205.078,0.000
1606142782.754,-40.527,-26.855,-39.062,-172.363,0.000
1606142782.758,-84.961,-28.809,-32.227,-323.730,0.000
1606142782.762,-3.906,-22.949,-30.762,-26.855,0.000
1606142782.766,86.914,-17.090,-32.715,306.152,0.000
1606142782.770,78.125,-20.996,-39.062,266.602,0.000
1606142782.774,-30.762,-25.879,-41.016,-111.328,0.000
1606142782.778,-83.496,-27.344,-38.574,-316.895,0.000
1606142782.782,-19.043,-9.277,-40.039,-89.844,0.000
1606142782.786,58.594,26.367,-36.133,255.859,0.000
1606142782.789,52.246,-1.953,-29.785,264.160,0.000
1606142782.793,-34.180,-35.645,-37.109,-109.375,0.000
1606142782.797,-90.820,-37.109,-41.016,-348.633,0.000
1606142782.801,-39.551,-32.715,-32.715,-160.156,0.000
1606142782.805,61.523,-24.414,-24.414,214.844,0.000
1606142782.809,68.848,-27.344,-20.508,301.270,0.000
1606142782.813,-29.785,-30.762,-26.855,-63.477,0.000
1606142782.817,-108.398,-30.762,-35.156,-361.328,0.000
1606142782.821,-61.035,-21.484,-28.809,-202.637,0.000
1606142782.825,66.406,-15.625,-20.020,204.590,0.000
1606142782.829,95.703,-25.391,-19.043,316.406,0.000
1606142782.832,-25.391,-33.691,-23.926,-29.297,0.000
1606142782.836,-131.348,-43.457,-25.879,-360.840,0.000
1606142782.840,-93.262,-18.066,-25.391,-277.344,0.000
1606142782.844,22.949,2.441,-23.926,117.188,0.000
1606142782.848,67.871,-28.320,-22.949,291.992,0.000
1606142782.852,-10.742,-32.715,-26.855,-2.930,0.000
1606142782.856,-103.027,-32.715,-32.227,-349.609,0.000
1606142782.860,-100.586,-36.621,-30.273,-326.172,0.000
1606142782.864,3.906,-31.738,-24.414,57.129,0.000
1606142782.868,66.895,-32.227,-19.531,292.480,0.000
1606142782.872,-3.418,-36.621,-16.602,80.566,0.000
1606142782.875,-117.188,-42.969,-17.578,-299.805,0.000
1606142782.879,-117.676,-43.945,-15.137,-355.469,0.000
1606142782.883,-11.719,-4.883,-24.414,4.883,0.000
1606142782.887,55.664,-0.488,-28.320,281.738,0.000
1606142782.891,13.184,-38.574,-19.043,136.230,0.000
1606142782.895,-91.309,-45.898,-21.973,-245.605,0.000
1606142782.899,-110.840,-40.527,-29.297,-359.863,0.000
1606142782.903,-13.672,-34.668,-25.879,-16.602,0.000
1606142782.907,73.730,-39.551,-21.484,290.527,0.000
1606142782.911,40.039,-37.598,-18.555,173.828,0.000
1606142782.914,-77.637,-37.109,-27.344,-223.633,0.000
1606142782.918,-114.746,-45.410,-38.086,-380.859,0.000
1606142782.922,-36.621,-12.207,-38.086,-87.891,0.000
1606142782.926,58.594,0.977,-31.250,249.512,0.000
1606142782.930,50.293,-26.367,-24.902,203.613,0.000
1606142782.934,-62.500,-32.715,-31.738,-203.613,0.000
1606142782.938,-111.816,-33.203,-37.598,-415.527,0.000
1606142782.942,-31.738,-29.297,-34.180,-142.090,0.000
1606142782.946,56.152,-31.738,-23.926,222.656,0.000
1606142782.950,48.340,-34.180,-24.902,221.191,0.000
1606142782.954,-49.316,-29.785,-31.250,-158.691,0.000
1606142782.957,-126.953,-36.621,-25.391,-412.598,0.000
1606142782.961,-66.895,-29.785,-22.949,-213.867,0.000
1606142782.965,48.340,-23.926,-25.391,178.711,0.000
1606142782.969,26.367,-35.156,-26.855,242.676,0.000
1606142782.973,-118.164,-39.062,-31.738,-130.371,0.000
1606142782.977,-201.172,-50.781,-34.668,-424.316,0.000
1606142782.981,-138.184,-6.836,-30.273,-268.066,0.000
1606142782.985,-3.906,35.156,-24.902,136.230,0.000
1606142782.989,35.645,-17.578,-18.555,260.254,0.000
1606142782.993,-63.965,-41.016,-17.090,-71.777,0.000
1606142782.997,-146.973,-39.062,-24.902,-395.020,0.000
1606142783.000,-97.168,-37.109,-31.250,-289.551,0.000
1606142783.004,17.578,-31.738,-28.320,109.375,0.000
1606142783.008,62.012,-28.809,-20.508,287.598,0.000
1606142783.012,-19.043,-32.715,-20.020,5.859,0.000
1606142783.016,-119.629,-48.340,-28.320,-349.609,0.000
1606142783.020,-116.211,-34.180,-32.227,-316.406,0.000
1606142783.024,-6.348,-4.395,-28.320,65.918,0.000
1606142783.028,56.152,-25.879,-21.484,282.715,0.000
1606142783.032,-11.230,-42.969,-24.414,48.340,0.000
1606142783.036,-117.188,-44.922,-28.809,-316.406,0.000
1606142783.039,-115.234,-45.410,-23.926,-346.191,0.000
1606142783.043,-1.953,-38.086,-13.184,24.414,0.000
1606142783.047,74.707,-40.039,-11.230,295.410,0.000
1606142783.051,15.625,-42.969,-19.043,106.934,0.000
1606142783.055,-106.934,-40.039,-28.320,-295.410,0.000
1606142783.059,-120.117,-32.227,-36.133,-371.582,0.000
1606142783.063,-23.926,0.000,-34.668,-29.297,0.000
1606142783.067,50.781,1.465,-24.902,269.043,0.000
1606142783.071,11.230,-29.297,-24.414,146.484,0.000
1606142783.075,-105.957,-35.156,-25.879,-243.652,0.000
1606142783.079,-136.230,-36.133,-21.973,-376.465,0.000
1606142783.082,-41.016,-33.203,-25.391,-65.918,0.000
1606142783.086,49.805,-31.738,-21.973,266.602,0.000
1606142783.090,21.484,-28.320,-21.973,199.707,0.000
1606142783.094,-81.543,-28.809,-27.344,-188.965,0.000
1606142783.098,-127.441,-32.715,-32.227,-384.277,0.000
1606142783.102,-53.711,-27.344,-32.715,-120.605,0.000
1606142783.106,59.082,-22.949,-22.949,251.953,0.000
1606142783.110,57.617,-26.367,-25.391,240.723,0.000
1606142783.114,-55.176,-35.645,-26.367,-158.691,0.000
1606142783.118,-111.328,-41.504,-30.273,-389.160,0.000
1606142783.122,-44.434,-19.043,-30.762,-169.922,0.000
1606142783.125,53.711,-16.113,-20.996,199.219,0.000
1606142783.129,55.176,-32.227,-22.949,237.793,0.000
1606142783.133,-46.387,-34.668,-30.273,-119.141,0.000
1606142783.137,-115.234,-38.574,-35.156,-378.906,0.000
1606142783.141,-81.055,-35.156,-31.738,-227.051,0.000
1606142783.145,20.020,-31.738,-21.973,159.668,0.000
1606142783.149,57.617,-28.809,-20.020,276.855,0.000
1606142783.153,-34.180,-27.832,-27.344,-45.898,0.000
1606142783.157,-118.164,-39.062,-30.762,-365.234,0.000
1606142783.161,-86.914,-17.090,-30.762,-276.367,0.000
1606142783.164,17.578,28.320,-26.367,117.188,0.000
1606142783.168,62.012,-0.488,-21.973,292.480,0.000
1606142783.172,-19.043,-32.227,-28.320,1.465,0.000
1606142783.176,-117.676,-37.109,-34.180,-349.609,0.000
1606142783.180,-104.980,-36.133,-34.668,-307.129,0.000
1606142783.184,11.230,-26.855,-29.785,89.355,0.000
1606142783.188,64.941,-24.414,-21.484,300.293,0.000
1606142783.192,-25.879,-28.809,-20.508,49.805,0.000
1606142783.196,-136.719,-32.715,-26.855,-308.594,0.000
1606142783.200,-128.418,-27.832,-25.879,-312.012,0.000
1606142783.204,-20.996,-26.855,-25.391,59.570,0.000
1606142783.207,43.945,-29.785,-23.438,303.711,0.000
1606142783.211,-1.465,-31.250,-27.832,111.328,0.000
1606142783.215,-97.168,-31.738,-35.156,-264.648,0.000
1606142783.219,-126.953,-31.250,-32.715,-340.332,0.000
1606142783.223,-27.344,-25.879,-28.320,7.324,0.000
1606142783.227,56.641,-20.020,-25.391,294.922,0.000
1606142783.231,9.277,-20.020,-29.785,153.320,0.000
1606142783.235,-96.191,-29.785,-31.250,-239.258,0.000
1606142783.239,-123.535,-32.715,-26.855,-373.047,0.000
1606142783.243,-32.227,-16.113,-26.367,-45.898,0.000
1606142783.247,43.945,-14.648,-19.531,280.762,0.000
1606142783.250,24.414,-23.926,-19.531,189.941,0.000
1606142783.254,-72.754,-32.227,-26.367,-210.938,0.000
1606142783.258,-117.676,-55.664,-27.832,-394.043,0.000
1606142783.262,-32.715,49.316,-29.785,-102.539,0.000
1606142783.266,71.777,94.727,-27.832,250.488,0.000
1606142783.270,59.570,-22.461,-24.414,212.891,0.000
1606142783.274,-52.246,-43.945,-33.203,-167.969,0.000
1606142783.278,-105.469,-43.457,-32.715,-387.207,0.000
1606142783.282,-35.156,-39.062,-28.809,-162.109,0.000
1606142783.286,70.801,-34.668,-27.344,205.078,0.000
1606142783.289,77.148,-35.156,-20.508,250.000,0.000
1606142783.293,-29.297,-36.621,-25.391,-110.352,0.000
1606142783.297,-93.750,-61.523,-23.926,-376.465,0.000
1606142783.301,-38.086,9.766,-31.250,-200.195,0.000
1606142783.305,48.340,55.176,-26.367,184.570,0.000
1606142783.309,48.828,-29.297,-14.160,289.062,0.000
1606142783.313,-54.688,-47.852,-18.555,-50.293,0.000
1606142783.317,-120.605,-53.223,-26.367,-345.215,0.000
1606142783.321,-72.754,-45.410,-29.297,-225.586,0.000
1606142783.325,11.230,-31.250,-24.414,138.184,0.000
1606142783.329,27.832,-31.738,-23.926,263.184,0.000
1606142783.332,-57.617,-31.250,-31.250,-48.828,0.000
1606142783.336,-152.832,-67.871,-55.664,-389.648,0.000
1606142783.340,-147.461,-39.062,-56.152,-338.379,0.000
1606142783.344,-53.711,25.879,-32.227,41.992,0.000
1606142783.348,-11.230,-9.277,-39.062,216.797,0.000
1606142783.352,-95.703,-24.414,-28.320,-60.059,0.000
1606142783.356,-200.684,-34.180,-7.812,-408.691,0.000
1606142783.360,-195.312,-28.320,-8.789,-408.203,0.000
1606142783.364,-87.402,43.457,-18.066,-43.945,0.000
1606142783.368,-22.461,28.320,-17.090,203.613,0.000
1606142783.372,-70.801,-29.785,-21.484,9.766,0.000
1606142783.375,-166.992,-39.062,-27.832,-361.816,0.000
1606142783.379,-174.316,-44.434,-32.227,-424.316,0.000
1606142783.383,-52.246,-32.715,-34.668,-36.621,0.000
1606142783.387,37.109,-31.738,-31.250,269.531,0.000
1606142783.391,-5.371,-37.109,-33.203,111.816,0.000
1606142783.395,-104.980,-52.734,-30.762,-274.414,0.000
1606142783.399,-122.559,-49.805,-30.762,-388.184,0.000
1606142783.403,-28.320,-19.531,-29.785,-50.293,0.000
1606142783.407,57.617,-32.227,-22.461,277.832,0.000
1606142783.411,34.180,-56.152,-20.020,187.012,0.000
1606142783.414,-72.754,-60.547,-28.809,-213.867,0.000
1606142783.418,-112.305,-57.617,-30.273,-369.629,0.000
1606142783.422,-27.832,-46.875,-25.391,-75.684,0.000
1606142783.426,66.895,-44.434,-24.414,254.883,0.000
1606142783.430,47.363,-47.363,-21.484,222.656,0.000
1606142783.434,-47.852,-45.898,-24.414,-160.156,0.000
1606142783.438,-90.332,-49.805,-30.273,-376.465,0.000
1606142783.442,-52.734,-39.551,-32.715,-129.395,0.000
1606142783.446,31.738,-19.043,-27.832,234.375,0.000
1606142783.450,46.875,-33.691,-20.020,262.207,0.000
1606142783.454,-64.941,-51.270,-24.902,-106.445,0.000
1606142783.457,-132.324,-55.176,-33.691,-368.652,0.000
1606142783.461,-61.523,-52.734,-26.855,-172.363,0.000
1606142783.465,55.664,-43.457,-16.602,224.121,0.000
1606142783.469,75.195,-42.969,-14.160,309.570,0.000
1606142783.473,-26.855,-45.410,-14.648,-34.668,0.000
1606142783.477,-107.422,-53.711,-21.484,-317.871,0.000
1606142783.481,-56.152,-34.180,-28.809,-187.500,0.000
1606142783.485,57.617,-17.090,-27.344,192.871,0.000
1606142783.489,92.285,-36.621,-20.996,328.125,0.000
1606142783.493,3.418,-43.945,-20.508,1.953,0.000
1606142783.497,-90.332,-42.480,-21.973,-329.102,0.000
1606142783.500,-62.012,-32.715,-23.438,-253.418,0.000
1606142783.504,52.246,-23.926,-20.508,142.578,0.000
1606142783.508,89.355,-22.461,-15.137,325.195,0.000
1606142783.512,6.348,-27.344,-14.160,60.059,0.000
1606142783.516,-89.355,-39.062,-17.578,-291.504,0.000
1606142783.520,-83.496,-33.691,-20.508,-291.504,0.000
1606142783.524,32.227,-21.484,-9.277,101.562,0.000
1606142783.528,102.539,-20.020,-5.859,339.844,0.000
1606142783.532,13.184,-23.438,-16.602,106.445,0.000
1606142783.536,-113.770,-41.016,-21.484,-281.250,0.000
1606142783.539,-111.328,-38.574,-23.926,-332.031,0.000
1606142783.543,-5.859,15.625,-22.949,40.527,0.000
1606142783.547,53.711,10.254,-19.531,317.383,0.000
1606142783.551,1.953,-38.086,-22.461,163.086,0.000
1606142783.555,-101.074,-39.551,-32.227,-229.492,0.000
1606142783.559,-141.602,-31.738,-36.621,-368.652,0.000
1606142783.563,-53.223,-28.809,-36.621,-51.270,0.000
1606142783.567,52.734,-29.785,-28.809,265.137,0.000
1606142783.571,27.344,-25.879,-22.949,162.598,0.000
1606142783.575,-99.609,-35.156,-32.227,-238.770,0.000
1606142783.579,-148.926,-43.945,-24.902,-404.297,0.000
1606142783.582,-55.176,-11.230,-26.855,-104.004,0.000
1606142783.586,54.199,-7.812,-35.156,237.305,0.000
1606142783.590,45.410,-34.668,-27.832,197.266,0.000
1606142783.594,-68.359,-40.527,-30.762,-184.570,0.000
1606142783.598,-129.883,-45.898,-30.762,-389.160,0.000
1606142783.602,-57.617,-41.504,-29.297,-134.277,0.000
1606142783.606,56.152,-34.668,-27.344,233.887,0.000
1606142783.610,56.152,-33.691,-25.879,237.305,0.000
1606142783.614,-69.824,-35.645,-27.344,-148.926,0.000
1606142783.618,-144.531,-51.758,-28.809,-390.137,0.000
1606142783.622,-68.359,-4.883,-31.250,-177.734,0.000
1606142783.625,43.945,41.504,-27.344,199.707,0.000
1606142783.629,50.293,-20.020,-18.555,261.230,0.000
1606142783.633,-60.059,-53.223,-20.020,-86.914,0.000
1606142783.637,-135.254,-55.176,-23.438,-362.793,0.000
1606142783.641,-75.684,-43.945,-22.949,-217.773,0.000
1606142783.645,41.016,-35.156,-20.508,171.875,0.000
1606142783.649,81.055,-40.039,-19.043,292.480,0.000
1606142783.653,-18.555,-45.410,-23.438,-30.273,0.000
1606142783.657,-119.141,-47.363,-25.391,-350.098,0.000
1606142783.661,-72.266,-40.039,-24.414,-266.113,0.000
1606142783.664,37.109,-35.156,-21.973,130.859,0.000
1606142783.668,73.242,-34.180,-17.578,314.453,0.000
1606142783.672,-4.395,-38.086,-23.926,28.809,0.000
1606142783.676,-116.211,-42.969,-30.762,-323.242,0.000
1606142783.680,-105.469,-41.992,-31.738,-296.875,0.000
1606142783.684,16.113,-41.992,-26.367,96.680,0.000
1606142783.688,68.848,-35.156,-15.625,323.242,0.000
1606142783.692,-11.719,-36.133,-20.996,86.426,0.000
1606142783.696,-117.188,-39.551,-29.785,-287.598,0.000
1606142783.700,-112.305,-31.738,-34.668,-319.824,0.000
1606142783.704,7.812,-22.949,-33.691,58.105,0.000
1606142783.707,76.172,-23.926,-27.344,316.895,0.000
1606142783.711,15.137,-24.902,-31.250,125.488,0.000
1606142783.715,-90.332,-28.809,-34.668,-242.188,0.000
1606142783.719,-112.793,-30.273,-35.156,-333.008,0.000
1606142783.723,-7.324,-11.719,-34.668,-7.324,0.000
1606142783.727,78.613,-10.742,-27.344,292.969,0.000
1606142783.731,40.039,-28.320,-28.809,165.039,0.000
1606142783.735,-62.988,-30.273,-36.621,-224.609,0.000
1606142783.739,-104.980,-25.391,-38.574,-379.395,0.000
1606142783.743,-30.273,-10.254,-38.574,-89.355,0.000
1606142783.747,69.824,-10.254,-33.203,250.000,0.000
1606142783.750,46.387,-25.879,-24.902,202.148,0.000
1606142783.754,-71.289,-28.809,-34.180,-189.453,0.000
1606142783.758,-127.930,-33.691,-40.039,-384.766,0.000
1606142783.762,-45.898,-8.301,-35.156,-115.723,0.000
1606142783.766,67.383,-0.977,-32.227,227.539,0.000
1606142783.770,49.316,-28.320,-26.367,220.703,0.000
1606142783.774,-68.848,-36.621,-29.785,-150.391,0.000
1606142783.778,-140.625,-42.480,-30.273,-382.324,0.000
1606142783.782,-73.730,-35.156,-23.438,-156.250,0.000
1606142783.786,37.109,-32.227,-18.555,219.238,0.000
1606142783.789,45.898,-33.203,-14.648,270.020,0.000
1606142783.793,-61.035,-33.691,-18.066,-84.473,0.000
1606142783.797,-140.625,-36.133,-27.344,-362.305,0.000
1606142783.801,-75.684,-40.039,-32.227,-204.590,0.000
1606142783.805,50.293,-36.621,-25.879,187.988,0.000
1606142783.809,73.730,-27.832,-20.996,303.223,0.000
1606142783.813,-34.180,-32.227,-25.391,-30.273,0.000
1606142783.817,-134.277,-44.434,-27.344,-349.121,0.000
1606142783.821,-100.098,-38.574,-27.344,-252.441,0.000
1606142783.825,22.461,-23.926,-21.973,152.832,0.000
1606142783.829,73.242,-24.414,-20.020,317.871,0.000
1606142783.832,-25.879,-30.273,-23.926,19.531,0.000
1606142783.836,-142.090,-37.598,-29.297,-323.242,0.000
1606142783.840,-110.840,-37.598,-26.367,-268.555,0.000
1606142783.844,16.602,-30.273,-22.461,122.070,0.000
1606142783.848,70.801,-31.250,-25.879,310.547,0.000
1606142783.852,-13.672,-33.691,-26.855,58.594,0.000
1606142783.856,-119.629,-38.086,-29.297,-303.711,0.000
1606142783.860,-95.703,-28.320,-35.645,-335.449,0.000
1606142783.864,22.949,-9.277,-34.668,32.715,0.000
1606142783.868,85.449,-21.973,-28.809,295.898,0.000
1606142783.872,19.531,-33.203,-27.344,107.422,0.000
1606142783.875,-114.258,-40.039,-26.367,-264.160,0.000
1606142783.879,-131.836,-41.992,-28.809,-334.473,0.000
1606142783.883,-10.742,-24.414,-22.461,9.277,0.000
1606142783.887,85.938,-20.020,-12.695,305.664,0.000
1606142783.891,52.734,-24.414,-19.531,171.387,0.000
1606142783.895,-63.477,-28.320,-35.645,-216.797,0.000
1606142783.899,-95.703,-27.344,-34.668,-337.402,0.000
1606142783.903,-13.672,2.441,-22.949,-13.184,0.000
1606142783.907,57.129,-3.906,-20.508,309.570,0.000
1606142783.911,5.859,-34.668,-22.461,213.867,0.000
1606142783.914,-118.164,-41.504,-28.809,-190.430,0.000
1606142783.918,-145.996,-45.410,-26.855,-364.258,0.000
1606142783.922,-66.895,-32.715,-25.879,-88.867,0.000
1606142783.926,35.645,-23.926,-26.367,257.324,0.000
1606142783.930,29.297,-30.762,-26.855,238.770,0.000
1606142783.934,-81.543,-37.598,-32.715,-147.461,0.000
1606142783.938,-144.531,-39.062,-39.551,-385.742,0.000
1606142783.942,-71.289,-34.668,-38.086,-164.062,0.000
1606142783.946,39.551,-27.344,-29.297,214.844,0.000
1606142783.950,23.438,-23.438,-20.508,258.789,0.000
1606142783.954,-92.285,-31.738,-26.367,-115.234,0.000
1606142783.957,-157.715,-42.480,-39.551,-390.625,0.000
1606142783.961,-95.215,-8.301,-40.527,-226.074,0.000
1606142783.965,33.691,9.277,-36.133,157.715,0.000
1606142783.969,47.363,-27.344,-29.785,258.789,0.000
1606142783.973,-80.078,-40.039,-32.227,-64.453,0.000
1606142783.977,-153.320,-39.551,-41.504,-357.910,0.000
1606142783.981,-98.145,-34.180,-34.668,-237.793,0.000
1606142783.985,22.949,-29.785,-22.461,164.551,0.000
1606142783.989,66.406,-32.227,-18.066,312.500,0.000
1606142783.993,-24.902,-29.297,-24.414,4.883,0.000
1606142783.997,-113.770,-32.227,-30.762,-313.965,0.000
1606142784.000,-94.727,-16.113,-27.832,-251.465,0.000
1606142784.004,1.465,43.945,-25.391,135.742,0.000
1606142784.008,49.805,11.230,-25.391,328.125,0.000
1606142784.012,-17.090,-36.621,-23.926,58.105,0.000
1606142784.016,-111.816,-39.062,-26.855,-285.156,0.000
1606142784.020,-128.906,-46.875,-30.762,-290.527,0.000
1606142784.024,-9.766,-38.086,-28.320,72.754,0.000
1606142784.028,88.867,-29.297,-20.996,329.102,0.000
1606142784.032,-3.906,-32.227,-22.461,125.977,0.000
1606142784.036,-136.230,-49.316,-29.297,-252.441,0.000
1606142784.039,-118.652,-34.668,-28.809,-304.688,0.000
1606142784.043,14.160,13.672,-29.297,53.711,0.000
1606142784.047,97.168,-7.812,-22.461,319.824,0.000
1606142784.051,30.273,-41.504,-18.555,157.227,0.000
1606142784.055,-102.539,-43.457,-27.344,-234.375,0.000
1606142784.059,-136.230,-43.457,-29.297,-339.844,0.000
1606142784.063,-9.277,-35.156,-30.273,-11.719,0.000
1606142784.067,102.051,-22.949,-29.785,296.875,0.000
1606142784.071,50.293,-28.809,-30.762,200.195,0.000
1606142784.075,-68.848,-35.156,-39.062,-194.336,0.000
1606142784.079,-104.004,-37.598,-42.969,-357.910,0.000
1606142784.082,-8.789,-37.109,-44.434,-87.402,0.000
1606142784.086,87.891,-29.297,-35.645,256.348,0.000
1606142784.090,65.430,-29.297,-34.180,245.605,0.000
1606142784.094,-45.410,-26.855,-39.551,-134.277,0.000
1606142784.098,-109.863,-41.992,-35.645,-356.934,0.000
1606142784.102,-34.668,-0.488,-33.691,-125.000,0.000
1606142784.106,65.430,36.133,-29.297,242.676,0.000
1606142784.110,58.594,-18.066,-26.855,274.414,0.000
1606142784.114,-51.758,-42.969,-29.785,-94.727,0.000
1606142784.118,-126.953,-49.805,-32.227,-353.516,0.000
1606142784.122,-58.105,-45.898,-25.391,-160.156,0.000
1606142784.125,66.406,-38.086,-15.137,233.887,0.000
1606142784.129,82.031,-39.551,-17.090,313.477,0.000
1606142784.133,-44.922,-39.551,-28.320,-39.062,0.000
1606142784.137,-145.508,-52.734,-38.086,-324.707,0.000
1606142784.141,-90.820,-20.996,-30.762,-203.613,0.000
1606142784.145,39.062,7.324,-21.973,170.410,0.000
1606142784.149,68.848,-30.273,-20.020,298.828,0.000
1606142784.153,-37.109,-39.551,-26.367,-12.695,0.000
1606142784.157,-124.512,-42.480,-35.645,-332.031,0.000
1606142784.161,-75.195,-40.527,-33.203,-260.254,0.000
1606142784.164,32.227,-34.180,-26.855,132.324,0.000
1606142784.168,39.551,-33.203,-26.855,316.895,0.000
1606142784.172,-40.039,-30.762,-30.273,54.688,0.000
1606142784.176,-134.277,-42.480,-35.156,-296.387,0.000
1606142784.180,-124.512,-24.414,-34.668,-291.992,0.000
1606142784.184,22.949,9.766,-24.414,114.258,0.000
1606142784.188,92.773,-15.625,-20.020,324.219,0.000
1606142784.192,-0.977,-26.855,-23.926,81.543,0.000
1606142784.196,-110.352,-34.180,-31.738,-270.020,0.000
1606142784.200,-108.398,-32.715,-36.621,-330.078,0.000
1606142784.204,1.465,-3.418,-28.809,30.762,0.000
1606142784.207,81.543,-17.578,-23.438,307.617,0.000
1606142784.211,31.250,-36.133,-24.902,137.207,0.000
1606142784.215,-97.656,-40.039,-29.785,-240.234,0.000
1606142784.219,-123.047,-38.574,-35.156,-331.055,0.000
1606142784.223,-6.348,-35.156,-34.668,0.000,0.000
1606142784.227,95.703,-31.250,-28.809,310.547,0.000
1606142784.231,61.523,-29.297,-26.855,207.031,0.000
1606142784.235,-70.312,-38.574,-40.039,-200.684,0.000
1606142784.239,-120.117,-46.387,-36.621,-347.656,0.000
1606142784.243,-23.926,0.977,-23.926,-32.227,0.000
1606142784.247,80.078,6.348,-18.555,300.781,0.000
1606142784.250,56.641,-35.156,-20.996,250.977,0.000
1606142784.254,-71.777,-41.016,-29.297,-130.859,0.000
1606142784.258,-133.789,-44.434,-30.273,-340.332,0.000
1606142784.262,-49.316,-34.180,-25.391,-83.008,0.000
1606142784.266,60.059,-27.832,-16.113,280.762,0.000
1606142784.270,58.594,-28.809,-16.113,280.762,0.000
1606142784.274,-62.988,-30.273,-23.438,-97.168,0.000
1606142784.278,-137.207,-40.527,-23.926,-335.449,0.000
1606142784.282,-62.500,1.465,-20.508,-141.113,0.000
1606142784.286,55.176,41.992,-20.508,216.797,0.000
1606142784.289,66.406,-17.090,-20.996,271.973,0.000
1606142784.293,-64.453,-47.363,-22.461,-75.195,0.000
1606142784.297,-159.668,-47.852,-22.461,-350.098,0.000
1606142784.301,-99.121,-42.969,-23.926,-210.449,0.000
1606142784.305,32.227,-32.715,-17.090,165.039,0.000
1606142784.309,66.895,-35.156,-15.137,300.293,0.000
1606142784.313,-41.992,-40.039,-27.832,-13.184,0.000
1606142784.317,-143.066,-56.641,-32.227,-333.496,0.000
1606142784.321,-103.516,-24.414,-31.250,-245.117,0.000
1606142784.325,20.020,3.418,-28.809,131.836,0.000
1606142784.329,64.453,-33.203,-24.414,302.734,0.000
1606142784.332,-36.621,-41.504,-21.973,24.902,0.000
1606142784.336,-145.508,-45.898,-24.414,-332.520,0.000
1606142784.340,-132.324,-32.227,-33.203,-318.848,0.000
1606142784.344,-10.742,-20.996,-28.809,66.406,0.000
1606142784.348,64.941,-37.598,-22.949,294.434,0.000
1606142784.352,-10.254,-42.480,-27.832,67.383,0.000
1606142784.356,-121.582,-46.875,-25.879,-294.434,0.000
1606142784.360,-122.070,-44.922,-27.832,-330.078,0.000
1606142784.364,-9.766,-41.504,-31.250,26.855,0.000
1606142784.368,67.383,-41.016,-22.949,301.270,0.000
1606142784.372,10.254,-36.621,-24.902,137.207,0.000
1606142784.375,-110.840,-43.945,-35.156,-249.512,0.000
