timestamps,TP9,AF7,AF8,TP10,Right AUX
1606141826.044,0.000,-0.488,-0.488,0.000,0.000
1606141826.048,-0.977,-0.488,-0.488,-2.441,0.000
1606141826.052,-1.465,1.465,0.977,-7.324,0.000
1606141826.056,11.230,-3.418,-2.441,47.363,0.000
1606141826.060,-44.922,18.066,13.672,-188.477,0.000
1606141826.063,23.926,56.152,46.875,34.180,0.000
1606141826.067,217.773,67.383,48.340,750.977,0.000
1606141826.071,131.348,59.570,35.645,485.840,0.000
1606141826.075,-112.305,42.480,32.715,-388.672,0.000
1606141826.079,-172.363,34.180,36.621,-685.547,0.000
1606141826.083,22.949,41.016,39.062,-10.254,0.000
1606141826.087,231.934,68.359,39.062,737.305,0.000
1606141826.091,185.547,76.660,32.227,583.496,0.000
1606141826.095,-72.754,58.105,15.137,-309.570,0.000
1606141826.099,-180.176,52.246,3.906,-729.980,0.000
1606141826.103,-8.789,64.453,9.277,-148.926,0.000
1606141826.106,201.660,83.496,13.672,658.691,0.000
1606141826.110,199.219,100.586,3.418,660.156,0.000
1606141826.114,-24.414,84.961,-9.766,-195.312,0.000
1606141826.118,-168.457,58.105,-13.672,-740.234,0.000
1606141826.122,-42.969,54.688,-0.977,-267.578,0.000
1606141826.126,185.059,72.754,7.812,594.238,0.000
1606141826.130,229.492,85.938,5.371,730.469,0.000
1606141826.134,11.719,66.895,2.930,-73.730,0.000
1606141826.138,-155.762,56.152,-4.395,-721.191,0.000
1606141826.142,-47.852,70.312,5.371,-364.746,0.000
1606141826.145,191.895,83.008,11.719,534.180,0.000
1606141826.149,244.141,89.355,2.930,801.758,0.000
1606141826.153,41.992,77.637,0.488,70.801,0.000
1606141826.157,-137.207,57.129,-2.930,-671.875,0.000
1606141826.161,-61.035,57.129,-6.348,-449.219,0.000
1606141826.165,172.363,76.660,12.695,480.957,0.000
1606141826.169,256.348,74.219,26.367,866.211,0.000
1606141826.173,93.750,64.453,12.207,221.191,0.000
1606141826.177,-100.586,54.688,3.418,-582.031,0.000
1606141826.181,-77.148,51.270,8.789,-525.391,0.000
1606141826.185,153.320,76.660,20.996,383.301,0.000
1606141826.188,266.602,83.984,28.320,907.715,0.000
1606141826.192,124.023,72.754,19.531,368.164,0.000
1606141826.196,-85.449,60.059,9.277,-513.184,0.000
1606141826.200,-109.863,50.781,8.301,-597.656,0.000
1606141826.204,130.859,67.383,21.973,291.504,0.000
1606141826.208,290.039,78.613,29.785,949.219,0.000
1606141826.212,151.367,67.871,15.137,514.160,0.000
1606141826.216,-83.008,52.734,1.953,-454.102,0.000
1606141826.220,-125.977,42.969,3.906,-668.945,0.000
1606141826.224,87.402,54.199,20.020,165.527,0.000
1606141826.228,277.832,70.312,26.855,909.668,0.000
1606141826.231,199.707,62.988,14.648,614.258,0.000
1606141826.235,-69.336,37.598,11.230,-335.938,0.000
1606141826.239,-151.367,34.180,8.301,-701.660,0.000
1606141826.243,61.523,51.270,15.137,38.574,0.000
1606141826.247,231.445,54.688,27.832,808.105,0.000
1606141826.251,168.457,43.945,21.973,628.906,0.000
1606141826.255,-44.434,28.809,12.207,-242.188,0.000
1606141826.259,-158.691,53.223,6.348,-729.004,0.000
1606141826.263,9.277,79.590,8.301,-132.324,0.000
1606141826.267,245.605,66.895,21.484,757.812,0.000
1606141826.270,239.746,64.453,31.738,797.852,0.000
1606141826.274,-6.348,49.805,27.344,-127.930,0.000
1606141826.278,-151.855,36.621,9.766,-757.812,0.000
1606141826.282,-18.066,45.410,22.949,-239.258,0.000
1606141826.286,227.539,57.617,50.293,706.543,0.000
1606141826.290,253.906,57.129,45.898,885.742,0.000
1606141826.294,-0.488,40.039,32.227,20.508,0.000
1606141826.298,-164.551,31.250,21.973,-716.309,0.000
1606141826.302,-63.965,36.621,16.602,-338.867,0.000
1606141826.306,179.199,47.363,20.508,605.957,0.000
1606141826.310,236.816,75.195,25.879,915.039,0.000
1606141826.313,2.930,71.289,15.137,116.699,0.000
1606141826.317,-201.660,44.922,-1.953,-746.094,0.000
1606141826.321,-150.391,36.133,6.348,-530.762,0.000
1606141826.325,89.844,41.504,26.367,469.727,0.000
1606141826.329,173.828,49.316,30.273,891.602,0.000
1606141826.333,-22.461,39.062,13.672,169.922,0.000
1606141826.337,-235.352,18.555,3.906,-706.543,0.000
1606141826.341,-204.102,15.137,3.418,-650.879,0.000
1606141826.345,47.852,31.250,12.207,310.547,0.000
1606141826.349,178.711,32.715,21.484,900.879,0.000
1606141826.353,44.922,34.668,8.789,324.219,0.000
1606141826.356,-178.223,19.531,-2.441,-627.441,0.000
1606141826.360,-199.707,52.734,2.930,-718.262,0.000
1606141826.364,50.293,93.262,11.719,218.750,0.000
1606141826.368,234.863,54.688,15.625,922.363,0.000
1606141826.372,130.859,32.715,5.859,491.699,0.000
1606141826.376,-116.211,22.461,-12.207,-522.949,0.000
1606141826.380,-154.297,17.578,-4.395,-755.371,0.000
1606141826.384,48.340,24.414,16.113,117.676,0.000
1606141826.388,198.730,35.156,19.043,869.141,0.000
1606141826.392,116.699,31.738,12.207,554.688,0.000
1606141826.395,-147.949,13.672,-0.488,-462.891,0.000
1606141826.399,-237.305,2.441,-3.418,-849.609,0.000
1606141826.403,-37.109,1.953,10.254,-91.797,0.000
1606141826.407,168.457,35.156,19.043,758.301,0.000
1606141826.411,130.859,78.613,17.090,621.094,0.000
1606141826.415,-128.418,38.086,7.324,-354.004,0.000
1606141826.419,-239.746,6.836,-2.441,-853.516,0.000
1606141826.423,-42.480,28.320,11.230,-209.473,0.000
1606141826.427,178.223,45.898,25.879,717.285,0.000
1606141826.431,170.410,42.969,18.555,744.141,0.000
1606141826.435,-64.941,21.973,0.977,-196.777,0.000
1606141826.438,-216.797,11.719,-8.301,-819.824,0.000
1606141826.442,-89.844,18.555,6.836,-300.293,0.000
1606141826.446,164.551,34.180,19.531,661.621,0.000
1606141826.450,204.102,32.227,11.719,799.316,0.000
1606141826.454,-48.340,6.836,15.625,-74.219,0.000
1606141826.458,-218.262,4.395,1.465,-800.293,0.000
1606141826.462,-111.328,18.066,-14.160,-474.121,0.000
1606141826.466,131.348,29.297,9.277,513.184,0.000
1606141826.470,192.871,36.133,22.949,826.660,0.000
1606141826.474,-16.602,23.926,3.418,18.066,0.000
1606141826.478,-207.031,12.207,-7.812,-796.875,0.000
1606141826.481,-138.184,19.043,0.488,-583.496,0.000
1606141826.485,126.465,43.457,8.301,413.574,0.000
1606141826.489,239.746,53.223,11.230,866.699,0.000
1606141826.493,53.223,31.738,12.207,189.453,0.000
1606141826.497,-168.945,17.090,0.000,-703.613,0.000
1606141826.501,-146.973,17.090,-2.441,-664.062,0.000
1606141826.505,104.980,29.297,12.695,324.707,0.000
1606141826.509,244.141,40.527,20.996,906.738,0.000
1606141826.513,80.078,30.762,19.531,329.590,0.000
1606141826.517,-144.043,20.020,1.953,-627.441,0.000
1606141826.520,-154.785,18.066,0.488,-728.027,0.000
1606141826.524,54.688,27.832,15.625,184.082,0.000
1606141826.528,218.262,40.527,17.090,854.492,0.000
1606141826.532,115.723,37.109,3.906,452.637,0.000
1606141826.536,-135.742,20.996,-3.906,-507.324,0.000
1606141826.540,-199.707,24.902,-8.301,-791.016,0.000
1606141826.544,22.949,38.086,0.488,33.691,0.000
1606141826.548,214.844,38.574,13.184,820.801,0.000
1606141826.552,114.746,32.227,10.254,525.879,0.000
1606141826.556,-143.066,7.812,-1.953,-462.402,0.000
1606141826.560,-208.008,0.000,-11.230,-845.703,0.000
1606141826.563,-4.395,18.066,3.906,-104.980,0.000
1606141826.567,205.566,36.133,15.625,771.484,0.000
1606141826.571,152.832,31.250,10.742,651.855,0.000
1606141826.575,-105.957,13.672,-4.883,-338.379,0.000
1606141826.579,-231.934,9.766,-13.184,-867.188,0.000
1606141826.583,-46.387,25.391,0.000,-232.422,0.000
1606141826.587,202.637,38.086,9.766,713.379,0.000
1606141826.591,190.430,37.109,9.277,733.887,0.000
1606141826.595,-60.547,25.879,0.000,-213.379,0.000
1606141826.599,-190.918,25.879,-8.301,-838.867,0.000
1606141826.603,-50.781,37.598,0.000,-362.305,0.000
1606141826.606,189.453,41.016,15.625,598.145,0.000
1606141826.610,225.098,45.898,10.254,771.973,0.000
1606141826.614,-26.855,42.480,-3.418,-119.141,0.000
1606141826.618,-209.473,27.344,-1.953,-847.656,0.000
1606141826.622,-99.609,26.367,9.277,-487.305,0.000
1606141826.626,131.348,38.574,23.438,510.742,0.000
1606141826.630,183.105,42.969,20.996,833.008,0.000
1606141826.634,-24.902,24.414,13.184,57.617,0.000
1606141826.638,-215.820,6.348,-0.488,-771.973,0.000
1606141826.642,-142.090,14.160,-2.441,-595.215,0.000
1606141826.645,116.699,35.156,17.578,420.898,0.000
1606141826.649,230.957,39.551,22.461,878.418,0.000
1606141826.653,56.641,23.926,11.230,218.262,0.000
1606141826.657,-166.992,16.113,-1.953,-674.805,0.000
1606141826.661,-128.418,26.855,-2.930,-646.484,0.000
1606141826.665,115.723,39.551,16.113,319.336,0.000
1606141826.669,244.141,43.945,19.043,871.094,0.000
1606141826.673,96.680,33.691,13.672,333.008,0.000
1606141826.677,-142.578,19.043,2.930,-584.473,0.000
1606141826.681,-153.320,24.414,-5.859,-711.914,0.000
1606141826.685,70.312,36.621,9.766,168.457,0.000
1606141826.688,212.891,37.598,19.043,831.055,0.000
1606141826.692,115.234,27.832,11.719,419.922,0.000
1606141826.696,-130.859,15.137,-1.465,-541.016,0.000
1606141826.700,-192.871,16.602,-2.441,-783.691,0.000
1606141826.704,36.133,27.344,9.277,26.367,0.000
1606141826.708,195.801,25.879,14.648,758.789,0.000
1606141826.712,114.258,18.066,11.719,493.164,0.000
1606141826.716,-116.211,6.348,1.953,-438.477,0.000
1606141826.720,-209.473,1.465,-4.395,-795.410,0.000
1606141826.724,-25.391,17.090,7.812,-91.309,0.000
1606141826.728,166.992,28.809,16.602,711.914,0.000
1606141826.731,146.484,24.414,5.371,591.797,0.000
1606141826.735,-76.660,13.672,-6.348,-316.406,0.000
1606141826.739,-207.031,16.113,-11.230,-786.621,0.000
1606141826.743,-59.570,24.414,-7.324,-210.449,0.000
1606141826.747,171.387,28.320,7.324,664.062,0.000
1606141826.751,184.570,39.062,11.230,714.844,0.000
1606141826.755,-38.086,29.785,-2.930,-158.203,0.000
1606141826.759,-169.922,15.137,-11.230,-763.672,0.000
1606141826.763,-78.125,18.066,0.000,-327.637,0.000
1606141826.767,120.117,29.785,13.672,582.520,0.000
1606141826.770,170.898,32.715,12.695,756.348,0.000
1606141826.774,-49.316,13.672,0.000,-75.195,0.000
1606141826.778,-226.562,-6.836,-10.742,-776.367,0.000
1606141826.782,-143.066,-6.836,-15.137,-481.445,0.000
1606141826.786,89.844,11.719,1.953,452.637,0.000
1606141826.790,164.062,17.578,9.766,772.461,0.000
1606141826.794,-30.762,5.371,-2.930,52.734,0.000
1606141826.798,-234.863,-9.277,-15.137,-725.586,0.000
1606141826.802,-165.039,-1.953,-15.625,-572.754,0.000
1606141826.806,85.938,23.438,1.465,355.469,0.000
1606141826.810,183.594,26.367,12.695,790.039,0.000
1606141826.813,34.668,8.301,11.230,205.078,0.000
1606141826.817,-157.715,6.348,0.000,-599.121,0.000
1606141826.821,-160.156,35.156,-10.254,-620.117,0.000
1606141826.825,37.598,46.387,-2.441,229.980,0.000
1606141826.829,161.621,41.992,7.812,769.531,0.000
1606141826.833,43.945,38.086,2.441,291.504,0.000
1606141826.837,-169.434,26.855,-10.254,-580.078,0.000
1606141826.841,-201.172,25.391,-16.113,-726.562,0.000
1606141826.845,-7.324,32.227,-5.371,82.031,0.000
1606141826.849,155.762,44.922,0.000,718.750,0.000
1606141826.853,70.801,41.016,-1.953,375.488,0.000
1606141826.856,-163.086,20.508,-10.254,-521.973,0.000
1606141826.860,-210.938,16.602,-14.648,-786.621,0.000
1606141826.864,-0.488,25.879,0.977,-39.062,0.000
1606141826.868,170.410,28.809,11.230,660.645,0.000
1606141826.872,78.125,21.973,-1.953,409.668,0.000
1606141826.876,-173.340,4.395,-22.949,-501.465,0.000
1606141826.880,-267.578,-3.418,-21.484,-862.305,0.000
1606141826.884,-54.199,11.719,-3.418,-186.523,0.000
1606141826.888,169.922,22.949,0.488,600.586,0.000
1606141826.892,108.887,13.672,0.977,518.066,0.000
1606141826.895,-132.812,-6.348,3.418,-329.590,0.000
1606141826.899,-247.559,-21.484,-2.930,-801.270,0.000
1606141826.903,-85.938,-8.789,-1.465,-268.066,0.000
1606141826.907,133.789,7.812,9.277,594.238,0.000
1606141826.911,142.090,10.742,2.930,684.082,0.000
1606141826.915,-83.008,-8.789,-10.742,-144.043,0.000
1606141826.919,-235.840,-12.695,-16.113,-741.699,0.000
1606141826.923,-97.168,8.301,-5.859,-315.430,0.000
1606141826.927,137.207,10.254,9.766,572.266,0.000
1606141826.931,164.062,12.207,10.742,764.648,0.000
1606141826.935,-55.664,0.000,-5.371,-40.527,0.000
1606141826.938,-212.402,-20.508,-12.207,-741.699,0.000
1606141826.942,-116.211,-11.230,-5.859,-463.379,0.000
1606141826.946,128.906,4.883,2.930,425.781,0.000
1606141826.950,204.590,10.254,4.883,736.816,0.000
1606141826.954,-10.254,-6.836,-3.418,39.551,0.000
1606141826.958,-216.309,-21.484,-11.719,-726.562,0.000
1606141826.962,-176.758,-20.508,-8.301,-609.863,0.000
1606141826.966,51.758,-20.996,1.953,274.414,0.000
1606141826.970,167.969,-11.230,4.395,714.844,0.000
1606141826.974,-1.953,-17.578,-4.883,125.488,0.000
1606141826.978,-222.656,-30.273,-18.555,-706.543,0.000
1606141826.981,-202.148,-24.902,-17.578,-697.754,0.000
1606141826.985,35.645,-9.277,-6.348,179.199,0.000
1606141826.989,164.062,1.465,-3.418,726.074,0.000
1606141826.993,6.836,-15.137,-8.789,259.766,0.000
1606141826.997,-217.285,-21.973,-20.996,-606.445,0.000
1606141827.001,-217.285,-1.465,-37.109,-750.977,0.000
1606141827.005,10.742,12.695,-16.602,70.312,0.000
1606141827.009,162.598,15.625,8.301,726.074,0.000
1606141827.013,61.523,-0.977,4.395,380.371,0.000
1606141827.017,-194.336,-29.785,0.000,-514.160,0.000
1606141827.020,-256.348,-28.320,0.488,-763.184,0.000
1606141827.024,-29.785,-10.254,2.441,-14.160,0.000
1606141827.028,185.547,-4.883,9.277,744.141,0.000
1606141827.032,138.672,-9.766,9.766,558.105,0.000
1606141827.036,-97.656,-16.113,-8.789,-352.051,0.000
1606141827.040,-188.965,-20.020,-17.578,-733.398,0.000
1606141827.044,-10.254,-18.555,-4.883,-79.102,0.000
1606141827.048,198.730,-7.812,9.766,731.934,0.000
1606141827.052,169.434,-10.742,2.930,672.852,0.000
1606141827.056,-83.984,-26.367,-11.719,-226.562,0.000
1606141827.060,-206.055,-26.855,-16.113,-741.211,0.000
1606141827.063,-37.598,-14.160,-12.695,-210.938,0.000
1606141827.067,194.824,6.348,2.930,661.133,0.000
1606141827.071,201.172,3.418,4.395,737.793,0.000
1606141827.075,-39.062,-18.066,-9.277,-117.676,0.000
1606141827.079,-180.176,-18.066,-15.137,-730.469,0.000
1606141827.083,-44.922,-0.977,-9.277,-319.824,0.000
1606141827.087,193.848,10.254,-1.953,578.125,0.000
1606141827.091,233.887,6.836,3.418,786.133,0.000
1606141827.095,3.906,-1.953,-1.465,0.000,0.000
1606141827.099,-180.176,-20.508,-6.348,-702.637,0.000
1606141827.103,-91.309,-45.410,-2.930,-429.688,0.000
1606141827.106,155.273,-12.695,5.859,477.051,0.000
1606141827.110,236.816,17.090,10.742,807.129,0.000
1606141827.114,41.992,7.812,1.465,106.934,0.000
1606141827.118,-167.480,-2.930,-7.324,-687.988,0.000
1606141827.122,-128.418,-6.836,-2.441,-567.871,0.000
1606141827.126,113.770,12.695,9.766,363.770,0.000
1606141827.130,213.867,23.438,11.230,830.566,0.000
1606141827.134,41.504,8.301,1.953,228.027,0.000
1606141827.138,-190.430,-11.230,-9.277,-634.277,0.000
1606141827.142,-180.664,-6.836,-6.348,-645.020,0.000
1606141827.145,74.707,10.254,6.836,262.695,0.000
1606141827.149,213.379,8.789,9.277,834.961,0.000
1606141827.153,63.965,5.859,1.465,345.703,0.000
1606141827.157,-175.781,-4.883,-2.441,-554.688,0.000
1606141827.161,-204.590,-18.066,-4.395,-704.590,0.000
1606141827.165,25.391,4.883,0.977,136.230,0.000
1606141827.169,205.078,24.902,8.789,826.660,0.000
1606141827.173,97.168,17.578,3.906,485.352,0.000
1606141827.177,-145.508,1.953,-7.324,-440.918,0.000
1606141827.181,-197.266,-1.465,-9.766,-721.191,0.000
1606141827.185,21.484,15.137,0.000,35.645,0.000
1606141827.188,225.586,28.320,10.742,809.570,0.000
1606141827.192,160.156,26.855,8.301,616.699,0.000
1606141827.196,-93.750,20.996,-0.488,-325.195,0.000
1606141827.200,-200.195,-7.324,-6.348,-760.254,0.000
1606141827.204,-12.695,-9.277,-1.465,-116.699,0.000
1606141827.208,212.891,31.250,11.230,732.422,0.000
1606141827.212,184.082,37.109,10.742,679.199,0.000
1606141827.216,-72.754,21.484,1.953,-254.883,0.000
1606141827.220,-211.426,8.789,-7.324,-804.199,0.000
1606141827.224,-42.480,19.043,-2.441,-262.695,0.000
1606141827.228,205.078,38.574,8.789,643.555,0.000
1606141827.231,201.660,36.621,9.277,742.676,0.000
1606141827.235,-45.898,23.438,-4.883,-128.906,0.000
1606141827.239,-203.613,9.277,-15.137,-777.832,0.000
1606141827.243,-83.496,12.695,-5.371,-381.348,0.000
1606141827.247,160.156,35.156,12.695,547.363,0.000
1606141827.251,218.750,41.992,15.137,783.691,0.000
1606141827.255,-5.371,25.391,5.371,-6.836,0.000
1606141827.259,-210.449,5.371,-4.395,-742.676,0.000
1606141827.263,-119.141,5.371,-1.953,-485.840,0.000
1606141827.267,139.160,20.508,8.789,458.496,0.000
1606141827.270,227.051,32.227,13.672,838.867,0.000
1606141827.274,32.227,23.438,0.488,138.672,0.000
1606141827.278,-186.035,3.906,-15.625,-685.059,0.000
1606141827.282,-142.090,7.812,-10.254,-568.359,0.000
1606141827.286,108.887,32.715,5.859,359.375,0.000
1606141827.290,219.727,35.645,7.812,835.449,0.000
1606141827.294,49.316,15.625,-5.371,246.094,0.000
1606141827.298,-171.875,4.395,-17.578,-630.859,0.000
1606141827.302,-155.273,-11.719,-21.973,-675.781,0.000
1606141827.306,79.102,-0.488,-8.789,196.289,0.000
1606141827.310,212.402,25.391,6.836,772.461,0.000
1606141827.313,83.008,13.184,4.883,321.777,0.000
1606141827.317,-143.555,-2.441,-7.324,-557.129,0.000
1606141827.321,-174.805,-3.418,-13.184,-743.164,0.000
1606141827.325,37.109,12.207,-10.254,29.785,0.000
1606141827.329,190.918,23.926,0.488,698.730,0.000
1606141827.333,95.215,17.090,0.000,405.762,0.000
1606141827.337,-122.070,-2.441,-15.137,-480.469,0.000
1606141827.341,-186.035,-10.742,-20.996,-787.109,0.000
1606141827.345,-4.883,-2.930,-14.160,-96.680,0.000
1606141827.349,169.434,10.742,-5.859,639.648,0.000
1606141827.353,109.375,7.812,-4.395,488.770,0.000
1606141827.356,-108.398,-10.742,-12.695,-369.141,0.000
1606141827.360,-198.242,-13.184,-15.137,-783.691,0.000
1606141827.364,-39.062,-2.930,-4.395,-198.730,0.000
1606141827.368,158.203,13.184,3.418,583.008,0.000
1606141827.372,136.230,14.648,5.371,565.430,0.000
1606141827.376,-75.684,1.465,2.930,-237.793,0.000
1606141827.380,-188.477,2.930,-0.488,-726.074,0.000
1606141827.384,-60.547,-0.977,3.418,-276.367,0.000
1606141827.388,144.531,-2.441,15.137,516.113,0.000
1606141827.392,165.039,2.930,15.137,631.348,0.000
1606141827.395,-30.762,-8.301,5.859,-114.258,0.000
1606141827.399,-178.711,0.488,-2.441,-690.918,0.000
1606141827.403,-83.008,10.254,0.000,-357.910,0.000
1606141827.407,114.258,0.000,10.742,448.730,0.000
1606141827.411,149.414,3.418,9.766,666.016,0.000
1606141827.415,-24.414,-9.277,0.000,-22.949,0.000
1606141827.419,-188.965,-24.902,-9.766,-673.340,0.000
1606141827.423,-125.488,-18.066,-5.371,-470.703,0.000
1606141827.427,86.914,-7.324,6.348,353.516,0.000
1606141827.431,175.293,-3.418,6.836,691.895,0.000
1606141827.435,29.297,1.465,-6.348,99.121,0.000
1606141827.438,-142.090,-13.184,-12.695,-601.562,0.000
1606141827.442,-103.027,-16.602,-11.719,-536.621,0.000
1606141827.446,105.469,9.766,-9.277,250.977,0.000
1606141827.450,223.633,21.484,-5.859,679.688,0.000
1606141827.454,85.938,11.230,-20.020,203.613,0.000
1606141827.458,-121.582,0.488,-29.785,-530.762,0.000
1606141827.462,-120.605,3.906,-16.113,-550.781,0.000
1606141827.466,48.340,6.348,-2.930,192.871,0.000
1606141827.470,150.391,12.207,-4.395,668.945,0.000
1606141827.474,59.082,4.883,-12.207,315.918,0.000
1606141827.478,-127.441,-0.977,-20.020,-457.031,0.000
1606141827.481,-160.156,8.789,-22.461,-646.484,0.000
1606141827.485,10.742,5.371,-11.719,29.785,0.000
1606141827.489,150.879,4.883,-3.418,640.137,0.000
1606141827.493,83.496,1.953,-7.812,403.320,0.000
1606141827.497,-109.863,-12.695,-18.066,-391.602,0.000
1606141827.501,-169.922,-20.996,-23.926,-686.035,0.000
1606141827.505,-1.465,-6.836,-16.602,-76.172,0.000
1606141827.509,168.457,6.348,-7.324,589.844,0.000
1606141827.513,136.230,0.000,-8.789,467.285,0.000
1606141827.517,-49.316,-15.137,-17.578,-311.035,0.000
1606141827.520,-139.648,-23.926,-23.438,-693.848,0.000
1606141827.524,-18.555,-17.090,-13.672,-189.941,0.000
1606141827.528,153.809,-0.977,1.953,530.762,0.000
1606141827.532,134.766,-1.953,-1.953,538.574,0.000
1606141827.536,-62.988,-19.531,-10.254,-213.867,0.000
1606141827.540,-170.410,-29.297,-19.043,-688.965,0.000
1606141827.544,-53.711,-22.461,-17.090,-281.738,0.000
1606141827.548,130.859,-10.254,-2.930,484.375,0.000
1606141827.552,146.973,-10.742,-2.441,623.535,0.000
1606141827.556,-39.551,-22.461,-14.160,-114.258,0.000
1606141827.560,-152.344,-28.320,-17.578,-647.949,0.000
1606141827.563,-59.570,-20.996,-8.301,-310.547,0.000
1606141827.567,104.492,-9.277,-1.465,420.410,0.000
1606141827.571,150.879,-8.789,-4.395,663.574,0.000
1606141827.575,-5.859,-21.973,-15.137,13.672,0.000
1606141827.579,-171.875,-34.668,-22.461,-642.090,0.000
1606141827.583,-136.719,-37.109,-16.113,-454.102,0.000
1606141827.587,76.660,-19.531,-4.395,367.676,0.000
1606141827.591,159.668,-14.160,-3.418,721.191,0.000
1606141827.595,10.254,-26.367,-11.719,152.344,0.000
1606141827.599,-154.297,-33.691,-17.090,-559.570,0.000
1606141827.603,-138.672,-30.273,-14.648,-514.160,0.000
1606141827.606,58.594,-12.695,-3.418,280.273,0.000
1606141827.610,166.016,-1.465,1.465,749.023,0.000
1606141827.614,44.434,-10.254,-7.812,293.457,0.000
1606141827.618,-131.348,-16.602,-20.508,-463.867,0.000
1606141827.622,-143.066,-18.555,-20.020,-545.898,0.000
1606141827.626,32.227,-19.043,-12.695,187.988,0.000
1606141827.630,147.949,-6.348,-6.348,720.215,0.000
1606141827.634,58.105,-10.742,-7.812,365.723,0.000
1606141827.638,-123.535,-25.879,-15.625,-426.270,0.000
1606141827.642,-160.156,-22.461,-19.531,-637.207,0.000
1606141827.645,4.883,-2.441,-14.160,33.203,0.000
1606141827.649,150.391,6.836,0.000,644.531,0.000
1606141827.653,97.168,-13.184,1.953,400.391,0.000
1606141827.657,-101.562,-27.832,-16.113,-395.996,0.000
1606141827.661,-168.945,-7.812,-24.414,-688.965,0.000
1606141827.665,-13.672,-8.789,-11.230,-100.098,0.000
1606141827.669,155.762,-12.695,-6.348,579.590,0.000
1606141827.673,107.422,0.977,-12.695,469.727,0.000
1606141827.677,-108.887,-4.395,-17.090,-327.148,0.000
1606141827.681,-222.656,-16.602,-16.113,-742.188,0.000
1606141827.685,-123.047,-9.277,0.000,-254.883,0.000
1606141827.688,32.715,8.789,15.137,445.312,0.000
1606141827.692,5.371,5.859,11.719,450.195,0.000
1606141827.696,-195.801,-12.695,-1.465,-294.922,0.000
1606141827.700,-312.500,-18.555,-0.488,-772.949,0.000
1606141827.704,-230.469,-12.207,11.230,-388.184,0.000
1606141827.708,-58.594,5.371,21.973,362.793,0.000
1606141827.712,-34.668,4.883,30.273,503.418,0.000
1606141827.716,-214.844,-16.602,26.855,-188.477,0.000
1606141827.720,-356.445,0.977,15.625,-763.672,0.000
1606141827.724,-284.180,0.488,13.184,-503.418,0.000
1606141827.728,-87.402,-20.508,19.043,263.672,0.000
1606141827.731,-31.250,-13.672,19.043,504.395,0.000
1606141827.735,-169.922,-23.438,9.277,-102.051,0.000
1606141827.739,-288.574,-32.715,1.465,-698.242,0.000
1606141827.743,-220.703,-25.879,-2.441,-528.809,0.000
1606141827.747,-12.695,-13.184,-1.953,247.070,0.000
1606141827.751,79.102,-8.789,1.953,620.605,0.000
1606141827.755,-35.645,-27.832,-3.418,118.164,0.000
1606141827.759,-194.336,-30.762,-18.555,-572.266,0.000
1606141827.763,-184.570,2.930,-24.414,-562.012,0.000
1606141827.767,13.184,-9.766,-15.625,193.359,0.000
1606141827.770,134.277,-22.949,-4.395,646.973,0.000
1606141827.774,39.062,-24.414,-9.766,223.145,0.000
1606141827.778,-131.348,-39.551,-25.391,-498.047,0.000
1606141827.782,-131.348,-41.504,-21.973,-583.984,0.000
1606141827.786,59.570,-26.855,-8.789,134.766,0.000
1606141827.790,189.941,-16.113,-11.230,678.223,0.000
1606141827.794,113.770,-22.461,-15.625,353.516,0.000
1606141827.798,-48.828,-28.809,-21.484,-400.391,0.000
1606141827.802,-87.891,-27.832,-31.738,-605.469,0.000
1606141827.806,54.199,-22.949,-21.484,35.156,0.000
1606141827.810,187.012,-15.625,-4.395,649.902,0.000
1606141827.813,131.348,-20.508,-6.836,452.637,0.000
1606141827.817,-50.781,-27.832,-17.578,-299.316,0.000
1606141827.821,-126.465,-20.020,-22.461,-623.047,0.000
1606141827.825,16.602,-21.484,-14.160,-88.867,0.000
1606141827.829,183.594,-18.066,-6.348,582.520,0.000
1606141827.833,152.832,-18.555,-15.137,522.949,0.000
1606141827.837,-27.344,-41.016,-25.879,-235.352,0.000
1606141827.841,-120.117,-49.805,-25.879,-656.738,0.000
1606141827.845,0.000,-37.109,-14.160,-162.109,0.000
1606141827.849,167.480,-25.879,-2.930,560.547,0.000
1606141827.853,164.062,-26.367,-5.859,586.914,0.000
1606141827.856,-15.625,-40.039,-17.090,-148.926,0.000
1606141827.860,-135.742,-37.598,-28.320,-670.898,0.000
1606141827.864,-50.781,-27.832,-20.020,-298.828,0.000
1606141827.868,142.578,-25.879,-6.348,465.820,0.000
1606141827.872,184.082,-24.414,-5.859,629.883,0.000
1606141827.876,12.207,-38.086,-15.137,-50.781,0.000
1606141827.880,-126.953,-41.992,-26.855,-637.695,0.000
1606141827.884,-62.012,-37.109,-20.996,-382.324,0.000
1606141827.888,136.230,-26.855,-6.836,396.973,0.000
1606141827.892,199.707,-18.555,-4.883,677.734,0.000
1606141827.895,40.527,-26.367,-7.812,59.082,0.000
1606141827.899,-126.465,-25.391,-16.113,-625.488,0.000
1606141827.903,-90.820,-14.648,-18.066,-493.652,0.000
1606141827.907,114.746,-13.672,-6.836,306.641,0.000
1606141827.911,201.172,-5.859,-1.953,680.176,0.000
1606141827.915,48.828,-16.602,-8.301,132.812,0.000
1606141827.919,-128.906,-31.738,-14.648,-592.285,0.000
1606141827.923,-110.840,-27.344,-16.113,-579.590,0.000
1606141827.927,95.703,-10.742,-10.254,192.383,0.000
1606141827.931,208.008,-2.441,-6.836,675.781,0.000
1606141827.935,63.477,-11.230,-13.672,243.164,0.000
1606141827.938,-117.676,-22.461,-23.438,-530.762,0.000
1606141827.942,-124.023,-22.461,-25.391,-639.648,0.000
1606141827.946,60.547,-11.719,-15.137,98.633,0.000
1606141827.950,174.805,-4.395,-11.230,656.250,0.000
1606141827.954,85.938,-13.672,-16.602,331.055,0.000
1606141827.958,-102.051,-22.461,-25.391,-457.520,0.000
1606141827.962,-142.090,-20.996,-24.414,-690.430,0.000
1606141827.966,32.227,-4.883,-13.672,-12.695,0.000
1606141827.970,187.500,8.789,-5.371,650.391,0.000
1606141827.974,134.766,0.977,-9.766,449.707,0.000
1606141827.978,-95.215,-20.020,-21.484,-365.234,0.000
1606141827.981,-169.434,-31.250,-24.902,-720.703,0.000
1606141827.985,-21.484,-21.484,-17.090,-121.582,0.000
1606141827.989,156.250,-4.395,-5.371,611.816,0.000
1606141827.993,135.254,-11.719,-2.441,513.672,0.000
1606141827.997,-86.426,-20.020,-13.184,-296.387,0.000
1606141828.001,-187.012,-13.184,-20.508,-731.934,0.000
1606141828.005,-47.363,-12.207,-14.160,-243.164,0.000
1606141828.009,147.461,-7.324,-4.395,519.531,0.000
1606141828.013,148.438,-5.859,-9.766,565.430,0.000
1606141828.017,-54.199,-24.414,-25.391,-204.590,0.000
1606141828.020,-178.223,-31.738,-31.250,-743.652,0.000
1606141828.024,-76.660,-25.879,-24.902,-365.723,0.000
1606141828.028,147.461,-12.207,-15.625,431.641,0.000
1606141828.032,169.922,-5.859,-12.695,602.051,0.000
1606141828.036,-35.156,-15.625,-15.625,-85.938,0.000
1606141828.040,-180.664,-8.301,-27.344,-716.797,0.000
1606141828.044,-111.328,-2.441,-27.344,-483.398,0.000
1606141828.048,105.469,-3.906,-10.742,342.773,0.000
1606141828.052,132.812,-2.441,-2.930,632.324,0.000
1606141828.056,-13.672,-17.090,-12.207,10.742,0.000
1606141828.060,-166.992,-28.809,-28.320,-679.688,0.000
1606141828.063,-146.973,-27.832,-23.438,-569.824,0.000
1606141828.067,64.941,-15.625,-5.859,258.789,0.000
1606141828.071,163.086,-9.766,-11.230,690.918,0.000
1606141828.075,42.480,-17.578,-23.438,164.062,0.000
1606141828.079,-152.344,-35.156,-22.461,-605.957,0.000
1606141828.083,-174.316,-41.504,-19.043,-600.098,0.000
1606141828.087,65.918,-26.855,-13.184,208.008,0.000
1606141828.091,180.664,-19.043,-10.254,702.637,0.000
1606141828.095,72.266,-25.391,-19.531,290.039,0.000
1606141828.099,-90.820,-20.508,-34.180,-469.238,0.000
1606141828.103,-93.750,-16.113,-35.645,-595.215,0.000
1606141828.106,96.191,-19.531,-17.578,145.996,0.000
1606141828.110,213.867,-8.789,-6.836,733.887,0.000
1606141828.114,144.531,-12.207,-9.766,442.383,0.000
1606141828.118,-43.945,-30.762,-9.277,-339.355,0.000
1606141828.122,-86.426,-31.738,-12.207,-597.168,0.000
1606141828.126,88.867,-18.066,-7.324,69.824,0.000
1606141828.130,231.934,-9.766,1.465,739.258,0.000
1606141828.134,187.012,-18.555,-5.371,550.293,0.000
1606141828.138,-19.531,-26.855,-19.043,-268.066,0.000
1606141828.142,-96.191,-7.324,-25.391,-635.742,0.000
1606141828.145,62.500,0.977,-8.301,-52.734,0.000
1606141828.149,214.844,-7.812,-2.441,661.133,0.000
1606141828.153,175.293,-13.184,-14.160,583.496,0.000
1606141828.157,-12.207,-25.879,-19.531,-202.637,0.000
1606141828.161,-99.609,-30.762,-21.973,-634.766,0.000
1606141828.165,8.301,-23.926,-11.230,-167.480,0.000
1606141828.169,192.871,-9.277,-4.395,563.477,0.000
1606141828.173,187.500,-7.812,-4.883,607.422,0.000
1606141828.177,0.000,-15.625,-18.555,-108.887,0.000
1606141828.181,-110.352,-18.555,-34.668,-645.020,0.000
1606141828.185,-41.504,-21.973,-26.367,-314.941,0.000
1606141828.188,146.484,-7.324,-5.859,475.098,0.000
1606141828.192,207.031,0.977,-0.488,662.109,0.000
1606141828.196,34.180,-12.695,-17.090,-14.648,0.000
1606141828.200,-141.602,-29.297,-21.484,-626.953,0.000
1606141828.204,-75.684,-26.367,-16.602,-407.227,0.000
1606141828.208,118.652,-10.254,-4.883,377.930,0.000
1606141828.212,182.129,-7.324,-5.859,675.293,0.000
1606141828.216,38.574,-17.578,-15.137,80.078,0.000
1606141828.220,-101.562,-12.207,-20.508,-579.102,0.000
1606141828.224,-92.773,-10.742,-20.996,-451.172,0.000
1606141828.228,80.566,-11.230,-11.230,305.176,0.000
1606141828.231,187.012,-3.418,-5.859,666.504,0.000
1606141828.235,60.059,-20.020,-17.578,168.457,0.000
1606141828.239,-122.070,-20.996,-26.367,-528.809,0.000
1606141828.243,-119.141,-12.695,-18.555,-533.203,0.000
1606141828.247,80.078,-10.254,-5.371,168.945,0.000
1606141828.251,188.477,-5.859,-0.977,613.281,0.000
1606141828.255,55.176,-20.996,-8.301,221.680,0.000
1606141828.259,-101.074,-23.926,-16.113,-470.703,0.000
1606141828.263,-101.074,-20.996,-15.137,-570.801,0.000
1606141828.267,56.152,-14.648,-7.324,65.430,0.000
1606141828.270,151.367,-6.348,-9.277,565.918,0.000
1606141828.274,93.750,-18.555,-13.672,283.203,0.000
1606141828.278,-74.219,-19.531,-16.602,-399.902,0.000
1606141828.282,-135.254,-15.625,-19.531,-582.031,0.000
1606141828.286,30.273,-25.879,-13.184,-43.945,0.000
1606141828.290,128.418,-22.949,-6.836,449.707,0.000
1606141828.294,62.988,-25.391,-7.812,285.645,0.000
1606141828.298,-84.961,-40.039,-13.672,-333.008,0.000
1606141828.302,-139.648,-39.062,-14.160,-568.848,0.000
1606141828.306,3.418,-22.949,-9.766,-89.355,0.000
1606141828.310,123.047,-17.090,-2.930,423.828,0.000
1606141828.313,102.539,-14.648,-1.465,350.098,0.000
1606141828.317,-13.672,-26.367,-10.254,-213.379,0.000
1606141828.321,-90.820,-50.293,-23.438,-540.039,0.000
1606141828.325,-15.625,-38.086,-17.090,-190.918,0.000
1606141828.329,117.188,-18.066,-2.930,376.465,0.000
1606141828.333,101.562,-21.484,-4.395,398.926,0.000
1606141828.337,-39.062,-31.738,-18.066,-176.270,0.000
1606141828.341,-133.301,-34.668,-22.461,-560.547,0.000
1606141828.345,-59.570,-34.668,-20.020,-284.180,0.000
1606141828.349,41.992,-36.133,-9.766,309.082,0.000
1606141828.353,71.777,-26.367,-4.883,439.453,0.000
1606141828.356,-5.371,-26.855,-28.320,-102.539,0.000
1606141828.360,-103.027,-47.852,-18.555,-532.715,0.000
1606141828.364,-64.453,-41.504,-8.301,-310.059,0.000
1606141828.368,65.918,-28.320,-17.090,301.270,0.000
1606141828.372,117.188,-32.227,-11.230,511.719,0.000
1606141828.376,17.090,-36.621,-20.020,16.602,0.000
1606141828.380,-88.379,-39.062,-26.367,-488.281,0.000
1606141828.384,-62.500,-32.227,-20.996,-353.516,0.000
1606141828.388,86.914,-32.227,-3.418,271.973,0.000
1606141828.392,169.922,-35.156,6.348,560.547,0.000
1606141828.395,43.945,-32.227,-0.977,168.457,0.000
1606141828.399,-102.051,-35.156,-5.371,-410.645,0.000
1606141828.403,-47.852,-35.156,-6.348,-367.188,0.000
1606141828.407,84.473,-22.949,-4.883,248.535,0.000
1606141828.411,123.047,-20.508,-1.465,558.105,0.000
1606141828.415,68.359,-26.855,-12.207,254.395,0.000
1606141828.419,-62.012,-33.203,-24.414,-346.191,0.000
1606141828.423,-98.145,-28.320,-23.438,-449.707,0.000
1606141828.427,52.246,-16.602,-10.254,133.789,0.000
1606141828.431,163.086,-9.277,-5.859,582.031,0.000
1606141828.435,98.633,-17.090,-12.207,334.473,0.000
1606141828.438,-36.133,-29.785,-20.996,-301.758,0.000
1606141828.442,-73.242,-20.508,-29.785,-480.469,0.000
1606141828.446,48.340,-14.648,-14.160,53.711,0.000
1606141828.450,160.156,-12.695,1.465,556.152,0.000
1606141828.454,151.855,-2.441,-5.371,399.414,0.000
1606141828.458,4.883,-7.812,-13.672,-243.164,0.000
1606141828.462,-92.773,-22.461,-9.766,-511.230,0.000
1606141828.466,34.180,-11.230,-5.859,-38.574,0.000
1606141828.470,172.852,5.859,-4.883,517.090,0.000
1606141828.474,143.066,-2.441,-3.418,442.383,0.000
1606141828.478,-1.953,-12.207,-17.090,-184.082,0.000
1606141828.481,-80.078,-19.531,-26.367,-524.902,0.000
1606141828.485,-8.301,-18.066,-17.090,-147.461,0.000
1606141828.489,129.395,-1.953,-12.207,431.641,0.000
1606141828.493,136.719,-2.441,-15.625,465.820,0.000
1606141828.497,-17.090,-15.625,-16.602,-113.770,0.000
1606141828.501,-118.652,-19.531,-21.973,-500.977,0.000
1606141828.505,-37.598,-11.230,-20.020,-214.355,0.000
1606141828.509,104.980,-5.371,-7.812,370.605,0.000
1606141828.513,120.605,-7.812,-8.301,510.254,0.000
1606141828.517,-11.230,-22.461,-18.066,-25.391,0.000
1606141828.520,-110.840,-0.977,-17.578,-475.098,0.000
1606141828.524,-52.734,16.602,-13.672,-292.969,0.000
1606141828.528,108.398,-5.371,-7.324,299.316,0.000
1606141828.532,151.855,-10.254,-6.348,521.484,0.000
1606141828.536,23.926,-17.090,-11.719,57.129,0.000
1606141828.540,-99.609,-19.043,-22.461,-474.609,0.000
1606141828.544,-71.777,-15.625,-28.320,-387.695,0.000
1606141828.548,85.449,-8.789,-18.066,250.977,0.000
1606141828.552,152.832,-4.395,-12.695,541.992,0.000
1606141828.556,40.527,-12.695,-19.531,125.000,0.000
1606141828.560,-101.074,-22.461,-24.414,-439.453,0.000
1606141828.563,-90.332,-25.879,-21.484,-446.777,0.000
1606141828.567,63.965,-17.090,-14.648,147.461,0.000
1606141828.571,137.695,-10.742,-18.066,496.582,0.000
1606141828.575,43.945,-13.672,-27.344,162.109,0.000
1606141828.579,-88.379,-22.949,-29.297,-401.855,0.000
1606141828.583,-109.375,-28.320,-17.578,-500.977,0.000
1606141828.587,16.602,-18.555,-8.301,30.273,0.000
1606141828.591,108.398,-9.277,-3.906,460.449,0.000
1606141828.595,23.926,-24.902,-7.812,217.773,0.000
1606141828.599,-128.418,-11.230,-19.531,-377.441,0.000
1606141828.603,-171.387,12.207,-16.602,-542.480,0.000
1606141828.606,-47.363,-12.207,-4.395,-53.711,0.000
1606141828.610,83.496,-17.090,3.418,435.059,0.000
1606141828.614,56.641,-15.137,-1.465,323.242,0.000
1606141828.618,-90.820,-31.250,-12.207,-274.414,0.000
1606141828.622,-148.438,-41.992,-12.695,-549.316,0.000
1606141828.626,-33.203,-36.133,-9.766,-122.559,0.000
1606141828.630,96.680,-27.344,-3.418,435.547,0.000
1606141828.634,90.820,-31.250,-3.418,403.320,0.000
1606141828.638,-54.199,-38.574,-11.719,-208.008,0.000
1606141828.642,-146.973,-44.922,-18.066,-560.547,0.000
1606141828.645,-44.922,-35.645,-17.578,-186.523,0.000
1606141828.649,96.191,-29.785,-17.090,395.996,0.000
1606141828.653,74.219,-41.016,-13.184,429.199,0.000
1606141828.657,-71.289,-53.711,-15.137,-145.996,0.000
1606141828.661,-145.020,-54.688,-26.855,-551.758,0.000
1606141828.665,-68.848,-41.504,-18.555,-273.438,0.000
1606141828.669,78.125,-33.691,-3.906,313.965,0.000
1606141828.673,90.820,-31.250,-7.812,451.172,0.000
1606141828.677,-47.852,-35.156,-18.555,-56.641,0.000
1606141828.681,-141.113,-43.945,-22.949,-521.973,0.000
1606141828.685,-101.562,-45.898,-21.484,-346.191,0.000
1606141828.688,47.852,-31.738,-14.648,288.574,0.000
1606141828.692,102.051,-21.484,-3.418,537.109,0.000
1606141828.696,-27.832,-37.109,-5.371,66.895,0.000
1606141828.700,-153.320,-40.527,-15.625,-475.098,0.000
1606141828.704,-121.094,-32.715,-9.766,-405.273,0.000
1606141828.708,28.809,-28.809,1.953,208.496,0.000
1606141828.712,84.961,-22.949,0.977,513.672,0.000
1606141828.716,-16.113,-32.715,-12.695,118.652,0.000
1606141828.720,-154.297,-47.363,-17.578,-441.406,0.000
1606141828.724,-155.762,-46.387,-14.160,-437.988,0.000
1606141828.728,-2.441,-31.738,-6.348,140.137,0.000
1606141828.731,95.703,-21.973,-4.395,533.203,0.000
1606141828.735,15.625,-25.391,-12.695,233.887,0.000
1606141828.739,-125.000,-33.203,-20.508,-367.188,0.000
1606141828.743,-142.090,-38.574,-22.949,-461.426,0.000
1606141828.747,-11.719,-30.273,-13.672,83.984,0.000
1606141828.751,101.074,-18.555,-7.812,510.254,0.000
1606141828.755,42.480,-12.695,-7.324,292.480,0.000
1606141828.759,-95.215,-21.973,-12.207,-308.105,0.000
1606141828.763,-126.465,-32.227,-23.438,-495.605,0.000
1606141828.767,-30.273,-24.414,-17.090,-3.906,0.000
1606141828.770,93.750,-13.672,-3.418,490.234,0.000
1606141828.774,62.500,-20.996,-5.859,359.375,0.000
1606141828.778,-88.379,-35.156,-23.926,-257.324,0.000
1606141828.782,-140.137,-33.691,-28.320,-528.809,0.000
1606141828.786,-43.457,-29.297,-20.020,-95.703,0.000
1606141828.790,79.590,-22.949,-15.625,437.500,0.000
1606141828.794,65.918,-24.902,-19.531,395.020,0.000
1606141828.798,-67.871,-28.320,-29.785,-192.871,0.000
1606141828.802,-143.555,-16.113,-37.109,-528.320,0.000
1606141828.806,-62.500,-17.090,-28.809,-191.406,0.000
1606141828.810,80.566,-15.625,-19.531,383.789,0.000
1606141828.813,79.102,-13.672,-23.926,454.102,0.000
1606141828.817,-53.711,-15.137,-37.598,-114.258,0.000
1606141828.821,-136.230,-13.672,-39.551,-520.996,0.000
1606141828.825,-90.820,-22.949,-25.879,-293.457,0.000
1606141828.829,59.082,-8.301,-21.484,310.547,0.000
1606141828.833,104.004,-0.488,-20.996,490.234,0.000
1606141828.837,-19.043,-12.695,-24.414,-38.086,0.000
1606141828.841,-130.371,-15.137,-32.227,-517.090,0.000
1606141828.845,-89.355,-20.020,-31.250,-362.305,0.000
1606141828.849,67.383,-13.672,-23.438,290.039,0.000
1606141828.853,133.789,-8.789,-14.648,561.035,0.000
1606141828.856,22.461,-18.555,-18.555,89.844,0.000
1606141828.860,-124.512,-33.691,-25.391,-448.730,0.000
1606141828.864,-97.168,-35.645,-23.926,-373.047,0.000
1606141828.868,55.664,-18.555,-21.484,226.562,0.000
1606141828.872,128.418,-11.230,-20.508,531.250,0.000
1606141828.876,61.035,-19.043,-25.879,151.367,0.000
1606141828.880,-80.078,-22.461,-27.344,-388.184,0.000
1606141828.884,-106.934,-11.719,-26.367,-396.484,0.000
1606141828.888,45.410,-16.602,-18.555,159.180,0.000
1606141828.892,127.441,-24.414,-8.789,535.645,0.000
1606141828.895,61.035,-21.484,-12.695,253.906,0.000
1606141828.899,-72.754,-24.902,-21.484,-350.586,0.000
1606141828.903,-113.281,-30.762,-21.973,-489.746,0.000
1606141828.907,9.277,-25.879,-14.160,63.477,0.000
1606141828.911,116.699,-20.508,-8.789,533.203,0.000
1606141828.915,47.363,-24.414,-13.672,317.871,0.000
1606141828.919,-91.797,-34.180,-28.809,-310.547,0.000
1606141828.923,-142.578,-41.016,-26.367,-512.695,0.000
1606141828.927,-22.949,-24.414,-23.926,-36.133,0.000
1606141828.931,107.422,-18.555,-16.113,463.379,0.000
1606141828.935,72.266,-32.715,-17.090,354.980,0.000
1606141828.938,-96.680,-31.738,-30.762,-249.512,0.000
1606141828.942,-159.180,-26.855,-29.297,-526.855,0.000
1606141828.946,-35.645,-27.832,-26.367,-136.230,0.000
1606141828.950,72.266,-20.508,-23.438,389.160,0.000
1606141828.954,85.449,-21.484,-25.879,384.766,0.000
1606141828.958,-46.387,-28.320,-31.250,-172.852,0.000
1606141828.962,-166.992,-29.785,-34.668,-540.527,0.000
1606141828.966,-66.895,-22.949,-31.250,-239.746,0.000
1606141828.970,91.309,-13.672,-19.043,346.191,0.000
1606141828.974,106.934,-10.742,-14.648,458.984,0.000
1606141828.978,-33.203,-30.273,-21.973,-95.703,0.000
1606141828.981,-149.902,-40.527,-30.762,-546.875,0.000
1606141828.985,-88.867,-34.180,-25.391,-309.082,0.000
1606141828.989,76.172,-27.344,-12.207,302.246,0.000
1606141828.993,114.258,-23.438,-12.695,461.914,0.000
1606141828.997,-14.648,-28.809,-21.973,-41.992,0.000
1606141829.001,-132.324,-35.156,-26.855,-521.484,0.000
1606141829.005,-96.680,-34.180,-23.438,-375.488,0.000
1606141829.009,60.059,-23.926,-14.648,234.863,0.000
1606141829.013,112.793,-21.484,-8.789,479.980,0.000
1606141829.017,-11.719,-31.738,-16.602,39.062,0.000
1606141829.020,-143.066,-46.387,-23.926,-490.234,0.000
1606141829.024,-113.281,-39.551,-22.949,-446.289,0.000
1606141829.028,45.410,-21.484,-16.113,155.762,0.000
1606141829.032,119.629,-22.949,-9.766,485.840,0.000
1606141829.036,21.973,-28.320,-18.066,116.211,0.000
1606141829.040,-116.211,-34.668,-26.855,-459.961,0.000
1606141829.044,-120.117,-36.133,-22.461,-509.277,0.000
1606141829.048,21.973,-28.809,-13.184,71.289,0.000
1606141829.052,114.258,-22.461,-10.254,478.027,0.000
1606141829.056,37.598,-21.484,-14.648,209.473,0.000
1606141829.060,-99.121,-25.879,-22.461,-382.324,0.000
1606141829.063,-113.770,-27.344,-27.832,-514.648,0.000
1606141829.067,16.602,-21.973,-18.555,18.066,0.000
1606141829.071,110.352,-19.531,-2.441,468.262,0.000
1606141829.075,49.316,-30.762,-1.953,266.113,0.000
1606141829.079,-99.121,-40.527,-13.184,-345.703,0.000
1606141829.083,-150.391,-32.227,-18.066,-565.918,0.000
1606141829.087,-34.180,-21.484,-6.836,-100.098,0.000
1606141829.091,82.520,-24.414,-4.395,408.691,0.000
1606141829.095,46.387,-34.668,-8.301,313.965,0.000
1606141829.099,-96.191,-42.480,-11.719,-273.438,0.000
1606141829.103,-157.715,-45.898,-10.742,-561.035,0.000
1606141829.106,-53.711,-34.668,-1.465,-165.039,0.000
1606141829.110,79.102,-22.949,3.418,394.531,0.000
1606141829.114,65.918,-24.902,0.488,400.879,0.000
1606141829.118,-69.336,-34.668,-11.230,-181.152,0.000
1606141829.122,-153.809,-35.156,-19.531,-555.664,0.000
1606141829.126,-82.520,-34.668,-16.113,-256.348,0.000
1606141829.130,57.129,-31.250,-11.230,325.195,0.000
1606141829.134,70.801,-31.738,-10.742,428.711,0.000
1606141829.138,-61.523,-37.109,-12.207,-111.328,0.000
1606141829.142,-163.574,-41.992,-16.602,-548.828,0.000
1606141829.145,-104.004,-35.156,-10.254,-321.777,0.000
1606141829.149,45.410,-23.438,-3.418,280.273,0.000
1606141829.153,86.914,-22.949,-6.836,455.566,0.000
1606141829.157,-31.738,-30.762,-10.742,-29.297,0.000
1606141829.161,-142.090,-49.805,-17.090,-502.930,0.000
1606141829.165,-105.957,-50.293,-18.555,-377.441,0.000
1606141829.169,30.273,-36.133,-14.648,214.355,0.000
1606141829.173,88.379,-30.273,-10.742,486.816,0.000
1606141829.177,-11.230,-32.715,-14.648,71.777,0.000
1606141829.181,-132.812,-41.992,-23.438,-460.938,0.000
1606141829.185,-115.234,-41.504,-20.508,-423.828,0.000
1606141829.188,24.414,-34.180,-14.160,159.668,0.000
1606141829.192,97.168,-29.785,-11.230,503.906,0.000
1606141829.196,12.695,-35.156,-16.113,159.180,0.000
1606141829.200,-113.770,-42.480,-19.043,-414.551,0.000
1606141829.204,-116.699,-37.109,-14.648,-468.750,0.000
1606141829.208,24.414,-25.391,-6.836,98.145,0.000
1606141829.212,110.840,-24.414,-4.395,496.094,0.000
1606141829.216,38.574,-35.645,-11.230,231.445,0.000
1606141829.220,-101.562,-40.039,-19.043,-364.746,0.000
1606141829.224,-140.137,-34.668,-22.461,-511.230,0.000
1606141829.228,-8.789,-33.203,-11.230,15.625,0.000
1606141829.231,104.492,-27.832,-2.930,495.117,0.000
1606141829.235,55.664,-29.297,-6.348,328.613,0.000
1606141829.239,-91.797,-41.504,-10.742,-278.320,0.000
1606141829.243,-145.508,-44.434,-14.648,-515.625,0.000
1606141829.247,-30.762,-29.785,-11.719,-60.547,0.000
1606141829.251,89.844,-19.043,-6.348,469.727,0.000
1606141829.255,62.012,-20.020,-7.324,396.484,0.000
1606141829.259,-86.426,-35.156,-16.113,-214.355,0.000
1606141829.263,-154.297,-49.316,-18.066,-533.691,0.000
1606141829.267,-52.246,-35.645,-9.277,-145.508,0.000
1606141829.270,79.102,-23.438,-4.395,416.992,0.000
1606141829.274,65.918,-28.320,-7.812,429.199,0.000
1606141829.278,-75.195,-35.645,-17.578,-146.973,0.000
1606141829.282,-154.785,-36.621,-19.043,-533.691,0.000
1606141829.286,-69.824,-35.645,-15.137,-236.328,0.000
1606141829.290,71.777,-31.250,-16.602,358.887,0.000
1606141829.294,81.543,-24.902,-18.066,468.262,0.000
1606141829.298,-51.758,-36.621,-19.043,-67.871,0.000
1606141829.302,-144.531,-49.316,-24.902,-501.953,0.000
1606141829.306,-70.801,-28.809,-18.555,-290.039,0.000
1606141829.310,53.223,-6.348,-11.230,284.668,0.000
1606141829.313,68.359,-1.953,-13.672,443.848,0.000
1606141829.317,-41.016,-8.301,-18.066,-28.320,0.000
1606141829.321,-160.156,-22.949,-27.832,-526.855,0.000
1606141829.325,-142.090,-23.926,-31.250,-425.781,0.000
1606141829.329,5.371,-13.184,-28.320,182.129,0.000
1606141829.333,74.219,-10.742,-25.879,459.961,0.000
1606141829.337,-42.969,-22.461,-25.391,54.199,0.000
1606141829.341,-169.434,-38.574,-33.691,-478.027,0.000
1606141829.345,-133.301,-35.645,-40.527,-450.195,0.000
1606141829.349,20.508,-21.484,-31.250,157.227,0.000
1606141829.353,95.215,-23.438,-22.461,522.949,0.000
1606141829.356,13.672,-33.691,-25.391,186.035,0.000
1606141829.360,-112.305,-50.293,-30.762,-397.461,0.000
1606141829.364,-116.699,-52.246,-29.785,-464.844,0.000
1606141829.368,11.719,-33.203,-20.020,86.914,0.000
1606141829.372,115.723,-22.949,-17.090,497.559,0.000
1606141829.376,59.570,-25.391,-20.996,255.371,0.000
1606141829.380,-103.516,-37.109,-28.809,-337.402,0.000
1606141829.384,-132.812,-37.598,-32.715,-499.512,0.000
1606141829.388,4.883,-23.438,-23.926,10.742,0.000
1606141829.392,110.840,-18.066,-17.090,498.047,0.000
1606141829.395,70.801,-20.996,-20.996,346.680,0.000
1606141829.399,-67.871,-52.734,-31.250,-263.672,0.000
1606141829.403,-128.418,-68.359,-36.133,-512.207,0.000
1606141829.407,-17.578,-38.086,-26.367,-68.848,0.000
1606141829.411,117.188,-29.297,-16.602,454.102,0.000
1606141829.415,92.285,-33.203,-20.996,380.859,0.000
1606141829.419,-67.383,-40.039,-29.785,-211.426,0.000
1606141829.423,-127.930,-40.527,-31.738,-523.926,0.000
1606141829.427,-26.855,-36.621,-24.414,-161.621,0.000
1606141829.431,99.121,-27.832,-23.926,395.996,0.000
1606141829.435,97.656,-27.344,-26.855,433.594,0.000
1606141829.438,-43.945,-33.691,-27.832,-130.371,0.000
1606141829.442,-136.719,-37.598,-30.762,-519.043,0.000
1606141829.446,-61.523,-35.645,-25.391,-233.887,0.000
1606141829.450,78.125,-28.809,-18.066,345.215,0.000
1606141829.454,94.727,-26.855,-12.207,463.379,0.000
1606141829.458,-38.086,-35.156,-18.066,-54.688,0.000
1606141829.462,-143.066,-53.711,-32.715,-507.812,0.000
1606141829.466,-88.379,-41.016,-26.855,-314.941,0.000
1606141829.470,59.082,-21.973,-17.090,287.109,0.000
1606141829.474,95.215,-23.926,-20.508,485.840,0.000
1606141829.478,-22.461,-31.250,-23.438,21.973,0.000
1606141829.481,-133.301,-39.551,-24.414,-474.121,0.000
1606141829.485,-94.727,-31.738,-21.973,-377.441,0.000
1606141829.489,56.152,-20.020,-15.137,226.562,0.000
1606141829.493,116.211,-23.438,-15.137,504.883,0.000
1606141829.497,12.695,-31.250,-20.020,102.539,0.000
1606141829.501,-119.141,-32.715,-31.250,-447.754,0.000
1606141829.505,-112.793,-33.203,-34.180,-444.824,0.000
1606141829.509,40.039,-25.391,-26.855,138.184,0.000
1606141829.513,131.348,-16.113,-21.973,504.883,0.000
1606141829.517,29.785,-25.391,-22.949,190.918,0.000
1606141829.520,-110.840,-41.504,-28.809,-378.418,0.000
1606141829.524,-115.234,-40.527,-31.250,-458.496,0.000
1606141829.528,19.043,-24.414,-25.391,81.055,0.000
1606141829.532,118.164,-14.648,-18.555,499.512,0.000
1606141829.536,60.547,-17.090,-17.090,281.738,0.000
1606141829.540,-94.238,-47.363,-29.297,-318.848,0.000
1606141829.544,-132.324,-58.594,-32.715,-504.883,0.000
1606141829.548,-5.371,-36.621,-19.043,-12.695,0.000
1606141829.552,104.492,-23.438,-13.184,466.309,0.000
1606141829.556,55.664,-25.391,-20.996,333.008,0.000
1606141829.560,-98.633,-41.992,-31.738,-265.625,0.000
1606141829.563,-151.367,-44.922,-30.273,-525.391,0.000
1606141829.567,-49.316,-35.645,-21.484,-97.656,0.000
1606141829.571,79.590,-29.785,-20.020,441.406,0.000
1606141829.575,74.219,-25.879,-20.996,400.879,0.000
1606141829.579,-71.289,-32.227,-32.715,-191.895,0.000
1606141829.583,-147.949,-38.574,-43.457,-522.461,0.000
1606141829.587,-44.434,-33.691,-36.621,-175.293,0.000
1606141829.591,84.961,-27.344,-24.414,387.695,0.000
1606141829.595,61.523,-34.180,-21.973,429.688,0.000
1606141829.599,-74.219,-51.758,-30.762,-126.465,0.000
1606141829.603,-159.668,-53.223,-33.203,-516.602,0.000
1606141829.606,-76.660,-35.645,-27.344,-250.977,0.000
1606141829.610,75.195,-25.391,-25.879,337.891,0.000
1606141829.614,105.957,-27.344,-22.461,479.004,0.000
1606141829.618,-25.879,-39.062,-22.461,-28.809,0.000
1606141829.622,-130.371,-46.875,-28.320,-483.398,0.000
1606141829.626,-75.195,-41.992,-28.809,-310.059,0.000
1606141829.630,69.824,-30.762,-20.020,294.434,0.000
1606141829.634,105.469,-30.762,-22.949,504.883,0.000
1606141829.638,-14.160,-45.898,-34.180,36.133,0.000
1606141829.642,-128.906,-101.074,-42.480,-472.656,0.000
1606141829.645,-98.633,-88.867,-37.598,-381.348,0.000
1606141829.649,49.805,-33.691,-26.367,215.332,0.000
1606141829.653,126.465,-29.785,-24.414,500.977,0.000
1606141829.657,19.531,-38.086,-28.809,123.047,0.000
1606141829.661,-127.441,-47.363,-32.715,-408.203,0.000
1606141829.665,-111.816,-41.016,-32.715,-423.828,0.000
1606141829.669,40.527,-29.297,-24.414,142.090,0.000
1606141829.673,110.352,-22.461,-16.602,515.137,0.000
1606141829.677,17.578,-34.180,-24.414,208.984,0.000
1606141829.681,-124.512,-74.707,-35.156,-380.371,0.000
1606141829.685,-144.043,-66.406,-35.156,-483.398,0.000
1606141829.688,-7.324,-27.832,-29.785,45.898,0.000
1606141829.692,90.332,-20.508,-25.879,482.910,0.000
1606141829.696,24.414,-27.344,-31.250,270.508,0.000
1606141829.700,-123.047,-39.062,-37.109,-334.473,0.000
1606141829.704,-157.227,-41.504,-36.621,-519.531,0.000
1606141829.708,-26.855,-32.715,-28.809,-36.133,0.000
1606141829.712,96.680,-24.902,-19.531,453.125,0.000
1606141829.716,54.199,-30.762,-19.531,329.102,0.000
1606141829.720,-87.402,-46.387,-24.902,-270.996,0.000
1606141829.724,-133.301,-44.922,-27.832,-533.203,0.000
1606141829.728,-24.414,-34.668,-23.926,-117.188,0.000
1606141829.731,98.633,-36.133,-23.926,404.785,0.000
1606141829.735,82.520,-31.738,-25.391,373.535,0.000
1606141829.739,-69.336,-48.828,-35.645,-210.449,0.000
1606141829.743,-147.949,-67.871,-43.945,-560.547,0.000
1606141829.747,-56.641,-45.410,-36.621,-216.309,0.000
1606141829.751,76.660,-31.250,-25.391,360.840,0.000
1606141829.755,81.543,-28.809,-22.461,432.617,0.000
1606141829.759,-61.035,-33.691,-31.250,-118.652,0.000
1606141829.763,-159.180,-42.480,-38.574,-548.828,0.000
1606141829.767,-83.984,-40.039,-35.645,-297.363,0.000
1606141829.770,72.754,-28.809,-26.367,333.008,0.000
1606141829.774,109.863,-21.484,-20.996,509.766,0.000
1606141829.778,-24.902,-41.504,-29.785,-14.648,0.000
1606141829.782,-152.344,-61.035,-37.598,-530.762,0.000
1606141829.786,-113.770,-41.016,-27.832,-372.070,0.000
1606141829.790,61.035,-24.414,-17.578,272.949,0.000
1606141829.794,121.582,-20.996,-18.066,541.016,0.000
1606141829.798,-16.602,-33.691,-24.414,84.961,0.000
1606141829.802,-155.273,-48.828,-32.715,-488.281,0.000
1606141829.806,-136.719,-45.410,-32.715,-445.801,0.000
1606141829.810,28.320,-33.203,-23.926,186.035,0.000
1606141829.813,117.188,-22.461,-24.414,556.152,0.000
1606141829.817,30.273,-24.902,-32.227,201.660,0.000
1606141829.821,-127.930,-45.898,-32.715,-418.457,0.000
1606141829.825,-151.367,-60.547,-21.973,-506.836,0.000
1606141829.829,10.742,-48.340,-6.836,101.074,0.000
1606141829.833,126.953,-30.762,-6.348,549.805,0.000
1606141829.837,46.387,-32.715,-14.160,268.555,0.000
1606141829.841,-120.605,-45.898,-22.461,-379.395,0.000
1606141829.845,-149.902,-48.828,-25.391,-551.270,0.000
1606141829.849,-7.324,-34.180,-18.555,16.113,0.000
1606141829.853,121.582,-25.879,-11.230,528.809,0.000
1606141829.856,74.707,-32.227,-10.742,340.332,0.000
1606141829.860,-100.586,-42.480,-21.484,-315.430,0.000
1606141829.864,-154.297,-43.457,-27.344,-573.242,0.000
1606141829.868,-20.020,-36.133,-20.996,-85.449,0.000
1606141829.872,118.652,-26.855,-13.184,487.793,0.000
1606141829.876,90.820,-27.832,-16.602,401.855,0.000
1606141829.880,-82.031,-31.250,-27.832,-262.207,0.000
1606141829.884,-162.109,-37.109,-30.762,-607.910,0.000
1606141829.888,-47.363,-36.133,-23.438,-183.105,0.000
1606141829.892,107.910,-25.391,-11.719,449.707,0.000
1606141829.895,107.422,-30.273,-13.184,476.562,0.000
1606141829.899,-63.477,-46.875,-24.902,-166.992,0.000
1606141829.903,-173.828,-53.223,-33.203,-604.980,0.000
1606141829.907,-77.637,-38.574,-26.367,-273.926,0.000
1606141829.911,92.285,-20.508,-12.695,404.297,0.000
1606141829.915,120.605,-22.949,-15.137,535.156,0.000
1606141829.919,-41.504,-44.922,-29.785,-79.102,0.000
1606141829.923,-167.969,-50.293,-29.785,-580.566,0.000
1606141829.927,-91.797,-39.551,-18.555,-345.703,0.000
1606141829.931,76.172,-33.203,-13.672,317.871,0.000
1606141829.935,121.582,-29.297,-10.742,542.969,0.000
1606141829.938,-16.602,-35.645,-16.602,20.508,0.000
1606141829.942,-156.250,-46.875,-27.832,-544.434,0.000
1606141829.946,-110.840,-46.875,-25.879,-426.270,0.000
1606141829.950,62.988,-32.227,-9.766,250.977,0.000
1606141829.954,131.348,-23.438,-1.953,572.754,0.000
1606141829.958,16.113,-31.250,-9.766,123.535,0.000
1606141829.962,-137.695,-48.828,-23.438,-501.953,0.000
1606141829.966,-110.352,-44.434,-22.949,-490.234,0.000
1606141829.970,63.477,-28.809,-10.254,179.199,0.000
1606141829.974,144.043,-24.414,-4.883,590.332,0.000
1606141829.978,47.363,-30.762,-13.184,215.820,0.000
1606141829.981,-124.512,-50.781,-24.902,-438.965,0.000
1606141829.985,-139.160,-54.199,-26.367,-526.855,0.000
1606141829.989,17.578,-42.969,-21.973,88.867,0.000
1606141829.993,126.953,-30.273,-16.113,562.500,0.000
1606141829.997,52.734,-28.809,-19.043,296.875,0.000
1606141830.001,-114.746,-41.992,-28.320,-367.676,0.000
1606141830.005,-153.809,-44.434,-32.715,-562.988,0.000
1606141830.009,-3.906,-34.180,-25.391,-3.418,0.000
1606141830.013,125.488,-34.180,-20.996,527.832,0.000
1606141830.017,71.289,-36.133,-25.391,356.445,0.000
1606141830.020,-100.586,-63.965,-29.785,-309.570,0.000
1606141830.024,-163.086,-78.613,-27.832,-589.844,0.000
1606141830.028,-29.297,-46.875,-20.996,-104.004,0.000
1606141830.032,113.770,-32.227,-18.555,490.234,0.000
1606141830.036,88.379,-29.785,-14.160,445.801,0.000
1606141830.040,-84.473,-41.504,-19.531,-224.121,0.000
1606141830.044,-166.992,-41.016,-26.855,-599.609,0.000
1606141830.048,-48.340,-24.902,-21.973,-175.293,0.000
1606141830.052,113.281,-19.043,-16.113,471.680,0.000
1606141830.056,112.793,-22.461,-13.672,515.137,0.000
1606141830.060,-57.129,-50.781,-24.414,-134.766,0.000
1606141830.063,-164.551,-62.988,-32.715,-592.285,0.000
1606141830.067,-77.148,-33.203,-25.879,-271.973,0.000
1606141830.071,91.309,-18.555,-19.531,397.461,0.000
1606141830.075,118.652,-25.391,-17.090,529.785,0.000
1606141830.079,-38.086,-37.598,-26.855,-69.336,0.000
1606141830.083,-159.668,-45.898,-38.086,-586.914,0.000
1606141830.087,-104.492,-45.898,-32.715,-372.070,0.000
1606141830.091,56.152,-37.109,-15.625,314.453,0.000
1606141830.095,112.305,-26.367,-9.766,561.523,0.000
1606141830.099,-18.555,-41.016,-17.578,44.922,0.000
1606141830.103,-163.086,-72.754,-31.250,-540.527,0.000
1606141830.106,-127.930,-57.129,-30.273,-448.242,0.000
1606141830.110,52.246,-30.273,-16.602,224.121,0.000
1606141830.114,129.395,-21.484,-10.254,570.801,0.000
1606141830.118,0.488,-34.668,-18.066,130.371,0.000
1606141830.122,-160.645,-51.270,-26.367,-505.859,0.000
1606141830.126,-147.461,-51.758,-26.367,-510.254,0.000
1606141830.130,37.109,-41.016,-20.996,146.973,0.000
1606141830.134,125.977,-24.902,-21.973,552.734,0.000
1606141830.138,8.301,-31.738,-31.738,194.824,0.000
1606141830.142,-154.785,-40.527,-40.527,-444.824,0.000
1606141830.145,-164.062,-35.156,-40.527,-549.316,0.000
1606141830.149,-7.324,-31.738,-31.738,38.086,0.000
1606141830.153,99.609,-26.855,-25.391,503.418,0.000
1606141830.157,25.391,-29.785,-25.391,250.977,0.000
1606141830.161,-121.094,-40.527,-33.203,-355.957,0.000
1606141830.165,-140.625,-39.062,-34.180,-499.512,0.000
1606141830.169,-10.254,-34.180,-29.297,2.441,0.000
1606141830.173,101.562,-29.785,-26.367,460.938,0.000
1606141830.177,71.289,-35.645,-27.344,310.547,0.000
1606141830.181,-77.637,-49.316,-32.227,-269.043,0.000
1606141830.185,-139.648,-49.805,-33.691,-497.070,0.000
1606141830.188,-11.230,-38.574,-24.902,-66.895,0.000
1606141830.192,118.164,-24.902,-14.160,451.172,0.000
1606141830.196,77.637,-26.855,-16.113,387.695,0.000
1606141830.200,-69.336,-40.527,-21.484,-196.777,0.000
1606141830.204,-134.766,-43.457,-31.738,-507.812,0.000
1606141830.208,-39.062,-27.832,-28.809,-150.879,0.000
1606141830.212,95.703,-17.578,-16.602,396.484,0.000
1606141830.216,86.914,-25.391,-18.555,423.340,0.000
1606141830.220,-44.922,-41.992,-30.273,-143.066,0.000
1606141830.224,-129.883,-48.340,-37.598,-518.066,0.000
1606141830.228,-77.637,-44.922,-31.250,-233.887,0.000
1606141830.231,66.406,-35.645,-19.531,338.379,0.000
1606141830.235,91.797,-31.738,-18.066,469.727,0.000
1606141830.239,-33.691,-42.480,-24.902,-40.039,0.000
1606141830.243,-127.441,-45.410,-36.133,-493.652,0.000
1606141830.247,-72.754,-36.133,-30.762,-301.758,0.000
1606141830.251,73.242,-31.738,-18.555,291.992,0.000
1606141830.255,113.770,-25.391,-19.043,498.535,0.000
1606141830.259,-0.488,-40.039,-25.879,41.504,0.000
1606141830.263,-115.723,-60.547,-31.250,-462.402,0.000
1606141830.267,-80.078,-38.086,-24.414,-361.328,0.000
1606141830.270,74.707,-19.531,-11.719,238.770,0.000
1606141830.274,133.301,-17.578,-7.812,519.531,0.000
1606141830.278,22.461,-23.926,-17.578,122.559,0.000
1606141830.282,-108.887,-34.668,-27.832,-417.969,0.000
1606141830.286,-95.215,-33.691,-28.320,-403.809,0.000
1606141830.290,52.734,-30.762,-21.973,179.199,0.000
1606141830.294,137.207,-29.785,-18.066,522.949,0.000
1606141830.298,39.551,-34.668,-21.973,196.777,0.000
1606141830.302,-101.074,-54.199,-27.832,-375.000,0.000
1606141830.306,-105.957,-45.410,-27.344,-452.637,0.000
1606141830.310,33.203,-21.973,-18.555,87.891,0.000
1606141830.313,130.371,-19.531,-14.160,502.441,0.000
1606141830.317,55.176,-25.391,-21.973,276.855,0.000
1606141830.321,-96.680,-39.062,-30.762,-306.641,0.000
1606141830.325,-128.418,-42.969,-33.691,-476.562,0.000
1606141830.329,-0.488,-35.156,-26.367,11.719,0.000
1606141830.333,112.793,-24.902,-21.973,489.746,0.000
1606141830.337,71.289,-28.320,-25.879,343.750,0.000
1606141830.341,-86.914,-51.270,-36.133,-267.578,0.000
1606141830.345,-129.883,-57.129,-42.480,-520.996,0.000
1606141830.349,-7.812,-39.062,-33.691,-87.891,0.000
1606141830.353,100.098,-28.809,-22.949,432.129,0.000
1606141830.356,88.379,-37.109,-26.367,386.230,0.000
1606141830.360,-52.246,-53.223,-35.645,-192.871,0.000
1606141830.364,-122.559,-50.781,-37.598,-512.695,0.000
1606141830.368,-29.785,-40.039,-32.227,-157.227,0.000
1606141830.372,98.145,-36.133,-23.438,389.160,0.000
1606141830.376,96.191,-38.086,-21.973,429.688,0.000
1606141830.380,-38.574,-41.992,-27.344,-109.863,0.000
1606141830.384,-126.465,-44.922,-35.645,-501.465,0.000
1606141830.388,-62.988,-44.434,-25.391,-247.070,0.000
1606141830.392,70.801,-32.715,-14.648,327.148,0.000
1606141830.395,113.770,-25.879,-20.508,463.379,0.000
1606141830.399,-21.973,-30.273,-25.879,-43.457,0.000
1606141830.403,-150.879,-43.457,-30.762,-499.023,0.000
1606141830.407,-82.520,-41.016,-24.414,-317.871,0.000
1606141830.411,47.852,-14.648,-12.207,253.906,0.000
1606141830.415,53.223,-8.301,-8.301,421.387,0.000
1606141830.419,-81.055,-23.926,-20.996,-48.828,0.000
1606141830.423,-203.613,-24.902,-20.996,-552.246,0.000
1606141830.427,-202.637,-20.996,-5.859,-485.840,0.000
1606141830.431,-94.238,-18.066,-3.418,64.453,0.000
1606141830.435,-37.109,-7.812,2.441,335.449,0.000
1606141830.438,-147.949,-12.207,-1.465,-49.316,0.000
1606141830.442,-299.805,-29.785,-11.719,-603.516,0.000
1606141830.446,-318.359,-28.320,-8.301,-643.555,0.000
1606141830.450,-188.477,-11.230,4.395,-89.355,0.000
1606141830.454,-92.285,-7.812,10.742,284.668,0.000
1606141830.458,-190.918,-8.789,4.395,-25.879,0.000
1606141830.462,-336.426,-15.137,0.000,-601.074,0.000
1606141830.466,-338.867,-15.625,-1.465,-704.102,0.000
1606141830.470,-209.961,-3.906,2.930,-167.480,0.000
1606141830.474,-102.539,4.883,10.742,281.738,0.000
1606141830.478,-163.574,-5.859,3.418,61.523,0.000
1606141830.481,-312.500,-27.832,-12.695,-539.551,0.000
1606141830.485,-345.703,-27.344,-8.301,-722.656,0.000
1606141830.489,-222.656,-15.137,2.441,-236.328,0.000
1606141830.493,-104.492,-15.137,6.836,259.766,0.000
1606141830.497,-134.277,-23.926,10.742,146.973,0.000
1606141830.501,-280.273,-39.062,1.465,-434.570,0.000
1606141830.505,-332.520,-41.016,-6.348,-698.730,0.000
1606141830.509,-210.449,-26.855,-1.953,-288.574,0.000
1606141830.513,-71.289,-19.531,0.488,250.000,0.000
1606141830.517,-58.105,-19.043,-7.812,245.605,0.000
1606141830.520,-190.430,-27.832,-21.484,-313.965,0.000
1606141830.524,-266.602,-38.086,-21.484,-654.297,0.000
1606141830.528,-153.320,-31.250,-18.555,-309.082,0.000
1606141830.532,0.000,-25.391,-17.090,276.855,0.000
1606141830.536,22.949,-26.855,-16.602,371.094,0.000
1606141830.540,-88.867,-37.598,-27.832,-156.738,0.000
1606141830.544,-175.293,-46.387,-31.250,-558.594,0.000
1606141830.548,-111.328,-51.758,-22.461,-303.223,0.000
1606141830.552,54.199,-45.410,-18.066,302.734,0.000
1606141830.556,94.727,-41.992,-20.508,471.680,0.000
1606141830.560,-29.785,-51.270,-23.438,-15.137,0.000
1606141830.563,-130.859,-57.617,-30.762,-470.215,0.000
1606141830.567,-72.266,-55.176,-31.738,-301.270,0.000
1606141830.571,88.379,-47.852,-25.391,299.316,0.000
1606141830.575,144.043,-50.781,-24.902,534.180,0.000
1606141830.579,33.203,-64.453,-36.133,101.562,0.000
1606141830.583,-83.008,-78.125,-44.922,-406.738,0.000
1606141830.587,-37.109,-69.824,-38.574,-332.031,0.000
1606141830.591,114.746,-56.641,-33.203,251.465,0.000
1606141830.595,165.527,-53.711,-34.180,556.641,0.000
1606141830.599,74.219,-65.918,-38.574,207.031,0.000
1606141830.603,-55.176,-77.148,-45.410,-339.355,0.000
1606141830.606,-54.688,-71.777,-49.316,-380.859,0.000
1606141830.610,85.938,-56.152,-37.598,180.176,0.000
1606141830.614,174.805,-48.828,-28.809,559.570,0.000
1606141830.618,95.215,-49.316,-38.086,269.043,0.000
1606141830.622,-43.945,-52.734,-45.410,-292.969,0.000
1606141830.626,-62.500,-64.941,-40.039,-402.832,0.000
1606141830.630,62.500,-62.012,-33.203,103.516,0.000
1606141830.634,167.480,-50.781,-26.367,546.875,0.000
1606141830.638,106.445,-55.176,-30.762,335.938,0.000
1606141830.642,-39.062,-71.289,-41.992,-254.883,0.000
1606141830.645,-64.453,-72.754,-41.992,-413.086,0.000
1606141830.649,44.922,-59.570,-35.156,35.156,0.000
1606141830.653,157.715,-51.270,-27.832,504.395,0.000
1606141830.657,128.418,-49.316,-25.391,409.180,0.000
1606141830.661,-26.367,-41.016,-30.762,-160.156,0.000
1606141830.665,-78.613,-47.852,-36.133,-445.801,0.000
1606141830.669,22.461,-54.688,-32.227,-79.590,0.000
1606141830.673,145.020,-52.734,-26.855,451.172,0.000
1606141830.677,138.672,-51.758,-26.367,459.473,0.000
1606141830.681,-0.488,-46.387,-31.250,-108.398,0.000
1606141830.685,-81.543,-51.758,-33.691,-465.332,0.000
1606141830.688,1.465,-49.316,-30.273,-159.668,0.000
1606141830.692,135.742,-40.039,-28.809,401.855,0.000
1606141830.696,145.508,-38.574,-27.832,486.816,0.000
1606141830.700,7.812,-45.898,-31.738,-45.898,0.000
1606141830.704,-89.355,-52.734,-36.133,-470.215,0.000
1606141830.708,-24.414,-50.781,-36.133,-237.305,0.000
1606141830.712,114.258,-48.828,-32.227,347.656,0.000
1606141830.716,155.762,-45.898,-23.438,510.742,0.000
1606141830.720,20.508,-40.527,-23.926,23.926,0.000
1606141830.724,-109.863,-47.363,-31.738,-457.031,0.000
1606141830.728,-53.711,-52.734,-27.832,-322.754,0.000
1606141830.731,96.191,-41.016,-12.207,279.785,0.000
1606141830.735,147.461,-37.109,-11.719,535.645,0.000
1606141830.739,39.551,-46.387,-20.508,110.840,0.000
1606141830.743,-86.426,-58.594,-26.367,-418.457,0.000
1606141830.747,-70.312,-55.176,-30.762,-386.719,0.000
1606141830.751,69.336,-42.480,-24.902,205.078,0.000
1606141830.755,139.648,-31.250,-15.625,549.805,0.000
1606141830.759,41.992,-58.594,-23.926,193.359,0.000
1606141830.763,-106.445,-108.398,-38.574,-396.973,0.000
1606141830.767,-118.652,-84.473,-38.574,-461.914,0.000
1606141830.770,20.508,-45.410,-26.367,108.398,0.000
1606141830.774,113.770,-44.434,-20.508,518.555,0.000
1606141830.778,42.969,-51.758,-23.438,251.465,0.000
1606141830.782,-114.746,-63.965,-28.320,-356.445,0.000
1606141830.786,-142.090,-67.871,-32.715,-519.531,0.000
1606141830.790,-1.953,-54.688,-27.832,4.883,0.000
1606141830.794,102.051,-42.969,-20.508,500.488,0.000
1606141830.798,62.012,-48.828,-27.344,353.027,0.000
1606141830.802,-87.402,-53.223,-36.621,-271.973,0.000
1606141830.806,-141.602,-51.270,-35.156,-546.875,0.000
1606141830.810,-17.578,-43.945,-25.391,-80.078,0.000
1606141830.813,117.188,-35.645,-17.090,490.234,0.000
1606141830.817,94.727,-37.598,-15.625,437.500,0.000
1606141830.821,-60.547,-47.363,-23.438,-193.359,0.000
1606141830.825,-135.742,-48.340,-29.297,-548.828,0.000
1606141830.829,-36.133,-39.551,-25.879,-169.922,0.000
1606141830.833,112.305,-28.320,-21.973,433.105,0.000
1606141830.837,125.000,-27.832,-24.902,472.168,0.000
1606141830.841,-7.812,-39.062,-41.504,-125.977,0.000
1606141830.845,-91.797,-42.480,-44.922,-523.438,0.000
1606141830.849,-24.902,-37.598,-22.949,-221.680,0.000
1606141830.853,109.863,-34.668,-15.625,376.465,0.000
1606141830.856,128.418,-35.156,-19.043,501.953,0.000
1606141830.860,2.441,-48.340,-24.414,-39.062,0.000
1606141830.864,-122.559,-65.918,-33.691,-520.996,0.000
1606141830.868,-94.727,-55.176,-25.391,-333.008,0.000
1606141830.872,67.871,-36.133,-16.602,296.387,0.000
1606141830.876,120.117,-32.715,-19.043,522.461,0.000
1606141830.880,0.977,-42.480,-26.855,40.527,0.000
1606141830.884,-127.930,-49.805,-34.180,-502.930,0.000
1606141830.888,-99.121,-43.945,-32.227,-415.527,0.000
1606141830.892,59.570,-31.250,-20.996,222.168,0.000
1606141830.895,134.766,-20.020,-15.137,552.246,0.000
1606141830.899,21.973,-50.781,-28.809,126.465,0.000
1606141830.903,-126.465,-72.754,-41.504,-479.004,0.000
1606141830.907,-118.164,-53.223,-39.062,-484.863,0.000
1606141830.911,44.434,-38.574,-27.344,146.484,0.000
1606141830.915,140.137,-28.809,-20.508,562.988,0.000
1606141830.919,46.875,-42.969,-23.438,218.262,0.000
1606141830.923,-105.469,-59.570,-29.297,-424.805,0.000
1606141830.927,-122.070,-52.246,-31.738,-533.203,0.000
1606141830.931,31.250,-41.992,-25.391,58.105,0.000
1606141830.935,146.973,-38.574,-16.113,556.641,0.000
1606141830.938,75.195,-51.758,-20.996,328.613,0.000
1606141830.942,-93.262,-63.965,-29.297,-338.867,0.000
1606141830.946,-138.672,-60.547,-25.879,-562.500,0.000
1606141830.950,-3.906,-58.105,-24.902,-38.574,0.000
1606141830.954,139.648,-44.434,-20.020,507.812,0.000
1606141830.958,93.750,-45.898,-23.438,381.348,0.000
1606141830.962,-87.891,-70.801,-34.180,-286.133,0.000
1606141830.966,-149.414,-65.918,-35.156,-591.797,0.000
1606141830.970,-24.414,-45.410,-27.832,-125.488,0.000
1606141830.974,123.535,-32.227,-20.508,481.934,0.000
1606141830.978,111.328,-31.250,-23.926,452.148,0.000
1606141830.981,-50.293,-48.340,-33.691,-200.195,0.000
1606141830.985,-139.160,-59.082,-37.109,-573.242,0.000
1606141830.989,-33.203,-43.457,-31.250,-188.477,0.000
1606141830.993,116.211,-28.809,-20.508,416.016,0.000
1606141830.997,120.117,-27.832,-10.254,479.004,0.000
1606141831.001,-26.855,-43.457,-15.137,-108.398,0.000
1606141831.005,-129.883,-53.711,-25.879,-527.832,0.000
1606141831.009,-62.012,-48.340,-24.902,-250.000,0.000
1606141831.013,77.148,-36.621,-20.508,322.754,0.000
1606141831.017,100.586,-34.668,-22.461,436.523,0.000
1606141831.020,-28.320,-44.434,-26.855,-60.059,0.000
1606141831.024,-127.930,-48.340,-29.785,-485.840,0.000
1606141831.028,-72.754,-45.410,-30.762,-309.082,0.000
1606141831.032,67.871,-38.574,-18.066,269.531,0.000
1606141831.036,114.746,-26.367,-14.160,480.957,0.000
1606141831.040,-2.441,-50.781,-32.227,35.645,0.000
1606141831.044,-128.906,-81.543,-40.039,-462.402,0.000
1606141831.048,-90.332,-55.176,-31.250,-364.258,0.000
1606141831.052,56.152,-30.273,-24.902,217.285,0.000
1606141831.056,120.117,-24.902,-24.414,486.328,0.000
1606141831.060,6.836,-36.621,-28.809,103.516,0.000
1606141831.063,-134.277,-51.758,-33.691,-427.246,0.000
1606141831.067,-117.188,-49.316,-29.785,-427.734,0.000
1606141831.071,18.066,-40.039,-23.438,132.324,0.000
1606141831.075,100.586,-25.879,-16.113,497.559,0.000
1606141831.079,20.020,-42.480,-18.066,193.359,0.000
1606141831.083,-120.605,-60.547,-29.297,-372.070,0.000
1606141831.087,-139.160,-49.805,-31.738,-472.656,0.000
1606141831.091,-8.301,-42.969,-25.879,46.875,0.000
1606141831.095,96.191,-28.320,-17.578,479.004,0.000
1606141831.099,42.969,-35.156,-21.973,270.020,0.000
1606141831.103,-103.027,-49.316,-32.227,-322.754,0.000
1606141831.106,-139.160,-42.969,-35.156,-514.648,0.000
1606141831.110,-1.953,-35.156,-31.250,-29.785,0.000
1606141831.114,121.582,-21.973,-19.043,479.980,0.000
1606141831.118,69.336,-34.180,-11.230,350.586,0.000
1606141831.122,-97.168,-50.293,-18.555,-277.344,0.000
1606141831.126,-158.203,-46.387,-26.855,-552.246,0.000
1606141831.130,-42.969,-37.598,-18.555,-117.188,0.000
1606141831.134,92.285,-32.715,-5.371,438.477,0.000
1606141831.138,71.777,-35.156,-9.277,400.879,0.000
1606141831.142,-84.961,-21.484,-25.879,-204.590,0.000
1606141831.145,-160.645,-23.926,-30.762,-551.758,0.000
1606141831.149,-57.617,-39.551,-19.531,-199.707,0.000
1606141831.153,91.797,-29.297,-10.254,384.766,0.000
1606141831.157,103.027,-31.250,-9.766,454.590,0.000
1606141831.161,-34.180,-39.551,-14.160,-100.586,0.000
1606141831.165,-133.301,-41.504,-23.438,-512.207,0.000
1606141831.169,-64.941,-39.062,-21.484,-257.324,0.000
1606141831.173,87.402,-27.832,-11.230,334.473,0.000
1606141831.177,117.676,-21.484,-12.695,503.418,0.000
1606141831.181,-20.020,-58.594,-22.461,-4.883,0.000
1606141831.185,-140.137,-68.359,-26.855,-492.188,0.000
1606141831.188,-87.891,-40.527,-24.414,-320.801,0.000
1606141831.192,63.477,-32.227,-14.648,273.926,0.000
1606141831.196,110.352,-29.785,-13.672,492.188,0.000
1606141831.200,-2.930,-40.527,-22.461,53.711,0.000
1606141831.204,-121.582,-53.711,-26.855,-455.566,0.000
1606141831.208,-96.191,-50.781,-23.926,-379.883,0.000
1606141831.212,45.410,-40.527,-11.719,199.707,0.000
1606141831.216,107.422,-37.109,-6.836,488.770,0.000
1606141831.220,10.254,-53.223,-12.695,135.742,0.000
1606141831.224,-112.305,-56.152,-21.484,-387.207,0.000
1606141831.228,-104.492,-41.504,-22.461,-412.598,0.000
1606141831.231,35.156,-34.180,-10.254,130.859,0.000
1606141831.235,119.141,-24.902,-9.277,488.281,0.000
1606141831.239,36.133,-54.688,-20.020,194.336,0.000
1606141831.243,-103.027,-80.078,-25.391,-363.770,0.000
1606141831.247,-118.652,-50.781,-26.367,-469.727,0.000
1606141831.251,7.324,-30.273,-19.531,27.344,0.000
1606141831.255,115.234,-20.508,-12.695,460.449,0.000
1606141831.259,65.430,-25.879,-18.066,274.414,0.000
1606141831.263,-77.148,-39.062,-23.438,-310.547,0.000
1606141831.267,-114.258,-40.039,-22.949,-497.070,0.000
1606141831.270,-0.488,-30.273,-19.531,-32.715,0.000
1606141831.274,107.422,-21.484,-16.602,447.266,0.000
1606141831.278,69.336,-37.598,-19.531,336.914,0.000
1606141831.282,-83.008,-66.895,-29.297,-250.488,0.000
1606141831.286,-145.508,-56.152,-36.621,-525.879,0.000
1606141831.290,-36.621,-38.086,-28.320,-129.395,0.000
1606141831.294,91.309,-35.156,-21.973,404.785,0.000
1606141831.298,76.660,-37.598,-21.484,394.531,0.000
1606141831.302,-71.777,-39.062,-20.508,-170.898,0.000
1606141831.306,-152.344,-41.016,-25.879,-521.484,0.000
1606141831.310,-63.477,-35.156,-23.438,-203.125,0.000
1606141831.313,77.148,-23.926,-9.766,359.863,0.000
1606141831.317,98.145,-21.973,-10.254,450.195,0.000
1606141831.321,-37.598,-86.426,-26.855,-89.355,0.000
1606141831.325,-140.137,-98.145,-29.297,-528.320,0.000
1606141831.329,-73.730,-44.922,-21.973,-302.734,0.000
1606141831.333,75.684,-28.320,-18.066,292.480,0.000
1606141831.337,110.840,-23.926,-19.531,457.031,0.000
1606141831.341,-17.090,-36.621,-30.762,-30.273,0.000
1606141831.345,-131.348,-45.898,-37.109,-499.023,0.000
1606141831.349,-88.867,-39.551,-35.156,-357.422,0.000
1606141831.353,62.012,-28.809,-30.273,234.863,0.000
1606141831.356,118.164,-29.297,-22.949,480.957,0.000
1606141831.360,5.859,-36.133,-27.344,66.895,0.000
1606141831.364,-118.164,-40.527,-36.621,-456.543,0.000
1606141831.368,-102.051,-44.922,-36.621,-420.898,0.000
1606141831.372,38.086,-37.109,-30.273,168.457,0.000
1606141831.376,110.840,-26.367,-24.414,500.977,0.000
1606141831.380,16.113,-51.758,-29.785,153.320,0.000
1606141831.384,-119.141,-64.453,-30.273,-403.809,0.000
1606141831.388,-124.512,-45.410,-24.902,-442.383,0.000
1606141831.392,19.043,-33.203,-22.949,117.188,0.000
1606141831.395,107.422,-31.250,-19.043,496.582,0.000
1606141831.399,19.531,-45.410,-26.367,218.262,0.000
1606141831.403,-120.605,-56.641,-34.180,-365.234,0.000
1606141831.407,-138.672,-53.223,-31.738,-490.234,0.000
1606141831.411,-7.812,-41.992,-23.926,33.691,0.000
1606141831.415,104.004,-19.531,-14.648,493.652,0.000
1606141831.419,49.316,-59.082,-22.949,306.641,0.000
1606141831.423,-108.887,-119.629,-39.062,-314.453,0.000
1606141831.427,-153.809,-73.242,-29.785,-532.715,0.000
1606141831.431,-20.020,-34.180,-17.090,-57.129,0.000
1606141831.435,109.863,-28.809,-21.484,457.520,0.000
1606141831.438,75.195,-20.508,-23.438,373.047,0.000
1606141831.442,-84.961,-29.785,-28.809,-249.023,0.000
1606141831.446,-158.203,-37.109,-37.598,-600.586,0.000
1606141831.450,-52.246,-27.832,-33.203,-218.262,0.000
1606141831.454,92.285,-8.789,-23.438,397.949,0.000
1606141831.458,90.820,-21.973,-22.949,448.730,0.000
1606141831.462,-74.219,-62.988,-34.668,-169.922,0.000
1606141831.466,-166.992,-42.969,-33.691,-586.914,0.000
1606141831.470,-72.754,-18.066,-25.879,-274.902,0.000
1606141831.474,86.426,-15.137,-21.484,350.098,0.000
1606141831.478,117.188,-14.160,-17.578,495.605,0.000
1606141831.481,-27.344,-24.414,-19.531,-57.129,0.000
1606141831.485,-135.742,-33.691,-25.391,-537.109,0.000
1606141831.489,-75.684,-29.785,-27.832,-325.195,0.000
1606141831.493,77.637,-15.137,-23.926,310.059,0.000
1606141831.497,130.859,-11.230,-19.531,530.762,0.000
1606141831.501,6.836,-20.508,-22.949,34.180,0.000
1606141831.505,-125.977,-25.391,-28.809,-494.629,0.000
1606141831.509,-93.750,-25.879,-27.832,-391.113,0.000
1606141831.513,62.500,-21.973,-16.113,225.586,0.000
1606141831.517,134.277,-10.254,-10.742,536.621,0.000
1606141831.520,15.625,-48.828,-22.461,119.141,0.000
1606141831.524,-133.789,-78.613,-31.250,-472.168,0.000
1606141831.528,-120.117,-42.969,-28.809,-480.957,0.000
1606141831.532,32.715,-28.320,-15.625,136.719,0.000
1606141831.536,123.535,-23.438,-9.277,539.062,0.000
1606141831.540,36.621,-28.809,-13.672,207.031,0.000
1606141831.544,-113.770,-40.039,-20.020,-414.062,0.000
1606141831.548,-127.441,-41.504,-23.926,-510.742,0.000
1606141831.552,20.508,-34.668,-21.484,82.520,0.000
1606141831.556,133.301,-28.320,-20.020,547.852,0.000
1606141831.560,67.383,-44.922,-27.344,302.734,0.000
1606141831.563,-95.703,-58.594,-31.250,-354.492,0.000
1606141831.567,-136.719,-46.387,-30.273,-560.547,0.000
1606141831.571,5.859,-30.273,-20.020,-13.672,0.000
1606141831.575,139.648,-20.508,-13.184,525.391,0.000
1606141831.579,88.867,-30.273,-21.484,373.535,0.000
1606141831.583,-84.961,-42.969,-32.227,-290.039,0.000
1606141831.587,-146.484,-46.875,-35.156,-591.797,0.000
1606141831.591,-24.414,-46.875,-26.367,-130.371,0.000
1606141831.595,119.629,-29.297,-16.602,470.703,0.000
1606141831.599,103.027,-38.574,-19.043,448.242,0.000
1606141831.603,-68.359,-86.914,-33.691,-209.961,0.000
1606141831.606,-155.273,-74.707,-40.039,-611.328,0.000
1606141831.610,-55.176,-41.504,-38.086,-231.934,0.000
1606141831.614,101.562,-29.297,-28.809,415.527,0.000
1606141831.618,117.188,-27.832,-22.461,502.930,0.000
1606141831.622,-47.363,-41.016,-25.879,-120.117,0.000
1606141831.626,-154.785,-45.898,-31.250,-595.703,0.000
1606141831.630,-70.801,-40.527,-25.879,-303.711,0.000
1606141831.634,85.449,-33.203,-16.113,365.234,0.000
1606141831.638,116.211,-34.180,-13.184,534.668,0.000
1606141831.642,-29.297,-42.480,-21.484,-22.949,0.000
1606141831.645,-154.785,-44.922,-28.809,-539.062,0.000
1606141831.649,-98.633,-46.875,-29.297,-366.211,0.000
1606141831.653,66.406,-41.504,-27.832,284.668,0.000
1606141831.657,116.699,-34.668,-25.391,543.457,0.000
1606141831.661,-13.672,-64.453,-24.902,63.965,0.000
1606141831.665,-137.207,-69.336,-33.691,-496.582,0.000
1606141831.669,-100.586,-43.945,-39.062,-426.758,0.000
1606141831.673,47.363,-22.949,-27.344,205.566,0.000
1606141831.677,118.652,-16.113,-26.855,540.527,0.000
1606141831.681,11.230,-32.715,-43.945,131.348,0.000
1606141831.685,-145.508,-41.016,-54.199,-497.559,0.000
1606141831.688,-145.508,-37.598,-55.664,-534.668,0.000
1606141831.692,21.973,-30.273,-44.922,110.352,0.000
1606141831.696,117.676,-17.578,-33.691,535.645,0.000
1606141831.700,20.508,-63.477,-40.527,206.543,0.000
1606141831.704,-143.066,-105.469,-52.734,-447.266,0.000
1606141831.708,-161.621,-55.664,-50.781,-578.125,0.000
1606141831.712,-0.977,-24.414,-41.992,22.949,0.000
1606141831.716,125.488,-13.672,-35.156,538.574,0.000
1606141831.720,61.035,-21.484,-33.691,320.801,0.000
1606141831.724,-115.723,-41.016,-41.992,-366.699,0.000
1606141831.728,-161.621,-39.551,-38.086,-602.051,0.000
1606141831.731,-23.438,-34.180,-29.297,-64.941,0.000
1606141831.735,116.699,-20.996,-26.855,505.859,0.000
1606141831.739,83.984,-39.551,-23.926,395.020,0.000
1606141831.743,-89.844,-65.430,-31.250,-283.691,0.000
1606141831.747,-170.410,-48.340,-39.062,-617.188,0.000
1606141831.751,-49.316,-38.574,-29.785,-166.016,0.000
1606141831.755,116.211,-32.715,-21.484,466.309,0.000
1606141831.759,109.375,-32.227,-23.438,468.262,0.000
1606141831.763,-67.383,-41.992,-28.320,-195.801,0.000
1606141831.767,-165.527,-48.340,-31.738,-615.234,0.000
1606141831.770,-56.152,-38.086,-25.879,-247.559,0.000
1606141831.774,108.887,-21.973,-23.438,410.645,0.000
1606141831.778,119.629,-20.020,-24.414,508.789,0.000
1606141831.782,-42.480,-33.203,-28.320,-108.887,0.000
1606141831.786,-160.645,-41.016,-34.668,-590.820,0.000
1606141831.790,-88.867,-42.969,-31.738,-324.219,0.000
1606141831.794,78.125,-38.086,-22.949,342.285,0.000
1606141831.798,121.094,-38.086,-24.414,534.668,0.000
1606141831.802,-24.902,-66.406,-34.668,-23.438,0.000
1606141831.806,-161.133,-69.336,-43.457,-581.543,0.000
1606141831.810,-112.793,-54.688,-41.504,-431.641,0.000
1606141831.813,59.082,-47.363,-23.438,260.254,0.000
1606141831.817,120.117,-37.109,-15.625,563.965,0.000
1606141831.821,-9.277,-42.480,-25.879,80.078,0.000
1606141831.825,-159.668,-56.152,-33.203,-530.273,0.000
1606141831.829,-137.207,-52.734,-28.809,-485.352,0.000
1606141831.833,41.504,-39.551,-21.484,191.895,0.000
1606141831.837,121.582,-37.109,-21.973,564.453,0.000
1606141831.841,11.230,-57.617,-28.809,159.180,0.000
1606141831.845,-144.531,-69.336,-34.668,-488.281,0.000
1606141831.849,-152.832,-56.641,-34.180,-546.875,0.000
1606141831.853,17.090,-41.992,-20.996,101.074,0.000
1606141831.856,136.719,-34.668,-11.230,567.383,0.000
1606141831.860,50.781,-43.457,-18.066,261.719,0.000
1606141831.864,-123.047,-52.734,-24.902,-406.738,0.000
1606141831.868,-149.414,-51.758,-28.320,-574.707,0.000
1606141831.872,3.418,-43.945,-22.949,6.836,0.000
1606141831.876,139.648,-27.832,-14.648,541.504,0.000
1606141831.880,83.008,-56.641,-22.949,344.238,0.000
1606141831.884,-107.910,-92.285,-30.273,-335.449,0.000
1606141831.888,-169.922,-68.359,-26.855,-603.516,0.000
1606141831.892,-29.297,-47.363,-25.879,-95.215,0.000
1606141831.895,117.676,-36.621,-21.484,506.348,0.000
1606141831.899,86.426,-32.227,-20.020,422.852,0.000
1606141831.903,-82.031,-40.527,-30.762,-255.859,0.000
1606141831.907,-158.203,-42.969,-33.691,-602.539,0.000
1606141831.911,-42.969,-35.645,-25.879,-166.504,0.000
1606141831.915,109.863,-30.273,-21.973,456.055,0.000
1606141831.919,104.980,-33.203,-20.508,467.285,0.000
1606141831.923,-53.711,-34.668,-21.973,-171.387,0.000
1606141831.927,-154.785,-36.133,-26.855,-590.820,0.000
1606141831.931,-74.707,-38.086,-21.484,-270.020,0.000
1606141831.935,86.914,-24.902,-11.230,376.465,0.000
1606141831.938,105.957,-42.969,-15.625,502.930,0.000
1606141831.942,-54.199,-74.219,-24.414,-83.496,0.000
1606141831.946,-168.945,-59.082,-33.203,-566.406,0.000
1606141831.950,-86.914,-42.480,-32.227,-330.566,0.000
1606141831.954,84.473,-22.949,-25.879,318.848,0.000
1606141831.958,115.723,-12.695,-28.809,504.395,0.000
1606141831.962,-33.203,-29.297,-37.109,-31.250,0.000
1606141831.966,-151.367,-33.203,-45.898,-530.762,0.000
1606141831.970,-103.027,-19.531,-43.457,-373.535,0.000
1606141831.974,43.945,-5.859,-38.574,217.285,0.000
1606141831.978,92.285,-11.230,-42.480,446.289,0.000
1606141831.981,-21.973,-66.406,-48.828,23.926,0.000
1606141831.985,-137.695,-72.754,-52.246,-486.328,0.000
1606141831.989,-108.398,-26.855,-46.875,-436.035,0.000
1606141831.993,34.180,-16.602,-41.992,139.648,0.000
1606141831.997,102.051,-19.043,-41.016,459.473,0.000
1606141832.001,13.672,-31.738,-42.969,122.070,0.000
1606141832.005,-112.793,-38.086,-49.805,-412.598,0.000
1606141832.009,-109.863,-37.109,-55.664,-458.008,0.000
1606141832.013,30.273,-29.297,-48.340,75.195,0.000
1606141832.017,120.605,-18.555,-33.203,470.215,0.000
1606141832.020,49.316,-45.410,-35.645,216.797,0.000
1606141832.024,-93.750,-57.617,-46.875,-357.910,0.000
1606141832.028,-125.488,-39.062,-47.363,-498.535,0.000
1606141832.032,-0.977,-32.227,-35.156,-5.371,0.000
1606141832.036,104.492,-34.180,-30.273,444.336,0.000
1606141832.040,53.223,-49.316,-37.598,277.832,0.000
1606141832.044,-87.402,-46.875,-41.016,-305.664,0.000
1606141832.048,-129.883,-37.109,-37.598,-523.926,0.000
1606141832.052,-15.625,-30.762,-23.438,-74.219,0.000
1606141832.056,104.004,-21.973,-14.160,441.406,0.000
1606141832.060,72.754,-26.855,-24.414,364.258,0.000
1606141832.063,-76.172,-38.574,-38.086,-222.168,0.000
1606141832.067,-132.812,-39.062,-39.551,-508.301,0.000
1606141832.071,-29.785,-41.504,-31.250,-138.672,0.000
1606141832.075,102.539,-20.508,-23.926,395.020,0.000
1606141832.079,99.609,-40.039,-25.391,413.574,0.000
1606141832.083,-52.246,-92.773,-36.133,-151.855,0.000
1606141832.087,-139.160,-56.641,-37.109,-521.973,0.000
1606141832.091,-57.129,-31.738,-27.344,-229.004,0.000
1606141832.095,75.684,-28.809,-23.438,339.355,0.000
1606141832.099,96.191,-22.461,-26.367,451.172,0.000
1606141832.103,-33.691,-32.715,-29.297,-67.383,0.000
1606141832.106,-137.207,-39.062,-30.273,-509.766,0.000
1606141832.110,-73.242,-40.039,-32.227,-309.570,0.000
1606141832.114,79.590,-24.414,-24.902,297.363,0.000
1606141832.118,123.535,-31.738,-19.531,489.258,0.000
1606141832.122,-0.488,-62.500,-31.250,6.348,0.000
1606141832.126,-113.281,-46.387,-37.109,-481.934,0.000
1606141832.130,-77.148,-25.879,-29.785,-364.746,0.000
1606141832.134,63.477,-15.625,-23.438,224.609,0.000
1606141832.138,124.512,-15.625,-18.555,497.070,0.000
1606141832.142,12.207,-25.879,-16.602,101.074,0.000
1606141832.145,-116.211,-34.180,-25.879,-432.129,0.000
1606141832.149,-105.469,-35.156,-32.715,-413.574,0.000
1606141832.153,31.250,-20.996,-28.809,153.809,0.000
1606141832.157,113.281,-17.578,-24.414,496.582,0.000
1606141832.161,31.250,-66.406,-25.391,190.918,0.000
1606141832.165,-111.328,-67.871,-32.227,-372.559,0.000
1606141832.169,-126.953,-35.156,-34.668,-467.285,0.000
1606141832.173,11.230,-34.180,-21.973,78.613,0.000
1606141832.177,108.398,-20.508,-11.719,502.441,0.000
1606141832.181,49.805,-33.203,-16.602,265.625,0.000
1606141832.185,-98.633,-44.922,-21.973,-323.730,0.000
1606141832.188,-134.277,-44.922,-21.484,-488.770,0.000
1606141832.192,-2.930,-42.969,-17.578,7.812,0.000
1606141832.196,106.445,-31.738,-13.184,470.215,0.000
1606141832.200,63.477,-30.273,-12.695,321.777,0.000
1606141832.204,-76.660,-35.156,-19.531,-255.371,0.000
1606141832.208,-124.512,-39.062,-26.855,-493.652,0.000
1606141832.212,-12.207,-43.457,-23.926,-77.148,0.000
1606141832.216,109.863,-29.785,-14.648,419.434,0.000
1606141832.220,83.984,-47.852,-14.648,358.887,0.000
1606141832.224,-69.824,-67.383,-22.461,-213.379,0.000
1606141832.228,-146.484,-42.480,-25.391,-532.715,0.000
1606141832.231,-50.293,-31.250,-22.461,-184.082,0.000
1606141832.235,78.613,-24.902,-16.113,359.375,0.000
1606141832.239,72.754,-32.715,-17.090,393.066,0.000
1606141832.243,-65.918,-41.992,-25.879,-153.320,0.000
1606141832.247,-151.855,-44.922,-30.273,-538.574,0.000
1606141832.251,-77.637,-36.133,-30.273,-270.508,0.000
1606141832.255,66.895,-22.461,-21.484,316.895,0.000
1606141832.259,90.820,-33.691,-19.531,442.871,0.000
1606141832.263,-42.969,-56.152,-28.320,-76.660,0.000
1606141832.267,-145.508,-56.641,-31.250,-515.137,0.000
1606141832.270,-85.449,-44.434,-29.297,-326.660,0.000
1606141832.274,62.988,-35.645,-22.949,263.672,0.000
1606141832.278,102.051,-33.203,-18.066,471.680,0.000
1606141832.282,-11.230,-43.945,-25.391,23.438,0.000
1606141832.286,-127.930,-54.199,-31.738,-465.820,0.000
1606141832.290,-92.773,-44.434,-28.320,-374.512,0.000
1606141832.294,58.105,-35.156,-14.648,208.984,0.000
1606141832.298,116.211,-34.668,-15.625,494.629,0.000
1606141832.302,9.277,-39.551,-28.320,116.699,0.000
1606141832.306,-120.605,-48.828,-29.785,-430.176,0.000
1606141832.310,-104.980,-45.898,-22.461,-438.965,0.000
1606141832.313,37.598,-30.273,-15.137,131.348,0.000
1606141832.317,111.816,-30.762,-17.090,495.605,0.000
1606141832.321,27.344,-47.852,-19.043,193.359,0.000
1606141832.325,-110.352,-53.223,-20.020,-376.465,0.000
1606141832.329,-128.418,-46.875,-20.996,-475.098,0.000
1606141832.333,4.883,-38.086,-14.648,50.781,0.000
1606141832.337,104.492,-34.668,-11.230,480.957,0.000
1606141832.341,44.434,-34.668,-14.160,277.344,0.000
1606141832.345,-92.773,-41.992,-17.090,-300.781,0.000
1606141832.349,-127.930,-43.945,-22.461,-482.422,0.000
1606141832.353,-4.883,-39.551,-16.602,-10.742,0.000
1606141832.356,106.934,-26.855,-4.883,466.797,0.000
1606141832.360,60.059,-55.664,-10.742,335.449,0.000
1606141832.364,-95.215,-85.449,-28.320,-260.742,0.000
1606141832.368,-149.902,-55.664,-28.320,-528.320,0.000
1606141832.372,-39.062,-39.551,-20.508,-116.211,0.000
1606141832.376,90.332,-30.762,-18.066,417.480,0.000
1606141832.380,77.637,-30.762,-18.555,388.184,0.000
1606141832.384,-63.477,-43.457,-22.949,-181.152,0.000
1606141832.388,-141.113,-40.527,-29.297,-520.020,0.000
1606141832.392,-53.711,-35.156,-24.414,-189.453,0.000
1606141832.395,93.750,-18.555,-11.230,386.719,0.000
1606141832.399,99.609,-49.316,-10.742,447.754,0.000
1606141832.403,-40.527,-86.914,-21.484,-103.516,0.000
1606141832.407,-126.465,-45.898,-25.391,-500.488,0.000
1606141832.411,-53.711,-23.438,-19.531,-250.000,0.000
1606141832.415,85.938,-21.973,-13.672,321.777,0.000
1606141832.419,112.793,-25.391,-13.672,469.238,0.000
1606141832.423,-7.812,-29.785,-13.672,-23.438,0.000
1606141832.427,-122.559,-38.574,-23.438,-486.816,0.000
1606141832.431,-88.379,-43.457,-29.785,-333.496,0.000
1606141832.435,65.430,-20.508,-16.602,259.277,0.000
1606141832.438,115.234,-34.668,-14.160,495.117,0.000
1606141832.442,2.930,-61.035,-22.949,70.801,0.000
1606141832.446,-118.652,-42.969,-32.715,-443.848,0.000
1606141832.450,-96.680,-43.945,-31.738,-400.879,0.000
1606141832.454,50.293,-26.367,-17.090,185.547,0.000
1606141832.458,112.305,-25.391,-12.207,500.000,0.000
1606141832.462,17.090,-62.988,-19.531,141.113,0.000
1606141832.466,-109.375,-50.293,-22.949,-396.973,0.000
1606141832.470,-109.375,-36.133,-23.438,-433.105,0.000
1606141832.474,26.367,-34.180,-21.973,116.211,0.000
1606141832.478,112.305,-27.344,-18.555,496.094,0.000
1606141832.481,30.273,-43.457,-20.508,214.844,0.000
1606141832.485,-106.934,-49.805,-27.344,-352.051,0.000
1606141832.489,-108.887,-42.969,-30.762,-458.496,0.000
1606141832.493,21.973,-26.367,-25.879,46.387,0.000
1606141832.497,108.887,-14.160,-22.461,458.008,0.000
1606141832.501,48.828,-43.945,-30.273,254.883,0.000
1606141832.505,-99.609,-50.781,-36.133,-330.078,0.000
1606141832.509,-135.254,-35.156,-37.598,-530.273,0.000
1606141832.513,-21.973,-30.762,-25.879,-75.195,0.000
1606141832.517,92.285,-18.555,-19.531,419.434,0.000
1606141832.520,62.988,-21.484,-25.879,335.938,0.000
1606141832.524,-90.820,-37.598,-30.762,-255.859,0.000
1606141832.528,-155.762,-43.457,-38.086,-546.875,0.000
1606141832.532,-46.875,-38.086,-36.133,-151.367,0.000
1606141832.536,90.332,-19.043,-21.973,397.461,0.000
1606141832.540,74.707,-61.035,-22.949,388.184,0.000
1606141832.544,-72.266,-99.609,-32.227,-189.941,0.000
1606141832.548,-150.879,-57.129,-29.785,-548.340,0.000
1606141832.552,-67.383,-32.227,-23.926,-228.516,0.000
1606141832.556,82.520,-19.531,-12.207,362.305,0.000
1606141832.560,95.703,-22.949,-11.230,452.637,0.000
1606141832.563,-52.246,-39.551,-20.020,-104.980,0.000
1606141832.567,-149.902,-45.898,-23.438,-551.758,0.000
1606141832.571,-85.449,-47.852,-21.484,-325.684,0.000
1606141832.575,67.871,-33.691,-14.648,305.664,0.000
1606141832.579,120.605,-35.645,-11.719,541.016,0.000
1606141832.583,-5.371,-53.223,-18.066,51.758,0.000
1606141832.587,-142.578,-48.340,-26.367,-503.906,0.000
1606141832.591,-110.840,-47.363,-25.879,-407.227,0.000
1606141832.595,57.129,-35.645,-15.137,238.281,0.000
1606141832.599,134.766,-21.973,-7.812,561.523,0.000
1606141832.603,20.020,-24.902,-12.695,141.113,0.000
1606141832.606,-124.512,-38.574,-24.414,-460.938,0.000
1606141832.610,-113.281,-41.504,-23.926,-465.820,0.000
1606141832.614,45.410,-27.832,-14.160,169.922,0.000
1606141832.618,136.230,-20.020,-12.207,562.988,0.000
1606141832.622,38.086,-33.203,-23.438,206.543,0.000
1606141832.626,-117.676,-48.340,-32.227,-419.434,0.000
1606141832.630,-127.930,-48.340,-30.762,-501.953,0.000
1606141832.634,22.461,-39.551,-23.438,79.590,0.000
1606141832.638,129.883,-31.250,-16.113,520.020,0.000
1606141832.642,50.293,-65.918,-24.414,258.301,0.000
1606141832.645,-109.863,-76.660,-34.668,-379.883,0.000
1606141832.649,-144.531,-52.246,-35.645,-566.895,0.000
1606141832.653,-11.230,-50.293,-31.738,-34.668,0.000
1606141832.657,115.234,-45.410,-25.391,495.117,0.000
1606141832.661,69.336,-40.527,-25.391,348.633,0.000
1606141832.665,-102.051,-42.969,-37.109,-302.734,0.000
1606141832.669,-170.898,-52.734,-42.969,-599.609,0.000
1606141832.673,-49.805,-45.410,-31.250,-132.812,0.000
1606141832.677,90.332,-29.785,-19.531,464.844,0.000
1606141832.681,69.336,-70.801,-21.484,416.992,0.000
1606141832.685,-96.191,-83.008,-26.367,-233.398,0.000
1606141832.688,-179.688,-51.270,-27.832,-604.492,0.000
1606141832.692,-66.406,-41.016,-16.113,-211.426,0.000
1606141832.696,92.773,-30.762,-4.395,428.711,0.000
1606141832.700,97.656,-34.668,-12.695,497.070,0.000
1606141832.704,-59.570,-48.340,-27.832,-131.348,0.000
1606141832.708,-166.016,-60.059,-36.621,-602.051,0.000
1606141832.712,-86.426,-52.246,-32.715,-304.688,0.000
1606141832.716,77.637,-35.645,-22.461,360.352,0.000
1606141832.720,112.305,-37.598,-21.973,519.043,0.000
1606141832.724,-33.203,-47.363,-33.691,-42.969,0.000
1606141832.728,-160.156,-61.035,-40.527,-562.500,0.000
1606141832.731,-103.027,-62.988,-34.668,-384.277,0.000
1606141832.735,66.895,-39.062,-25.879,280.273,0.000
1606141832.739,116.211,-48.340,-26.855,534.180,0.000
1606141832.743,-14.160,-69.336,-36.621,35.156,0.000
1606141832.747,-133.301,-56.152,-40.039,-505.371,0.000
1606141832.751,-87.891,-46.387,-32.715,-395.508,0.000
1606141832.755,62.988,-37.109,-22.461,211.914,0.000
1606141832.759,121.094,-27.344,-18.555,492.676,0.000
1606141832.763,14.648,-33.691,-26.855,102.539,0.000
1606141832.767,-110.352,-43.457,-28.320,-425.293,0.000
1606141832.770,-97.656,-47.363,-23.438,-412.109,0.000
1606141832.774,37.598,-42.969,-17.090,156.250,0.000
1606141832.778,115.723,-47.363,-10.742,498.535,0.000
1606141832.782,21.484,-64.941,-16.602,173.828,0.000
1606141832.786,-120.117,-59.570,-26.367,-387.207,0.000
1606141832.790,-121.582,-56.152,-20.996,-465.332,0.000
1606141832.794,10.742,-44.922,-8.301,62.500,0.000
1606141832.798,102.051,-37.109,-9.766,471.191,0.000
1606141832.802,36.621,-41.016,-22.461,243.652,0.000
1606141832.806,-111.328,-48.340,-27.344,-340.332,0.000
1606141832.810,-145.020,-54.199,-30.762,-513.184,0.000
1606141832.813,-18.066,-43.945,-27.344,-17.578,0.000
1606141832.817,102.539,-31.250,-17.090,474.609,0.000
1606141832.821,60.059,-77.637,-21.973,327.637,0.000
1606141832.825,-85.938,-100.098,-33.691,-277.832,0.000
1606141832.829,-138.184,-64.941,-34.668,-539.551,0.000
1606141832.833,-27.832,-48.828,-28.809,-116.211,0.000
1606141832.837,97.656,-40.039,-23.926,412.109,0.000
1606141832.841,75.195,-37.598,-21.973,375.977,0.000
1606141832.845,-67.383,-39.551,-31.250,-205.566,0.000
1606141832.849,-137.695,-47.852,-38.086,-538.086,0.000
1606141832.853,-38.574,-47.363,-36.133,-183.594,0.000
1606141832.856,102.539,-42.969,-32.227,386.230,0.000
1606141832.860,109.863,-39.551,-26.367,446.777,0.000
1606141832.864,-25.391,-43.945,-27.832,-107.910,0.000
1606141832.868,-125.000,-51.758,-34.668,-529.785,0.000
1606141832.872,-62.012,-40.527,-36.133,-288.086,0.000
1606141832.876,77.637,-28.320,-29.297,298.340,0.000
1606141832.880,105.469,-43.945,-28.320,448.242,0.000
1606141832.884,-27.344,-53.711,-36.133,-60.059,0.000
1606141832.888,-139.648,-46.387,-39.551,-515.625,0.000
1606141832.892,-90.332,-48.340,-37.598,-342.285,0.000
1606141832.895,64.453,-38.574,-30.762,255.859,0.000
1606141832.899,111.328,-24.902,-22.461,478.516,0.000
1606141832.903,-15.137,-29.297,-21.973,37.598,0.000
1606141832.907,-133.301,-41.016,-30.273,-458.984,0.000
1606141832.911,-94.727,-41.992,-31.738,-374.023,0.000
1606141832.915,54.199,-34.180,-15.137,207.520,0.000
1606141832.919,114.746,-29.297,-14.160,494.629,0.000
1606141832.923,4.395,-38.574,-31.250,107.422,0.000
1606141832.927,-124.512,-50.781,-34.180,-432.129,0.000
1606141832.931,-108.887,-47.363,-33.691,-427.734,0.000
1606141832.935,26.855,-44.434,-26.855,129.883,0.000
1606141832.938,98.633,-47.363,-26.367,481.934,0.000
1606141832.942,16.113,-52.246,-30.762,192.871,0.000
1606141832.946,-114.746,-58.105,-34.180,-375.000,0.000
1606141832.950,-128.906,-63.965,-38.574,-488.770,0.000
1606141832.954,11.230,-50.293,-25.391,39.062,0.000
1606141832.958,114.258,-42.969,-23.926,478.516,0.000
1606141832.962,45.898,-65.430,-33.691,261.719,0.000
1606141832.966,-98.145,-62.988,-41.016,-329.590,0.000
1606141832.970,-132.324,-49.316,-42.969,-511.230,0.000
1606141832.974,-8.789,-37.109,-32.227,-41.016,0.000
1606141832.978,106.445,-29.785,-27.344,442.383,0.000
1606141832.981,62.012,-37.109,-34.180,323.730,0.000
1606141832.985,-91.797,-47.363,-37.598,-268.066,0.000
1606141832.989,-146.484,-55.664,-38.086,-531.250,0.000
1606141832.993,-41.016,-47.363,-30.762,-130.859,0.000
1606141832.997,79.102,-36.133,-24.902,393.066,0.000
1606141833.001,58.594,-38.574,-30.762,369.141,0.000
1606141833.005,-86.426,-50.293,-35.156,-197.754,0.000
1606141833.009,-163.086,-55.664,-40.039,-548.340,0.000
1606141833.013,-78.125,-43.945,-37.109,-234.863,0.000
1606141833.017,61.523,-35.645,-27.344,336.914,0.000
1606141833.020,66.895,-32.715,-24.414,416.016,0.000
1606141833.024,-73.242,-38.086,-29.785,-121.582,0.000
1606141833.028,-163.086,-51.758,-32.227,-534.668,0.000
1606141833.032,-93.262,-49.316,-27.832,-293.457,0.000
1606141833.036,56.641,-34.180,-19.531,306.152,0.000
1606141833.040,90.820,-28.320,-20.508,475.586,0.000
1606141833.044,-35.645,-43.457,-24.414,-21.973,0.000
1606141833.048,-147.461,-48.828,-28.320,-488.770,0.000
1606141833.052,-97.656,-41.504,-29.785,-332.031,0.000
1606141833.056,50.293,-34.668,-21.484,254.883,0.000
1606141833.060,95.703,-37.598,-17.090,496.582,0.000
1606141833.063,-18.066,-52.246,-26.855,72.266,0.000
1606141833.067,-138.184,-50.293,-30.762,-447.266,0.000
1606141833.071,-108.887,-45.898,-22.949,-395.508,0.000
1606141833.075,43.945,-40.039,-15.137,190.918,0.000
1606141833.079,112.793,-40.527,-13.672,502.930,0.000
1606141833.083,12.695,-50.293,-18.555,148.438,0.000
1606141833.087,-123.535,-59.570,-25.391,-405.762,0.000
1606141833.091,-128.418,-53.223,-22.949,-452.148,0.000
1606141833.095,10.254,-39.551,-13.184,109.375,0.000
1606141833.099,107.422,-33.203,-9.277,511.230,0.000
1606141833.103,30.273,-47.363,-19.531,227.051,0.000
1606141833.106,-120.605,-58.594,-29.297,-379.395,0.000
1606141833.110,-142.578,-54.199,-29.297,-512.695,0.000
1606141833.114,-1.953,-43.457,-24.902,18.555,0.000
1606141833.118,113.770,-35.645,-22.949,490.723,0.000
1606141833.122,59.570,-40.039,-28.809,312.012,0.000
1606141833.126,-99.121,-50.293,-35.156,-315.918,0.000
1606141833.130,-146.973,-47.852,-37.109,-563.965,0.000
1606141833.134,-13.672,-34.180,-36.621,-92.773,0.000
1606141833.138,129.395,-34.180,-28.320,471.191,0.000
1606141833.142,101.074,-43.945,-21.484,417.480,0.000
1606141833.145,-76.660,-62.012,-25.391,-220.703,0.000
1606141833.149,-161.621,-70.312,-20.996,-562.988,0.000
1606141833.153,-56.641,-62.988,-12.207,-166.992,0.000
1606141833.157,84.473,-60.059,-6.348,420.898,0.000
1606141833.161,84.961,-73.730,-6.836,466.309,0.000
1606141833.165,-61.035,-77.148,-13.184,-122.070,0.000
1606141833.169,-161.621,-72.754,-15.137,-540.527,0.000
1606141833.173,-80.078,-70.801,-9.766,-240.234,0.000
1606141833.177,84.961,-53.711,4.395,384.766,0.000
1606141833.181,112.305,-52.246,7.324,520.508,0.000
1606141833.185,-33.203,-68.359,-4.883,-38.086,0.000
1606141833.188,-149.414,-75.195,-15.137,-524.902,0.000
1606141833.192,-89.844,-64.941,-10.254,-316.895,0.000
1606141833.196,71.777,-44.434,0.000,321.777,0.000
1606141833.200,116.699,-58.594,-2.930,535.645,0.000
1606141833.204,-25.391,-82.520,-18.066,29.785,0.000
1606141833.208,-156.250,-71.289,-22.461,-512.207,0.000
1606141833.212,-113.281,-62.012,-15.625,-407.227,0.000
1606141833.216,48.828,-51.758,-8.789,234.375,0.000
1606141833.220,120.117,-44.434,-6.348,551.758,0.000
1606141833.224,8.789,-46.875,-13.672,137.695,0.000
1606141833.228,-142.578,-52.734,-21.973,-466.797,0.000
1606141833.231,-132.324,-51.758,-22.461,-475.586,0.000
1606141833.235,37.109,-38.574,-15.625,164.551,0.000
1606141833.239,126.953,-40.527,-9.277,568.848,0.000
1606141833.243,22.461,-52.246,-13.672,218.750,0.000
1606141833.247,-139.648,-56.152,-20.996,-427.734,0.000
1606141833.251,-158.203,-63.965,-18.066,-544.434,0.000
1606141833.255,-0.488,-51.758,-8.789,56.152,0.000
1606141833.259,127.930,-38.086,-5.859,557.129,0.000
1606141833.263,60.547,-43.945,-12.207,313.477,0.000
1606141833.267,-114.746,-59.082,-18.555,-354.004,0.000
1606141833.270,-154.785,-59.570,-12.695,-556.152,0.000
1606141833.274,-11.719,-48.340,-13.184,-18.066,0.000
1606141833.278,119.629,-41.504,-14.160,531.738,0.000
1606141833.282,78.613,-43.945,-13.672,401.855,0.000
1606141833.286,-92.773,-53.223,-25.879,-263.672,0.000
1606141833.290,-156.250,-51.270,-28.809,-569.824,0.000
1606141833.294,-23.926,-39.551,-19.531,-106.445,0.000
1606141833.298,129.883,-35.645,-13.184,493.164,0.000
1606141833.302,107.422,-50.781,-13.184,456.055,0.000
1606141833.306,-65.430,-65.918,-20.020,-201.172,0.000
1606141833.310,-151.367,-54.199,-21.973,-586.426,0.000
1606141833.313,-49.805,-41.504,-13.672,-209.961,0.000
1606141833.317,105.957,-34.180,-12.207,417.480,0.000
1606141833.321,112.305,-36.621,-14.648,493.164,0.000
1606141833.325,-49.316,-44.922,-21.484,-113.281,0.000
1606141833.329,-160.645,-48.340,-30.273,-579.590,0.000
1606141833.333,-81.543,-39.551,-29.297,-304.199,0.000
1606141833.337,81.055,-36.133,-18.555,344.238,0.000
1606141833.341,118.164,-54.688,-18.066,513.184,0.000
1606141833.345,-28.320,-60.547,-23.438,-43.457,0.000
1606141833.349,-156.250,-49.805,-19.531,-563.965,0.000
1606141833.353,-102.539,-47.852,-22.949,-392.578,0.000
1606141833.356,53.223,-42.969,-17.578,261.230,0.000
1606141833.360,105.469,-37.598,-4.883,530.762,0.000
1606141833.364,-27.832,-38.574,-9.766,41.016,0.000
1606141833.368,-176.758,-48.828,-15.625,-538.574,0.000
1606141833.372,-150.391,-55.664,-17.090,-468.262,0.000
1606141833.376,17.090,-28.809,-14.160,190.430,0.000
1606141833.380,82.520,-38.086,-16.113,535.645,0.000
1606141833.384,-49.805,-72.754,-26.367,103.027,0.000
1606141833.388,-212.891,-47.363,-28.320,-543.457,0.000
1606141833.392,-214.844,-23.438,-30.273,-595.215,0.000
1606141833.395,-56.641,-18.555,-27.344,33.691,0.000
1606141833.399,56.641,-19.043,-23.438,481.934,0.000
1606141833.403,-35.156,-21.973,-29.785,157.227,0.000
1606141833.407,-208.496,-27.344,-40.039,-506.348,0.000
1606141833.411,-237.305,-21.973,-43.457,-654.785,0.000
1606141833.415,-82.031,-7.812,-39.062,-74.707,0.000
1606141833.419,47.363,-4.883,-41.016,435.547,0.000
1606141833.423,-19.531,-4.883,-49.316,216.309,0.000
1606141833.427,-178.223,-7.324,-54.688,-440.918,0.000
1606141833.431,-213.379,-17.090,-62.012,-679.199,0.000
1606141833.435,-61.523,-5.859,-59.570,-149.902,0.000
1606141833.438,82.031,-9.277,-43.457,438.965,0.000
1606141833.442,42.480,-28.320,-36.621,338.379,0.000
1606141833.446,-122.070,-20.508,-38.574,-312.988,0.000
1606141833.450,-191.406,-22.461,-37.109,-635.254,0.000
1606141833.454,-76.660,-22.461,-27.344,-200.684,0.000
1606141833.458,79.102,-14.160,-17.090,424.316,0.000
1606141833.462,73.730,-14.648,-18.066,431.641,0.000
1606141833.466,-96.680,-27.344,-24.414,-212.402,0.000
1606141833.470,-186.523,-39.062,-27.832,-614.258,0.000
1606141833.474,-83.984,-37.109,-21.484,-261.230,0.000
1606141833.478,72.754,-31.250,-13.672,379.883,0.000
1606141833.481,88.379,-52.246,-19.531,471.191,0.000
1606141833.485,-64.453,-63.965,-24.902,-128.906,0.000
1606141833.489,-176.270,-54.688,-27.832,-601.074,0.000
1606141833.493,-97.656,-50.781,-29.297,-351.074,0.000
1606141833.497,81.543,-37.598,-18.555,316.895,0.000
1606141833.501,127.441,-34.180,-15.137,526.367,0.000
1606141833.505,-9.766,-43.945,-25.879,-1.953,0.000
1606141833.509,-135.742,-48.828,-30.762,-535.645,0.000
1606141833.513,-92.285,-42.480,-30.273,-394.043,0.000
1606141833.517,80.078,-32.227,-26.855,260.254,0.000
1606141833.520,145.996,-39.062,-20.508,544.922,0.000
1606141833.524,22.949,-41.992,-21.973,95.215,0.000
1606141833.528,-111.328,-40.527,-28.320,-454.102,0.000
1606141833.532,-89.844,-46.387,-26.367,-396.973,0.000
1606141833.536,62.500,-33.691,-24.414,202.148,0.000
1606141833.540,131.836,-30.762,-24.902,512.695,0.000
1606141833.544,33.691,-35.156,-27.344,165.527,0.000
1606141833.548,-95.703,-43.457,-33.203,-367.676,0.000
1606141833.552,-95.215,-42.480,-31.250,-399.902,0.000
1606141833.556,48.828,-28.809,-20.508,148.926,0.000
1606141833.560,135.742,-23.926,-17.578,515.137,0.000
1606141833.563,58.105,-26.367,-27.344,239.258,0.000
1606141833.567,-78.125,-34.668,-32.227,-315.918,0.000
1606141833.571,-91.797,-39.062,-33.691,-437.012,0.000
1606141833.575,39.062,-29.785,-26.367,59.570,0.000
1606141833.579,132.812,-33.203,-25.879,484.863,0.000
1606141833.583,75.195,-47.852,-33.691,300.781,0.000
1606141833.587,-69.824,-50.293,-37.109,-273.926,0.000
1606141833.591,-119.141,-51.758,-36.133,-484.375,0.000
1606141833.595,-4.395,-40.527,-30.762,-37.109,0.000
1606141833.599,116.211,-27.344,-22.461,444.336,0.000
1606141833.603,81.055,-27.344,-25.879,353.027,0.000
1606141833.606,-70.801,-43.457,-41.504,-225.098,0.000
1606141833.610,-131.836,-49.316,-41.016,-511.230,0.000
1606141833.614,-22.949,-40.039,-33.691,-120.605,0.000
1606141833.618,98.633,-41.504,-28.809,404.297,0.000
1606141833.622,82.031,-48.828,-29.785,394.531,0.000
1606141833.626,-52.734,-50.293,-37.598,-159.180,0.000
1606141833.630,-128.906,-45.898,-39.062,-508.789,0.000
1606141833.634,-43.945,-37.598,-34.180,-214.355,0.000
1606141833.638,85.449,-30.762,-28.809,339.355,0.000
1606141833.642,96.191,-31.250,-26.367,424.316,0.000
1606141833.645,-28.809,-41.016,-31.738,-95.215,0.000
1606141833.649,-128.418,-52.734,-34.668,-504.395,0.000
1606141833.653,-65.430,-49.316,-36.621,-282.227,0.000
1606141833.657,83.008,-33.203,-30.273,299.805,0.000
1606141833.661,116.699,-43.945,-27.832,472.656,0.000
1606141833.665,-11.719,-54.688,-32.715,-0.977,0.000
1606141833.669,-128.906,-51.270,-37.598,-480.469,0.000
1606141833.673,-91.309,-51.758,-34.668,-355.469,0.000
1606141833.677,52.734,-39.062,-28.809,229.492,0.000
1606141833.681,102.539,-46.387,-38.086,467.773,0.000
1606141833.685,4.395,-54.199,-46.875,64.453,0.000
1606141833.688,-110.840,-49.316,-41.016,-430.176,0.000
1606141833.692,-104.980,-48.828,-30.762,-387.695,0.000
1606141833.696,29.297,-39.551,-24.414,167.480,0.000
1606141833.700,94.238,-37.109,-19.043,479.492,0.000
1606141833.704,1.953,-39.551,-20.508,157.227,0.000
1606141833.708,-124.023,-42.969,-20.508,-374.023,0.000
1606141833.712,-137.207,-51.758,-28.809,-441.895,0.000
1606141833.716,-2.441,-41.016,-23.926,83.008,0.000
1606141833.720,100.098,-49.316,-12.207,478.516,0.000
1606141833.724,34.180,-58.594,-21.484,226.562,0.000
1606141833.728,-106.934,-46.875,-29.785,-345.703,0.000
1606141833.731,-132.324,-48.828,-30.762,-488.281,0.000
1606141833.735,-5.371,-39.551,-24.414,4.395,0.000
1606141833.739,104.980,-29.785,-16.602,458.008,0.000
1606141833.743,57.129,-33.691,-19.531,293.457,0.000
1606141833.747,-91.797,-45.898,-26.855,-287.109,0.000
1606141833.751,-133.789,-48.340,-25.879,-499.512,0.000
1606141833.755,-18.555,-32.227,-14.160,-59.570,0.000
1606141833.759,90.820,-45.898,-11.230,429.199,0.000
1606141833.763,60.547,-97.168,-15.137,346.191,0.000
1606141833.767,-79.590,-79.102,-17.090,-229.492,0.000
1606141833.770,-148.438,-46.875,-28.809,-524.414,0.000
1606141833.774,-47.363,-40.039,-28.809,-163.574,0.000
1606141833.778,91.309,-33.203,-17.578,371.094,0.000
1606141833.782,83.008,-38.574,-18.066,390.137,0.000
1606141833.786,-58.594,-44.434,-26.367,-161.621,0.000
1606141833.790,-146.484,-50.293,-28.809,-523.438,0.000
1606141833.794,-71.777,-40.039,-26.855,-244.629,0.000
1606141833.798,64.453,-35.156,-20.508,311.523,0.000
1606141833.802,76.172,-56.641,-21.973,426.270,0.000
1606141833.806,-56.641,-55.664,-31.250,-86.426,0.000
1606141833.810,-157.227,-48.340,-36.621,-520.508,0.000
1606141833.813,-107.422,-44.922,-32.715,-326.172,0.000
1606141833.817,41.992,-35.156,-17.090,259.277,0.000
1606141833.821,84.473,-39.062,-14.648,452.148,0.000
1606141833.825,-42.969,-53.711,-28.809,-6.348,0.000
1606141833.829,-158.203,-59.570,-33.691,-490.723,0.000
1606141833.833,-124.023,-49.805,-26.855,-388.672,0.000
1606141833.837,22.949,-43.457,-18.555,194.824,0.000
1606141833.841,90.820,-38.086,-13.184,474.609,0.000
1606141833.845,-10.254,-36.621,-18.066,95.703,0.000
1606141833.849,-130.859,-43.457,-19.531,-411.133,0.000
1606141833.853,-120.605,-47.363,-20.508,-403.809,0.000
1606141833.856,17.578,-35.156,-18.555,141.113,0.000
1606141833.860,95.215,-50.293,-15.625,474.609,0.000
1606141833.864,11.230,-67.871,-16.113,170.898,0.000
1606141833.868,-121.582,-48.340,-18.066,-369.141,0.000
1606141833.872,-136.230,-42.969,-14.648,-459.961,0.000
1606141833.876,-1.465,-37.109,-9.277,58.594,0.000
1606141833.880,93.750,-27.832,-11.719,467.773,0.000
1606141833.884,30.273,-37.598,-16.113,241.699,0.000
1606141833.888,-111.816,-46.387,-22.949,-335.938,0.000
1606141833.892,-142.578,-43.945,-23.926,-501.465,0.000
1606141833.895,-16.113,-25.391,-17.578,-18.066,0.000
1606141833.899,93.750,-41.504,-16.113,442.383,0.000
1606141833.903,53.711,-57.129,-16.113,306.152,0.000
1606141833.907,-86.914,-36.621,-21.484,-268.066,0.000
1606141833.911,-128.906,-38.574,-25.391,-510.742,0.000
1606141833.915,-15.625,-32.715,-18.555,-99.121,0.000
1606141833.919,102.539,-28.809,-13.672,411.621,0.000
1606141833.923,77.637,-33.203,-15.137,364.746,0.000
1606141833.927,-73.730,-43.945,-23.926,-207.520,0.000
1606141833.931,-147.949,-47.363,-25.879,-523.926,0.000
1606141833.935,-56.152,-31.738,-22.949,-190.918,0.000
1606141833.938,68.848,-38.574,-21.973,349.609,0.000
1606141833.942,68.848,-49.805,-24.414,413.086,0.000
1606141833.946,-60.547,-41.992,-33.203,-122.559,0.000
1606141833.950,-149.902,-50.781,-33.203,-519.531,0.000
1606141833.954,-80.078,-43.457,-21.484,-266.602,0.000
1606141833.958,69.336,-32.715,-20.020,308.594,0.000
1606141833.962,95.215,-50.293,-25.391,449.219,0.000
1606141833.966,-41.992,-56.152,-28.809,-43.945,0.000
1606141833.970,-145.996,-52.246,-31.738,-490.234,0.000
1606141833.974,-85.449,-49.316,-27.344,-322.754,0.000
1606141833.978,64.941,-35.645,-17.578,265.137,0.000
1606141833.981,108.887,-31.738,-15.625,492.188,0.000
1606141833.985,-7.812,-36.133,-20.508,68.359,0.000
1606141833.989,-128.906,-44.922,-27.344,-437.012,0.000
1606141833.993,-111.816,-51.270,-27.344,-389.160,0.000
1606141833.997,25.391,-44.434,-26.855,186.035,0.000
1606141834.001,94.238,-45.410,-25.879,482.422,0.000
1606141834.005,-2.930,-49.316,-31.250,115.723,0.000
1606141834.009,-131.348,-54.199,-40.527,-424.316,0.000
1606141834.013,-118.652,-51.758,-38.574,-444.824,0.000
1606141834.017,28.809,-37.598,-26.367,108.887,0.000
1606141834.020,122.559,-34.668,-19.531,489.258,0.000
1606141834.024,52.734,-35.156,-23.926,214.355,0.000
1606141834.028,-94.238,-41.016,-30.273,-366.699,0.000
1606141834.032,-118.652,-47.363,-30.273,-474.609,0.000
1606141834.036,20.508,-29.785,-24.902,54.688,0.000
1606141834.040,118.652,-44.922,-24.414,475.586,0.000
1606141834.044,48.828,-74.707,-26.367,267.090,0.000
1606141834.048,-96.680,-56.152,-26.855,-305.176,0.000
1606141834.052,-144.531,-49.805,-31.250,-500.000,0.000
1606141834.056,-34.668,-40.527,-24.414,-36.621,0.000
1606141834.060,83.008,-27.832,-12.207,455.566,0.000
1606141834.063,60.059,-28.809,-20.020,343.750,0.000
1606141834.067,-73.242,-39.551,-33.691,-227.539,0.000
1606141834.071,-146.973,-51.758,-24.902,-491.211,0.000
1606141834.075,-68.848,-44.434,-11.719,-123.047,0.000
1606141834.079,58.594,-51.758,-7.812,400.879,0.000
1606141834.083,61.523,-61.035,-10.742,411.133,0.000
1606141834.087,-76.660,-57.129,-8.789,-150.391,0.000
1606141834.091,-160.156,-63.477,-7.812,-501.465,0.000
1606141834.095,-73.730,-51.270,-11.230,-192.383,0.000
1606141834.099,66.406,-45.410,-5.371,369.629,0.000
1606141834.103,80.078,-49.316,-3.418,449.219,0.000
1606141834.106,-50.781,-46.875,-9.277,-75.684,0.000
1606141834.110,-149.902,-54.688,-13.184,-486.816,0.000
1606141834.114,-85.938,-51.758,-10.254,-260.742,0.000
1606141834.118,58.594,-47.852,-9.766,317.871,0.000
1606141834.122,95.215,-42.969,-9.277,476.562,0.000
1606141834.126,-21.973,-41.016,-15.137,3.906,0.000
1606141834.130,-129.883,-46.875,-24.902,-448.242,0.000
1606141834.134,-85.938,-47.363,-27.344,-315.918,0.000
1606141834.138,60.059,-41.992,-16.113,248.535,0.000
1606141834.142,116.699,-51.270,-10.254,488.281,0.000
1606141834.145,9.277,-53.711,-18.555,77.148,0.000
1606141834.149,-116.211,-48.828,-25.391,-435.547,0.000
1606141834.153,-92.773,-47.363,-23.926,-392.578,0.000
1606141834.157,51.270,-38.574,-12.207,189.941,0.000
1606141834.161,125.000,-29.785,-3.418,516.113,0.000
1606141834.165,32.715,-29.297,-6.836,177.734,0.000
1606141834.169,-109.375,-50.781,-16.602,-373.535,0.000
1606141834.173,-116.211,-54.688,-17.578,-424.805,0.000
1606141834.177,31.738,-35.156,-3.418,139.648,0.000
1606141834.181,116.699,-54.199,-4.395,514.160,0.000
1606141834.185,33.691,-63.477,-15.137,240.234,0.000
1606141834.188,-101.562,-46.875,-12.695,-323.242,0.000
1606141834.192,-124.512,-49.805,-12.695,-464.844,0.000
1606141834.196,7.812,-43.457,-10.742,29.297,0.000
1606141834.200,113.281,-37.598,-7.812,471.680,0.000
1606141834.204,62.500,-37.109,-8.789,304.199,0.000
1606141834.208,-84.961,-42.480,-15.625,-276.855,0.000
1606141834.212,-139.648,-49.316,-25.391,-504.395,0.000
1606141834.216,-24.902,-37.109,-20.996,-71.777,0.000
1606141834.220,103.516,-25.879,-13.184,438.477,0.000
1606141834.224,83.496,-23.438,-12.207,376.465,0.000
1606141834.228,-69.336,-36.133,-20.996,-215.332,0.000
1606141834.231,-143.066,-49.316,-28.809,-517.578,0.000
1606141834.235,-41.016,-38.086,-24.902,-145.996,0.000
1606141834.239,94.727,-37.598,-15.625,384.766,0.000
1606141834.243,92.773,-46.875,-16.602,406.738,0.000
1606141834.247,-51.758,-41.504,-27.344,-149.902,0.000
1606141834.251,-142.090,-48.340,-31.250,-529.297,0.000
1606141834.255,-67.383,-44.922,-26.367,-240.234,0.000
1606141834.259,67.383,-34.668,-23.926,321.289,0.000
1606141834.263,84.473,-37.598,-21.484,429.688,0.000
1606141834.267,-46.875,-41.504,-27.832,-74.219,0.000
1606141834.270,-144.531,-46.387,-40.039,-499.512,0.000
1606141834.274,-85.938,-46.387,-37.598,-298.828,0.000
1606141834.278,57.129,-44.922,-27.832,282.715,0.000
1606141834.282,98.145,-54.688,-25.391,461.914,0.000
1606141834.286,-18.066,-49.805,-31.738,5.371,0.000
1606141834.290,-125.488,-45.898,-28.809,-461.426,0.000
1606141834.294,-85.449,-46.387,-23.438,-358.398,0.000
1606141834.298,53.711,-44.434,-20.508,213.867,0.000
1606141834.302,108.887,-40.527,-13.184,487.793,0.000
1606141834.306,8.301,-38.574,-16.113,97.656,0.000
1606141834.310,-122.070,-47.852,-31.738,-427.246,0.000
1606141834.313,-104.980,-47.363,-29.785,-401.367,0.000
1606141834.317,49.805,-30.762,-20.508,174.316,0.000
1606141834.321,114.258,-54.199,-22.461,496.094,0.000
1606141834.325,8.789,-75.684,-26.367,162.598,0.000
1606141834.329,-122.070,-58.594,-34.180,-387.207,0.000
1606141834.333,-123.535,-50.781,-30.762,-455.566,0.000
1606141834.337,12.695,-44.922,-23.926,71.289,0.000
1606141834.341,107.422,-38.574,-20.508,473.633,0.000
1606141834.345,40.527,-40.039,-21.484,243.652,0.000
1606141834.349,-99.609,-44.922,-24.902,-323.242,0.000
1606141834.353,-123.535,-50.293,-22.949,-480.469,0.000
1606141834.356,0.977,-44.922,-18.066,-14.160,0.000
1606141834.360,102.051,-37.109,-19.531,440.430,0.000
1606141834.364,56.641,-38.574,-26.855,296.875,0.000
1606141834.368,-91.309,-44.434,-32.715,-298.828,0.000
1606141834.372,-147.461,-51.270,-37.598,-547.852,0.000
1606141834.376,-39.551,-45.410,-32.227,-128.906,0.000
1606141834.380,81.055,-47.363,-23.926,387.207,0.000
1606141834.384,63.965,-48.340,-25.391,348.145,0.000
1606141834.388,-79.102,-44.434,-31.250,-218.750,0.000
1606141834.392,-147.461,-44.922,-28.320,-528.320,0.000
1606141834.395,-50.293,-31.738,-19.531,-184.082,0.000
1606141834.399,83.496,-25.879,-12.695,362.305,0.000
1606141834.403,88.867,-27.832,-13.184,411.621,0.000
1606141834.407,-48.340,-33.203,-22.461,-132.812,0.000
1606141834.411,-137.695,-39.551,-22.949,-505.859,0.000
1606141834.415,-62.988,-26.855,-20.996,-233.398,0.000
1606141834.419,65.430,-43.945,-24.414,312.012,0.000
1606141834.423,75.684,-89.355,-24.902,427.734,0.000
1606141834.427,-47.852,-68.359,-28.809,-52.734,0.000
1606141834.431,-148.926,-41.504,-31.250,-487.793,0.000
1606141834.435,-102.051,-43.945,-27.832,-322.266,0.000
1606141834.438,42.480,-39.551,-20.996,251.953,0.000
1606141834.442,88.379,-30.273,-17.578,472.168,0.000
1606141834.446,-26.367,-29.785,-20.020,44.434,0.000
1606141834.450,-148.926,-40.039,-25.391,-455.078,0.000
1606141834.454,-119.629,-34.668,-22.949,-377.441,0.000
1606141834.458,26.855,-26.855,-17.090,204.102,0.000
1606141834.462,86.426,-32.715,-16.602,478.027,0.000
1606141834.466,-7.324,-37.109,-19.531,112.305,0.000
1606141834.470,-128.906,-40.527,-22.461,-409.668,0.000
1606141834.474,-118.652,-37.598,-20.508,-433.594,0.000
1606141834.478,18.066,-32.715,-19.043,111.816,0.000
1606141834.481,100.586,-27.832,-16.113,476.562,0.000
1606141834.485,30.273,-28.320,-16.113,195.801,0.000
1606141834.489,-106.934,-33.691,-25.879,-367.676,0.000
1606141834.493,-123.047,-31.738,-29.785,-478.516,0.000
1606141834.497,13.184,-25.391,-22.949,36.133,0.000
1606141834.501,116.211,-22.461,-16.602,470.215,0.000
1606141834.505,59.570,-17.578,-18.066,273.926,0.000
1606141834.509,-84.961,-25.391,-25.391,-307.617,0.000
1606141834.513,-126.465,-35.645,-23.926,-500.488,0.000
1606141834.517,-11.719,-19.043,-18.555,-37.598,0.000
1606141834.520,94.238,-66.895,-16.602,435.059,0.000
1606141834.524,57.129,-97.168,-19.531,331.055,0.000
1606141834.528,-85.938,-45.898,-26.855,-242.188,0.000
1606141834.532,-149.414,-43.457,-25.391,-520.996,0.000
1606141834.536,-41.504,-32.715,-14.160,-119.629,0.000
1606141834.540,85.449,-29.297,-8.789,409.668,0.000
1606141834.544,62.012,-36.133,-21.973,386.719,0.000
1606141834.548,-87.891,-40.527,-32.715,-181.641,0.000
1606141834.552,-166.016,-43.945,-34.668,-515.137,0.000
1606141834.556,-79.102,-28.809,-32.715,-200.195,0.000
1606141834.560,58.594,-61.035,-24.414,350.098,0.000
1606141834.563,67.383,-79.590,-21.973,426.270,0.000
1606141834.567,-62.012,-37.109,-28.320,-98.145,0.000
1606141834.571,-159.180,-38.086,-34.668,-505.859,0.000
1606141834.575,-92.285,-35.156,-28.809,-274.902,0.000
1606141834.579,59.082,-28.809,-18.066,296.875,0.000
1606141834.583,88.867,-25.391,-17.578,454.590,0.000
1606141834.587,-37.109,-30.273,-25.391,-25.879,0.000
1606141834.591,-141.602,-41.504,-31.738,-491.211,0.000
1606141834.595,-85.938,-28.809,-27.832,-343.750,0.000
1606141834.599,64.453,-34.668,-25.391,238.281,0.000
1606141834.603,111.328,-84.961,-30.273,465.332,0.000
1606141834.606,5.859,-65.430,-29.785,48.828,0.000
1606141834.610,-114.258,-29.297,-29.297,-451.660,0.000
1606141834.614,-99.609,-33.691,-32.227,-401.855,0.000
1606141834.618,44.434,-32.227,-28.320,167.969,0.000
1606141834.622,115.723,-29.785,-26.367,475.586,0.000
1606141834.626,18.555,-33.691,-30.762,135.742,0.000
1606141834.630,-117.676,-41.504,-34.180,-401.855,0.000
1606141834.634,-127.930,-42.480,-32.715,-447.754,0.000
1606141834.638,6.836,-34.668,-20.020,101.562,0.000
1606141834.642,96.680,-28.320,-15.137,489.258,0.000
1606141834.645,20.508,-28.320,-22.949,229.980,0.000
1606141834.649,-123.535,-39.551,-29.785,-339.355,0.000
1606141834.653,-154.297,-45.898,-30.762,-479.492,0.000
1606141834.657,-34.180,-38.574,-26.855,16.602,0.000
1606141834.661,62.012,-65.918,-22.949,457.031,0.000
1606141834.665,3.906,-65.918,-20.996,279.785,0.000
1606141834.669,-137.207,-41.504,-27.832,-306.641,0.000
1606141834.673,-180.664,-48.828,-35.156,-529.297,0.000
1606141834.677,-55.664,-40.527,-25.879,-82.031,0.000
1606141834.681,74.707,-31.738,-19.531,419.922,0.000
1606141834.685,54.199,-31.250,-20.020,338.379,0.000
1606141834.688,-84.473,-42.480,-27.344,-234.375,0.000
1606141834.692,-140.137,-43.945,-34.180,-518.066,0.000
1606141834.696,-34.180,-29.297,-30.273,-151.855,0.000
1606141834.700,93.750,-43.457,-26.855,373.047,0.000
1606141834.704,87.891,-61.035,-29.785,383.789,0.000
1606141834.708,-51.270,-46.875,-39.551,-172.363,0.000
1606141834.712,-136.719,-43.945,-45.410,-531.250,0.000
1606141834.716,-55.176,-38.574,-39.062,-241.699,0.000
1606141834.720,85.938,-28.809,-30.273,320.312,0.000
1606141834.724,101.562,-25.391,-22.461,421.387,0.000
1606141834.728,-33.691,-34.180,-27.832,-96.680,0.000
1606141834.731,-129.883,-44.434,-36.133,-516.113,0.000
1606141834.735,-61.523,-33.203,-31.738,-303.711,0.000
1606141834.739,84.961,-42.969,-24.414,272.949,0.000
1606141834.743,122.070,-55.664,-22.461,448.242,0.000
1606141834.747,9.766,-36.621,-29.297,-4.883,0.000
1606141834.751,-104.004,-38.086,-33.691,-470.703,0.000
1606141834.755,-71.777,-33.691,-24.902,-346.680,0.000
1606141834.759,69.824,-19.531,-16.602,239.746,0.000
1606141834.763,114.258,-19.043,-12.207,502.441,0.000
1606141834.767,-9.277,-36.621,-19.043,100.586,0.000
1606141834.770,-140.137,-43.457,-26.855,-425.293,0.000
1606141834.774,-126.953,-34.668,-23.438,-401.367,0.000
1606141834.778,9.766,-37.598,-14.160,158.203,0.000
1606141834.782,85.449,-35.645,-11.230,489.258,0.000
1606141834.786,0.000,-32.227,-14.648,179.688,0.000
1606141834.790,-139.648,-50.781,-20.508,-376.465,0.000
1606141834.794,-145.996,-55.664,-25.391,-450.195,0.000
1606141834.798,-5.859,-42.969,-15.137,83.984,0.000
1606141834.802,84.473,-59.570,-15.137,480.957,0.000
1606141834.806,18.066,-58.105,-26.855,250.000,0.000
1606141834.810,-115.234,-41.504,-29.785,-319.824,0.000
1606141834.813,-138.672,-41.504,-31.250,-477.539,0.000
1606141834.817,-5.859,-25.391,-27.344,15.137,0.000
1606141834.821,109.863,-18.555,-21.484,477.539,0.000
1606141834.825,66.406,-21.973,-21.484,322.266,0.000
1606141834.829,-74.219,-24.902,-26.367,-260.254,0.000
1606141834.833,-116.699,-26.855,-26.367,-489.746,0.000
1606141834.837,-2.441,-20.996,-20.996,-77.148,0.000
1606141834.841,117.676,-24.902,-20.508,416.992,0.000
1606141834.845,91.797,-27.832,-20.996,359.375,0.000
1606141834.849,-56.641,-26.855,-29.297,-215.332,0.000
1606141834.853,-122.070,-23.926,-31.738,-529.297,0.000
1606141834.856,-26.367,-13.184,-21.484,-182.129,0.000
1606141834.860,98.145,-6.348,-15.625,359.375,0.000
1606141834.864,97.656,-3.906,-18.066,396.973,0.000
1606141834.868,-38.086,-16.602,-27.344,-142.090,0.000
1606141834.872,-136.230,-29.785,-30.273,-525.879,0.000
1606141834.876,-76.660,-19.043,-23.926,-271.484,0.000
1606141834.880,55.664,-16.113,-23.926,298.340,0.000
1606141834.884,69.824,-32.715,-29.297,420.898,0.000
1606141834.888,-62.012,-38.574,-29.785,-81.543,0.000
1606141834.892,-167.969,-42.480,-31.250,-518.555,0.000
1606141834.895,-110.840,-40.039,-30.762,-340.332,0.000
1606141834.899,40.527,-31.250,-19.043,247.070,0.000
1606141834.903,89.355,-34.180,-13.672,459.961,0.000
1606141834.907,-14.160,-37.598,-21.484,23.438,0.000
1606141834.911,-125.977,-36.621,-29.297,-457.520,0.000
