timestamps,TP9,AF7,AF8,TP10,Right AUX
1606127795.299,0.000,0.000,0.000,0.000,0.000
1606127795.303,0.000,0.000,-0.488,0.000,0.000
1606127795.307,-2.930,-1.465,-0.977,-4.883,0.000
1606127795.311,5.859,2.930,1.465,12.207,0.000
1606127795.314,-31.250,-15.625,-9.277,-53.223,0.000
1606127795.318,-76.172,-36.621,-20.020,-113.770,0.000
1606127795.322,-39.062,-24.414,-15.625,-4.395,0.000
1606127795.326,0.000,-23.926,-14.160,91.309,0.000
1606127795.330,-2.930,-34.180,-22.461,58.594,0.000
1606127795.334,-52.734,-36.133,-20.996,-84.961,0.000
1606127795.338,-85.449,-30.762,-14.648,-143.555,0.000
1606127795.342,-55.664,-29.785,-20.508,-46.875,0.000
1606127795.346,-30.762,-21.484,-15.625,35.645,0.000
1606127795.350,-46.875,-20.508,-9.277,-5.859,0.000
1606127795.354,-83.008,-34.668,-19.531,-119.629,0.000
1606127795.357,-96.680,-42.480,-27.344,-160.645,0.000
1606127795.361,-67.871,-23.438,-13.184,-70.801,0.000
1606127795.365,-19.043,-6.348,-7.812,42.480,0.000
1606127795.369,-13.184,-10.742,-19.531,31.738,0.000
1606127795.373,-51.270,-25.879,-23.926,-90.332,0.000
1606127795.377,-74.219,-35.156,-25.879,-155.762,0.000
1606127795.381,-44.922,-21.973,-25.879,-75.684,0.000
1606127795.385,0.488,-6.836,-18.066,50.781,0.000
1606127795.389,-0.488,-7.324,-15.137,54.199,0.000
1606127795.393,-44.434,-25.879,-20.020,-62.988,0.000
1606127795.396,-75.684,-38.574,-26.367,-134.766,0.000
1606127795.400,-58.594,-40.527,-22.949,-81.055,0.000
1606127795.404,-12.207,-31.250,-11.230,40.527,0.000
1606127795.408,0.488,-24.414,-6.348,66.895,0.000
1606127795.412,-41.016,-35.156,-16.113,-40.527,0.000
1606127795.416,-71.289,-39.551,-22.461,-124.512,0.000
1606127795.420,-51.270,-44.922,-24.902,-81.543,0.000
1606127795.424,-4.883,-36.621,-22.949,42.480,0.000
1606127795.428,2.930,-23.926,-20.020,79.590,0.000
1606127795.432,-35.645,-31.250,-28.320,-14.160,0.000
1606127795.436,-68.359,-37.598,-33.203,-121.094,0.000
1606127795.439,-60.547,-41.016,-27.832,-104.980,0.000
1606127795.443,-17.578,-33.203,-21.484,15.137,0.000
1606127795.447,9.277,-23.926,-20.508,68.359,0.000
1606127795.451,-13.672,-36.621,-21.973,-11.230,0.000
1606127795.455,-54.199,-39.551,-24.414,-124.023,0.000
1606127795.459,-48.828,-25.879,-26.367,-111.816,0.000
1606127795.463,-4.395,-20.020,-22.949,10.742,0.000
1606127795.467,23.438,-19.531,-17.090,80.078,0.000
1606127795.471,7.324,-20.508,-19.531,14.160,0.000
1606127795.475,-34.180,-32.227,-36.133,-105.469,0.000
1606127795.479,-36.621,-34.180,-32.715,-113.281,0.000
1606127795.482,2.441,-24.902,-20.020,0.488,0.000
1606127795.486,20.996,-19.043,-24.902,74.219,0.000
1606127795.490,6.836,-16.602,-25.391,21.484,0.000
1606127795.494,-34.668,-21.973,-22.949,-98.633,0.000
1606127795.498,-52.734,-21.973,-24.902,-125.977,0.000
1606127795.502,-14.160,-17.578,-22.949,-25.879,0.000
1606127795.506,22.461,-10.254,-8.301,71.777,0.000
1606127795.510,8.301,-7.812,-7.324,40.527,0.000
1606127795.514,-41.504,-13.672,-20.996,-88.379,0.000
1606127795.518,-69.824,-21.973,-30.273,-137.695,0.000
1606127795.521,-49.805,-27.344,-23.438,-44.922,0.000
1606127795.525,-13.672,-20.508,-14.648,71.777,0.000
1606127795.529,-14.648,-21.484,-15.137,54.688,0.000
1606127795.533,-60.059,-28.809,-19.531,-66.406,0.000
1606127795.537,-83.496,-31.738,-23.926,-122.070,0.000
1606127795.541,-55.664,-25.879,-17.578,-46.875,0.000
1606127795.545,-15.137,-19.531,-8.789,64.941,0.000
1606127795.549,-19.043,-16.113,-8.301,62.012,0.000
1606127795.553,-66.406,-20.020,-24.414,-63.477,0.000
1606127795.557,-92.285,-29.297,-31.738,-136.230,0.000
1606127795.561,-69.336,-32.715,-21.484,-66.406,0.000
1606127795.564,-24.414,-10.254,-18.555,55.176,0.000
1606127795.568,-20.996,-9.277,-21.484,68.359,0.000
1606127795.572,-62.988,-37.598,-26.855,-43.945,0.000
1606127795.576,-85.449,-43.457,-28.320,-125.000,0.000
1606127795.580,-63.965,-36.133,-28.809,-74.707,0.000
1606127795.584,-19.531,-22.461,-22.949,44.922,0.000
1606127795.588,-1.953,-18.066,-21.484,73.730,0.000
1606127795.592,-32.715,-20.996,-30.273,-27.832,0.000
1606127795.596,-67.383,-31.250,-38.086,-125.000,0.000
1606127795.600,-55.664,-30.762,-33.691,-89.355,0.000
1606127795.604,-8.301,-20.020,-18.555,41.992,0.000
1606127795.607,4.883,-17.578,-11.719,86.914,0.000
1606127795.611,-26.367,-31.250,-21.973,-11.230,0.000
1606127795.615,-59.570,-54.688,-35.645,-124.023,0.000
1606127795.619,-53.711,-46.875,-39.062,-117.676,0.000
1606127795.623,-13.672,-33.691,-37.598,-5.371,0.000
1606127795.627,7.812,-35.645,-29.297,60.547,0.000
1606127795.631,-22.461,-37.109,-33.691,-12.695,0.000
1606127795.635,-69.336,-40.039,-44.922,-134.277,0.000
1606127795.639,-66.406,-42.969,-46.875,-138.672,0.000
1606127795.643,-23.926,-43.457,-42.480,-18.555,0.000
1606127795.646,8.301,-26.855,-33.691,67.383,0.000
1606127795.650,-2.441,-16.113,-25.391,16.113,0.000
1606127795.654,-48.828,-33.203,-26.367,-109.863,0.000
1606127795.658,-59.082,-40.527,-31.738,-140.625,0.000
1606127795.662,-25.879,-32.715,-29.297,-34.668,0.000
1606127795.666,9.766,-21.484,-23.438,65.430,0.000
1606127795.670,0.000,-31.250,-32.715,20.996,0.000
1606127795.674,-45.898,-46.875,-43.945,-108.887,0.000
1606127795.678,-63.965,-48.340,-39.062,-144.531,0.000
1606127795.682,-36.133,-41.016,-35.156,-50.781,0.000
1606127795.686,4.883,-36.133,-33.203,50.293,0.000
1606127795.689,5.371,-29.297,-31.250,35.156,0.000
1606127795.693,-35.156,-23.926,-34.180,-83.008,0.000
1606127795.697,-60.059,-24.414,-31.250,-137.207,0.000
1606127795.701,-29.297,-28.320,-24.414,-51.270,0.000
1606127795.705,14.648,-26.367,-21.484,60.059,0.000
1606127795.709,12.695,-23.438,-21.973,51.270,0.000
1606127795.713,-22.461,-25.879,-29.297,-65.918,0.000
1606127795.717,-46.387,-32.715,-29.785,-133.789,0.000
1606127795.721,-33.691,-29.785,-26.367,-67.383,0.000
1606127795.725,6.348,-19.531,-19.043,55.664,0.000
1606127795.729,18.066,-18.066,-8.789,75.684,0.000
1606127795.732,-17.578,-20.020,-15.625,-32.715,0.000
1606127795.736,-49.316,-25.391,-27.832,-117.676,0.000
1606127795.740,-30.273,-24.414,-30.273,-68.359,0.000
1606127795.744,14.160,-2.930,-20.996,57.129,0.000
1606127795.748,26.367,0.488,-16.602,87.402,0.000
1606127795.752,-11.230,-22.461,-20.996,-18.555,0.000
1606127795.756,-62.012,-41.016,-35.156,-125.977,0.000
1606127795.760,-55.176,-41.992,-36.621,-98.145,0.000
1606127795.764,-8.301,-18.066,-19.531,33.691,0.000
1606127795.768,6.348,-10.742,-22.949,74.219,0.000
1606127795.771,-27.832,-25.879,-37.598,-27.344,0.000
1606127795.775,-63.477,-29.297,-38.574,-137.207,0.000
1606127795.779,-50.293,-21.973,-28.320,-112.793,0.000
1606127795.783,-1.953,-11.230,-19.531,15.625,0.000
1606127795.787,18.555,-1.465,-21.484,72.266,0.000
1606127795.791,-11.230,-7.812,-30.273,-7.324,0.000
1606127795.795,-52.246,-26.855,-37.598,-126.465,0.000
1606127795.799,-57.129,-40.527,-37.109,-133.301,0.000
1606127795.803,-23.438,-25.391,-25.879,-11.230,0.000
1606127795.807,1.953,-0.977,-13.184,70.312,0.000
1606127795.811,-23.438,-13.672,-21.973,-1.465,0.000
1606127795.814,-72.754,-40.039,-35.156,-130.859,0.000
1606127795.818,-76.172,-47.852,-33.691,-146.484,0.000
1606127795.822,-33.203,-35.645,-23.926,-28.320,0.000
1606127795.826,4.883,-22.949,-11.719,70.801,0.000
1606127795.830,-6.836,-29.297,-16.113,28.809,0.000
1606127795.834,-57.617,-37.109,-26.367,-100.586,0.000
1606127795.838,-71.289,-37.598,-23.926,-134.766,0.000
1606127795.842,-29.297,-28.320,-21.973,-24.414,0.000
1606127795.846,5.371,-16.113,-21.973,80.566,0.000
1606127795.850,-7.324,-23.438,-16.602,56.152,0.000
1606127795.854,-42.969,-34.668,-14.160,-70.312,0.000
1606127795.857,-64.453,-40.039,-20.508,-128.906,0.000
1606127795.861,-39.062,-31.250,-23.438,-41.016,0.000
1606127795.865,4.883,-27.344,-19.531,74.707,0.000
1606127795.869,3.906,-31.250,-22.949,63.965,0.000
1606127795.873,-37.598,-34.668,-32.227,-60.059,0.000
1606127795.877,-67.871,-44.434,-24.902,-127.441,0.000
1606127795.881,-55.176,-47.363,-18.555,-53.223,0.000
1606127795.885,-10.254,-10.254,-13.184,71.289,0.000
1606127795.889,-2.930,-1.953,-13.672,67.871,0.000
1606127795.893,-48.828,-44.922,-27.344,-66.406,0.000
1606127795.896,-78.613,-56.641,-28.809,-151.855,0.000
1606127795.900,-53.711,-42.480,-28.320,-84.961,0.000
1606127795.904,-7.324,-36.621,-16.113,48.828,0.000
1606127795.908,5.371,-40.039,-16.113,69.824,0.000
1606127795.912,-30.762,-40.527,-31.738,-42.480,0.000
1606127795.916,-68.359,-43.945,-34.180,-140.625,0.000
1606127795.920,-58.105,-44.922,-28.809,-96.191,0.000
1606127795.924,-8.789,-34.668,-23.926,46.875,0.000
1606127795.928,18.066,-26.367,-22.949,93.750,0.000
1606127795.932,-14.648,-33.691,-17.578,-5.859,0.000
1606127795.936,-58.594,-41.992,-22.461,-111.816,0.000
1606127795.939,-52.246,-43.945,-25.879,-82.520,0.000
1606127795.943,-4.395,-26.367,-19.043,53.223,0.000
1606127795.947,12.207,-11.230,-17.090,107.422,0.000
1606127795.951,-18.066,-27.832,-23.926,16.113,0.000
1606127795.955,-57.617,-42.969,-30.273,-104.492,0.000
1606127795.959,-58.594,-39.062,-25.879,-101.562,0.000
1606127795.963,-15.137,-27.832,-20.020,17.090,0.000
1606127795.967,12.695,-20.996,-19.043,89.355,0.000
1606127795.971,-7.812,-26.367,-18.066,20.020,0.000
1606127795.975,-51.758,-39.551,-26.367,-104.492,0.000
1606127795.979,-60.547,-42.969,-31.738,-113.770,0.000
1606127795.982,-16.602,-34.180,-31.250,-0.488,0.000
1606127795.986,25.879,-18.555,-25.391,89.844,0.000
1606127795.990,5.859,-21.484,-22.461,32.715,0.000
1606127795.994,-47.363,-39.551,-27.344,-100.586,0.000
1606127795.998,-61.523,-41.992,-27.344,-123.535,0.000
1606127796.002,-22.949,-31.738,-18.066,-14.160,0.000
1606127796.006,11.230,-20.996,-17.578,82.031,0.000
1606127796.010,-1.465,-26.367,-20.020,42.480,0.000
1606127796.014,-45.898,-39.062,-29.785,-91.309,0.000
1606127796.018,-70.312,-35.645,-32.715,-138.672,0.000
1606127796.021,-43.457,-21.973,-24.902,-37.598,0.000
1606127796.025,-6.836,-13.672,-21.973,77.637,0.000
1606127796.029,-6.836,-22.949,-19.531,50.293,0.000
1606127796.033,-50.293,-37.109,-27.832,-82.031,0.000
1606127796.037,-81.055,-42.480,-37.109,-142.578,0.000
1606127796.041,-54.199,-34.180,-34.668,-60.059,0.000
1606127796.045,-6.348,-29.297,-28.320,64.941,0.000
1606127796.049,-3.418,-32.227,-22.949,62.988,0.000
1606127796.053,-46.875,-37.598,-27.344,-59.570,0.000
1606127796.057,-78.125,-45.898,-39.551,-135.254,0.000
1606127796.061,-61.035,-41.992,-34.668,-76.172,0.000
1606127796.064,-16.602,-29.785,-24.902,52.246,0.000
1606127796.068,-4.883,-24.902,-24.414,74.707,0.000
1606127796.072,-43.457,-37.109,-30.273,-41.992,0.000
1606127796.076,-79.102,-50.781,-34.668,-137.695,0.000
1606127796.080,-62.500,-46.875,-31.250,-97.168,0.000
1606127796.084,-12.207,-31.250,-28.320,36.133,0.000
1606127796.088,7.324,-20.020,-25.879,75.684,0.000
1606127796.092,-22.949,-28.320,-28.809,-27.344,0.000
1606127796.096,-58.594,-41.016,-41.016,-131.348,0.000
1606127796.100,-54.688,-38.574,-36.133,-102.051,0.000
1606127796.104,-12.207,-24.414,-22.949,25.391,0.000
1606127796.107,4.883,-21.973,-26.855,68.359,0.000
1606127796.111,-28.320,-34.668,-39.062,-28.320,0.000
1606127796.115,-65.430,-40.527,-35.645,-141.602,0.000
1606127796.119,-59.570,-35.156,-29.297,-125.000,0.000
1606127796.123,-19.531,-26.855,-29.297,9.277,0.000
1606127796.127,4.395,-21.484,-23.438,82.031,0.000
1606127796.131,-19.043,-26.855,-20.996,3.906,0.000
1606127796.135,-61.523,-34.180,-24.414,-113.770,0.000
1606127796.139,-63.965,-33.203,-33.691,-113.281,0.000
1606127796.143,-18.066,-29.785,-25.879,6.836,0.000
1606127796.146,15.137,-23.926,-17.578,88.379,0.000
1606127796.150,-4.395,-15.137,-25.391,34.668,0.000
1606127796.154,-49.805,-25.879,-25.879,-89.844,0.000
1606127796.158,-64.941,-30.762,-31.738,-112.305,0.000
1606127796.162,-28.320,-22.461,-27.344,-2.930,0.000
1606127796.166,6.836,-20.996,-14.160,87.891,0.000
1606127796.170,-9.766,-21.484,-18.066,41.504,0.000
1606127796.174,-58.594,-37.598,-31.250,-90.820,0.000
1606127796.178,-77.148,-48.828,-31.738,-131.836,0.000
1606127796.182,-44.434,-41.992,-23.926,-30.762,0.000
1606127796.186,-7.812,-45.898,-24.902,74.707,0.000
1606127796.189,-15.625,-36.621,-30.273,46.387,0.000
1606127796.193,-65.918,-26.367,-35.645,-82.520,0.000
1606127796.197,-91.309,-31.250,-32.715,-142.090,0.000
1606127796.201,-65.430,-33.203,-30.273,-55.176,0.000
1606127796.205,-30.762,-30.762,-31.738,58.105,0.000
1606127796.209,-29.785,-26.855,-28.320,43.457,0.000
1606127796.213,-61.523,-37.598,-27.832,-81.055,0.000
1606127796.217,-91.797,-47.363,-35.156,-154.297,0.000
1606127796.221,-64.941,-38.574,-27.344,-77.148,0.000
1606127796.225,-13.184,-27.832,-12.207,57.617,0.000
1606127796.229,-16.602,-20.508,-13.184,64.453,0.000
1606127796.232,-61.035,-30.762,-27.832,-65.430,0.000
1606127796.236,-90.332,-43.945,-40.039,-156.738,0.000
1606127796.240,-79.590,-41.016,-39.062,-106.445,0.000
1606127796.244,-31.250,-28.809,-24.414,16.602,0.000
1606127796.248,-8.301,-24.414,-20.996,45.898,0.000
1606127796.252,-42.480,-30.273,-36.621,-62.500,0.000
1606127796.256,-74.219,-35.156,-42.969,-154.297,0.000
1606127796.260,-52.734,-28.320,-29.785,-107.910,0.000
1606127796.264,-5.859,-27.832,-20.996,20.020,0.000
1606127796.268,7.324,-40.527,-29.297,68.848,0.000
1606127796.271,-17.578,-34.180,-35.645,-22.949,0.000
1606127796.275,-51.270,-32.715,-39.551,-130.859,0.000
1606127796.279,-40.527,-31.738,-39.551,-98.633,0.000
1606127796.283,-9.277,-26.855,-17.578,30.762,0.000
1606127796.287,-5.371,-25.879,-3.906,87.402,0.000
1606127796.291,-35.645,-26.855,-19.043,4.883,0.000
1606127796.295,-78.125,-42.969,-23.438,-117.676,0.000
1606127796.299,-74.219,-41.016,-20.020,-118.652,0.000
1606127796.303,-27.832,-28.809,-18.066,6.836,0.000
1606127796.307,12.207,-23.926,-10.742,92.773,0.000
1606127796.311,-9.766,-24.902,-18.066,24.414,0.000
1606127796.314,-56.641,-35.156,-28.320,-105.469,0.000
1606127796.318,-58.594,-40.039,-25.391,-123.535,0.000
1606127796.322,-25.391,-36.133,-28.809,-7.812,0.000
1606127796.326,9.766,-28.320,-25.879,84.473,0.000
1606127796.330,0.488,-20.996,-25.879,30.762,0.000
1606127796.334,-45.898,-24.414,-33.203,-101.074,0.000
1606127796.338,-60.547,-30.762,-24.902,-130.371,0.000
1606127796.342,-25.879,-27.832,-12.207,-21.973,0.000
1606127796.346,7.812,-23.926,-11.230,82.031,0.000
1606127796.350,-0.488,-22.949,-14.160,53.711,0.000
1606127796.354,-39.551,-18.555,-16.602,-71.777,0.000
1606127796.357,-57.617,-23.438,-16.113,-122.070,0.000
1606127796.361,-32.227,-26.855,-8.301,-28.320,0.000
1606127796.365,11.230,-9.766,-2.441,84.961,0.000
1606127796.369,6.348,-9.277,-9.277,62.500,0.000
1606127796.373,-43.945,-27.344,-17.578,-73.242,0.000
1606127796.377,-65.430,-38.574,-21.484,-136.719,0.000
1606127796.381,-44.434,-41.504,-28.809,-62.012,0.000
1606127796.385,-3.906,-31.250,-22.949,66.895,0.000
1606127796.389,0.488,-31.250,-16.113,79.102,0.000
1606127796.393,-39.062,-49.805,-29.785,-48.340,0.000
1606127796.396,-66.895,-46.875,-41.016,-125.000,0.000
1606127796.400,-45.898,-30.762,-37.109,-60.547,0.000
1606127796.404,3.906,-31.738,-17.090,67.383,0.000
1606127796.408,11.719,-32.227,-13.184,87.402,0.000
1606127796.412,-28.809,-23.926,-27.344,-29.297,0.000
1606127796.416,-63.477,-20.508,-29.785,-123.047,0.000
1606127796.420,-49.805,-21.484,-30.762,-83.984,0.000
1606127796.424,-1.953,-17.578,-27.344,41.992,0.000
1606127796.428,18.066,-19.531,-22.461,82.031,0.000
1606127796.432,-14.160,-25.391,-34.180,-29.785,0.000
1606127796.436,-50.781,-33.691,-41.992,-133.789,0.000
1606127796.439,-39.551,-33.203,-26.367,-98.145,0.000
1606127796.443,11.719,-18.555,-21.484,29.297,0.000
1606127796.447,36.133,-5.371,-24.414,88.867,0.000
1606127796.451,1.953,-14.160,-25.391,-0.488,0.000
1606127796.455,-42.969,-33.691,-32.715,-123.047,0.000
1606127796.459,-38.574,-27.344,-32.715,-112.793,0.000
1606127796.463,0.488,-24.414,-28.809,12.207,0.000
1606127796.467,15.137,-35.645,-24.902,76.172,0.000
1606127796.471,-10.742,-22.461,-31.738,1.465,0.000
1606127796.475,-54.688,-22.461,-40.527,-122.070,0.000
1606127796.479,-60.059,-34.668,-42.480,-126.953,0.000
1606127796.482,-16.113,-30.273,-38.574,-7.324,0.000
1606127796.486,22.949,-20.996,-33.203,78.125,0.000
1606127796.490,3.418,-24.414,-27.832,21.484,0.000
1606127796.494,-49.805,-41.504,-33.203,-115.234,0.000
1606127796.498,-65.918,-44.922,-42.480,-142.578,0.000
1606127796.502,-27.344,-36.133,-26.855,-23.926,0.000
1606127796.506,8.301,-27.344,-14.648,79.102,0.000
1606127796.510,-12.695,-23.926,-22.461,41.504,0.000
1606127796.514,-63.965,-37.109,-35.645,-92.285,0.000
1606127796.518,-76.172,-41.504,-27.832,-137.695,0.000
1606127796.521,-44.434,-33.203,-18.066,-39.062,0.000
1606127796.525,-6.836,-27.344,-22.949,67.383,0.000
1606127796.529,-16.602,-28.320,-23.438,41.016,0.000
1606127796.533,-67.383,-34.668,-30.273,-88.379,0.000
1606127796.537,-87.891,-39.551,-32.715,-145.020,0.000
1606127796.541,-59.570,-34.668,-22.461,-60.059,0.000
1606127796.545,-20.020,-24.414,-21.973,58.594,0.000
1606127796.549,-14.648,-26.367,-27.344,53.711,0.000
1606127796.553,-55.176,-39.551,-24.902,-76.172,0.000
1606127796.557,-81.543,-41.992,-26.855,-151.855,0.000
1606127796.561,-53.711,-40.039,-33.691,-78.613,0.000
1606127796.564,-7.324,-28.320,-21.973,44.434,0.000
1606127796.568,0.488,-21.973,-14.160,63.477,0.000
1606127796.572,-41.016,-35.645,-31.250,-56.641,0.000
1606127796.576,-76.660,-46.387,-45.898,-162.598,0.000
1606127796.580,-65.430,-41.992,-46.875,-101.562,0.000
1606127796.584,-15.625,-33.203,-31.738,35.156,0.000
1606127796.588,3.418,-28.320,-26.855,60.547,0.000
1606127796.592,-36.621,-29.785,-26.855,-47.363,0.000
1606127796.596,-73.242,-35.156,-31.738,-142.578,0.000
1606127796.600,-66.406,-38.086,-40.527,-109.863,0.000
1606127796.604,-26.855,-35.645,-36.133,20.508,0.000
1606127796.607,-5.371,-34.180,-27.832,67.871,0.000
1606127796.611,-34.180,-35.156,-28.809,-30.273,0.000
1606127796.615,-65.430,-35.156,-33.691,-134.277,0.000
1606127796.619,-56.641,-36.133,-30.762,-104.004,0.000
1606127796.623,-16.602,-28.320,-28.809,29.785,0.000
1606127796.627,7.812,-16.602,-17.578,94.238,0.000
1606127796.631,-9.277,-16.113,-11.719,24.902,0.000
1606127796.635,-54.199,-27.344,-28.809,-94.727,0.000
1606127796.639,-65.918,-35.645,-38.086,-102.051,0.000
1606127796.643,-23.926,-36.133,-28.320,16.113,0.000
1606127796.646,6.836,-41.016,-25.391,87.891,0.000
1606127796.650,-17.090,-31.738,-29.297,23.438,0.000
1606127796.654,-61.523,-26.367,-32.227,-100.586,0.000
1606127796.658,-72.266,-41.992,-34.180,-129.395,0.000
1606127796.662,-31.738,-40.039,-26.367,-18.555,0.000
1606127796.666,10.742,-21.484,-20.996,77.637,0.000
1606127796.670,-5.371,-16.602,-30.762,24.902,0.000
1606127796.674,-52.734,-26.367,-32.227,-108.398,0.000
1606127796.678,-58.594,-21.484,-22.949,-138.184,0.000
1606127796.682,-26.367,-19.531,-27.832,-38.086,0.000
1606127796.686,6.348,-23.438,-30.762,62.012,0.000
1606127796.689,-6.836,-26.855,-25.879,38.086,0.000
1606127796.693,-55.664,-33.203,-31.250,-91.797,0.000
1606127796.697,-69.824,-34.668,-35.645,-141.602,0.000
1606127796.701,-42.969,-39.062,-35.645,-58.105,0.000
1606127796.705,-8.301,-29.297,-31.738,45.410,0.000
1606127796.709,-9.766,-23.438,-27.344,35.645,0.000
1606127796.713,-50.781,-24.414,-34.180,-83.496,0.000
1606127796.717,-72.754,-33.203,-35.156,-149.414,0.000
1606127796.721,-57.617,-41.504,-38.574,-76.660,0.000
1606127796.725,-16.602,-28.809,-39.062,49.316,0.000
1606127796.729,-6.348,-23.438,-31.250,62.988,0.000
1606127796.732,-47.363,-34.668,-37.598,-56.641,0.000
1606127796.736,-78.125,-44.922,-41.504,-133.301,0.000
1606127796.740,-62.012,-49.805,-29.297,-73.242,0.000
1606127796.744,-20.020,-28.809,-18.555,53.223,0.000
1606127796.748,-13.672,-11.719,-15.137,83.008,0.000
1606127796.752,-46.875,-33.691,-16.113,-23.926,0.000
1606127796.756,-80.078,-46.875,-25.879,-124.512,0.000
1606127796.760,-69.336,-43.457,-30.762,-89.355,0.000
1606127796.764,-21.484,-33.203,-22.461,43.457,0.000
1606127796.768,-5.371,-20.508,-16.602,80.566,0.000
1606127796.771,-35.156,-23.926,-31.250,-20.508,0.000
1606127796.775,-75.195,-38.574,-37.109,-126.465,0.000
1606127796.779,-70.312,-50.781,-35.645,-104.492,0.000
1606127796.783,-27.832,-35.156,-36.621,17.578,0.000
1606127796.787,-6.348,-20.996,-30.762,65.430,0.000
1606127796.791,-20.020,-33.691,-34.180,-13.184,0.000
1606127796.795,-60.059,-37.598,-45.898,-125.977,0.000
1606127796.799,-63.965,-41.992,-44.434,-121.582,0.000
1606127796.803,-24.414,-37.598,-44.434,1.953,0.000
1606127796.807,4.883,-31.250,-44.922,72.754,0.000
1606127796.811,-12.695,-31.738,-41.016,6.836,0.000
1606127796.814,-54.199,-35.645,-41.016,-114.746,0.000
1606127796.818,-58.594,-37.598,-41.504,-125.000,0.000
1606127796.822,-20.020,-17.090,-37.109,-4.395,0.000
1606127796.826,7.812,3.418,-30.273,77.637,0.000
1606127796.830,-10.254,-17.578,-32.715,16.602,0.000
1606127796.834,-50.293,-41.992,-31.738,-105.957,0.000
1606127796.838,-63.965,-37.598,-36.133,-125.977,0.000
1606127796.842,-31.738,-32.227,-38.086,-25.391,0.000
1606127796.846,1.953,-26.367,-24.414,67.871,0.000
1606127796.850,-7.812,-29.297,-24.902,34.180,0.000
1606127796.854,-51.758,-44.434,-34.668,-88.379,0.000
1606127796.857,-71.777,-48.340,-44.922,-134.766,0.000
1606127796.861,-55.176,-41.016,-49.316,-60.059,0.000
1606127796.865,-17.090,-25.391,-42.969,43.457,0.000
1606127796.869,-4.395,-20.996,-34.180,47.852,0.000
1606127796.873,-41.992,-40.527,-37.598,-66.895,0.000
1606127796.877,-67.383,-49.805,-41.992,-125.977,0.000
1606127796.881,-34.180,-40.527,-34.180,-38.086,0.000
1606127796.885,16.602,-15.625,-28.320,85.449,0.000
1606127796.889,15.137,-16.113,-24.902,78.125,0.000
1606127796.893,-31.738,-32.227,-20.508,-47.852,0.000
1606127796.896,-56.152,-32.715,-26.855,-120.605,0.000
1606127796.900,-27.344,-28.809,-34.180,-53.711,0.000
1606127796.904,20.020,-21.484,-20.020,74.707,0.000
1606127796.908,30.273,-20.996,-23.926,94.238,0.000
1606127796.912,-6.348,-20.508,-35.156,-20.020,0.000
1606127796.916,-37.109,-25.391,-29.297,-107.910,0.000
1606127796.920,-20.996,-36.133,-31.250,-59.570,0.000
1606127796.924,21.484,-30.273,-29.785,67.871,0.000
1606127796.928,32.715,-14.648,-22.949,102.539,0.000
1606127796.932,-8.789,-24.414,-33.203,-3.418,0.000
1606127796.936,-43.945,-35.156,-40.527,-104.492,0.000
1606127796.939,-36.621,-36.621,-37.109,-78.613,0.000
1606127796.943,2.930,-26.855,-21.973,45.410,0.000
1606127796.947,23.926,-16.113,-24.902,96.191,0.000
1606127796.951,-5.859,-32.227,-37.598,7.812,0.000
1606127796.955,-39.062,-39.551,-32.715,-97.656,0.000
1606127796.959,-31.738,-38.086,-32.227,-76.660,0.000
1606127796.963,2.441,-27.344,-26.855,49.805,0.000
1606127796.967,15.625,-17.090,-14.648,102.051,0.000
1606127796.971,-13.184,-32.715,-14.160,17.090,0.000
1606127796.975,-58.105,-46.387,-29.785,-103.516,0.000
1606127796.979,-57.617,-42.969,-28.809,-98.145,0.000
1606127796.982,-12.207,-25.391,-13.184,24.902,0.000
1606127796.986,13.672,-20.996,-14.648,103.027,0.000
1606127796.990,-8.789,-32.227,-24.902,38.574,0.000
1606127796.994,-52.246,-37.598,-28.809,-93.262,0.000
1606127796.998,-66.406,-44.922,-31.738,-116.211,0.000
1606127797.002,-33.203,-33.203,-25.879,-5.859,0.000
1606127797.006,-2.930,-20.996,-17.578,82.031,0.000
1606127797.010,-20.508,-23.926,-25.391,30.273,0.000
1606127797.014,-65.430,-39.062,-35.645,-100.586,0.000
1606127797.018,-78.125,-46.875,-41.016,-138.184,0.000
1606127797.021,-37.109,-36.621,-33.203,-35.156,0.000
1606127797.025,-0.488,-16.113,-21.484,62.988,0.000
1606127797.029,-14.648,-22.949,-24.414,24.414,0.000
1606127797.033,-57.617,-44.922,-33.203,-101.562,0.000
1606127797.037,-78.613,-51.270,-43.945,-146.973,0.000
1606127797.041,-50.781,-43.457,-44.434,-59.570,0.000
1606127797.045,-6.348,-26.855,-35.645,54.199,0.000
1606127797.049,-5.371,-27.832,-33.691,39.062,0.000
1606127797.053,-42.480,-34.180,-39.551,-80.078,0.000
1606127797.057,-66.406,-38.086,-43.945,-133.301,0.000
1606127797.061,-41.504,-42.969,-39.062,-60.547,0.000
1606127797.064,7.324,-22.949,-30.762,58.594,0.000
1606127797.068,12.207,-15.625,-27.344,71.289,0.000
1606127797.072,-18.555,-29.785,-29.785,-38.574,0.000
1606127797.076,-58.594,-33.691,-33.203,-128.418,0.000
1606127797.080,-58.594,-39.062,-35.156,-92.285,0.000
1606127797.084,-9.766,-30.762,-30.273,41.504,0.000
1606127797.088,0.000,-27.344,-25.391,70.312,0.000
1606127797.092,-42.969,-38.086,-27.344,-56.641,0.000
1606127797.096,-68.359,-50.781,-29.785,-143.555,0.000
1606127797.100,-47.363,-48.340,-29.785,-93.262,0.000
1606127797.104,0.488,-23.438,-21.484,42.969,0.000
1606127797.107,12.695,-13.184,-17.578,77.637,0.000
1606127797.111,-25.391,-28.320,-28.320,-35.156,0.000
1606127797.115,-61.523,-41.504,-36.133,-146.973,0.000
1606127797.119,-61.523,-42.480,-32.227,-121.582,0.000
1606127797.123,-19.531,-33.691,-24.902,8.301,0.000
1606127797.127,3.906,-24.902,-28.320,57.617,0.000
1606127797.131,-29.297,-31.738,-31.250,-31.738,0.000
1606127797.135,-77.148,-43.945,-33.203,-142.578,0.000
1606127797.139,-76.660,-44.434,-40.527,-132.812,0.000
1606127797.143,-29.785,-39.062,-33.691,-14.648,0.000
1606127797.146,-1.465,-27.832,-26.855,53.223,0.000
1606127797.150,-24.902,-26.367,-33.203,-13.672,0.000
1606127797.154,-67.871,-36.621,-42.969,-129.883,0.000
1606127797.158,-76.660,-45.898,-43.945,-136.230,0.000
1606127797.162,-34.668,-40.039,-35.645,-17.090,0.000
1606127797.166,2.441,-20.508,-32.227,76.172,0.000
1606127797.170,-18.066,-26.367,-35.156,22.949,0.000
1606127797.174,-70.312,-38.086,-41.016,-106.445,0.000
1606127797.178,-77.148,-36.621,-34.180,-128.418,0.000
1606127797.182,-36.621,-33.203,-16.602,-20.996,0.000
1606127797.186,0.000,-14.160,-14.648,75.195,0.000
1606127797.189,-10.742,-12.695,-27.344,36.621,0.000
1606127797.193,-54.688,-17.578,-28.320,-94.727,0.000
1606127797.197,-68.359,-15.625,-24.902,-141.113,0.000
1606127797.201,-43.457,-29.785,-27.832,-47.852,0.000
1606127797.205,-0.977,-16.602,-28.809,62.500,0.000
1606127797.209,3.418,-16.602,-32.227,41.504,0.000
1606127797.213,-45.898,-41.504,-41.016,-78.613,0.000
1606127797.217,-64.941,-37.598,-41.992,-135.254,0.000
1606127797.221,-35.645,-34.668,-44.434,-59.082,0.000
1606127797.225,0.977,-28.320,-37.598,53.223,0.000
1606127797.229,0.488,-20.996,-35.645,49.805,0.000
1606127797.232,-39.551,-29.297,-43.945,-66.406,0.000
1606127797.236,-74.707,-47.852,-49.805,-149.902,0.000
1606127797.240,-58.105,-42.969,-48.340,-91.309,0.000
1606127797.244,-12.207,-23.926,-35.645,34.180,0.000
1606127797.248,-4.883,-24.902,-33.203,46.875,0.000
1606127797.252,-40.527,-27.832,-36.133,-59.570,0.000
1606127797.256,-73.730,-32.715,-35.645,-142.578,0.000
1606127797.260,-64.941,-35.156,-39.062,-97.656,0.000
1606127797.264,-20.020,-20.508,-34.180,31.738,0.000
1606127797.268,-6.836,-17.578,-31.250,69.336,0.000
1606127797.271,-38.574,-30.273,-38.086,-32.715,0.000
1606127797.275,-67.383,-28.809,-40.527,-125.000,0.000
1606127797.279,-64.453,-27.344,-39.551,-94.727,0.000
1606127797.283,-27.344,-34.668,-37.109,22.949,0.000
1606127797.287,-9.277,-26.855,-32.227,73.730,0.000
1606127797.291,-36.133,-21.484,-31.250,-10.254,0.000
1606127797.295,-72.754,-39.062,-36.133,-119.629,0.000
1606127797.299,-71.289,-42.969,-38.574,-106.445,0.000
1606127797.303,-24.902,-32.227,-25.391,14.648,0.000
1606127797.307,4.395,-34.668,-20.020,76.660,0.000
1606127797.311,-14.160,-26.855,-27.832,2.930,0.000
1606127797.314,-54.688,-32.715,-33.203,-113.770,0.000
1606127797.318,-62.988,-45.898,-29.297,-113.281,0.000
1606127797.322,-19.531,-31.738,-19.043,12.695,0.000
1606127797.326,17.578,-13.184,-16.113,91.797,0.000
1606127797.330,1.953,-15.137,-19.531,25.879,0.000
1606127797.334,-42.969,-26.855,-34.668,-100.586,0.000
1606127797.338,-47.363,-31.250,-37.598,-115.234,0.000
1606127797.342,-12.207,-31.250,-26.855,-12.695,0.000
1606127797.346,13.672,-20.996,-25.391,64.453,0.000
1606127797.350,-2.930,-23.926,-25.879,21.484,0.000
1606127797.354,-46.875,-33.203,-32.715,-103.516,0.000
1606127797.357,-58.594,-33.203,-35.156,-143.066,0.000
1606127797.361,-27.344,-30.762,-24.902,-30.273,0.000
1606127797.365,8.301,-22.949,-21.484,67.871,0.000
1606127797.369,-2.930,-12.207,-27.832,34.668,0.000
1606127797.373,-51.758,-25.391,-36.133,-89.844,0.000
1606127797.377,-74.219,-42.480,-45.898,-139.160,0.000
1606127797.381,-39.551,-33.203,-35.156,-52.734,0.000
1606127797.385,2.930,-20.996,-26.367,49.805,0.000
1606127797.389,-6.348,-28.809,-33.691,39.062,0.000
1606127797.393,-55.176,-41.504,-32.227,-84.961,0.000
1606127797.396,-86.426,-42.969,-31.738,-147.461,0.000
1606127797.400,-63.965,-38.086,-27.344,-75.195,0.000
1606127797.404,-18.555,-31.250,-18.555,46.387,0.000
1606127797.408,-13.672,-23.926,-19.531,58.105,0.000
1606127797.412,-54.688,-29.297,-31.250,-61.035,0.000
1606127797.416,-80.566,-33.691,-34.668,-136.719,0.000
1606127797.420,-60.547,-32.715,-30.273,-71.777,0.000
1606127797.424,-10.742,-26.367,-19.531,52.734,0.000
1606127797.428,1.465,-20.996,-10.742,73.730,0.000
1606127797.432,-44.434,-27.344,-29.785,-37.598,0.000
1606127797.436,-76.172,-42.969,-43.945,-133.789,0.000
1606127797.439,-60.059,-55.664,-31.738,-95.215,0.000
1606127797.443,-24.414,-32.227,-20.508,30.273,0.000
1606127797.447,-9.766,-12.207,-17.578,67.383,0.000
1606127797.451,-38.086,-31.738,-22.949,-24.902,0.000
1606127797.455,-77.148,-41.504,-25.879,-129.883,0.000
1606127797.459,-71.289,-35.645,-21.973,-116.211,0.000
1606127797.463,-23.926,-21.484,-17.578,14.160,0.000
1606127797.467,-3.906,-14.648,-19.043,76.172,0.000
1606127797.471,-36.621,-29.297,-30.273,-13.672,0.000
1606127797.475,-67.871,-40.039,-39.551,-127.930,0.000
1606127797.479,-60.547,-40.527,-32.227,-97.168,0.000
1606127797.482,-27.344,-37.109,-16.602,28.809,0.000
1606127797.486,-13.184,-30.762,-9.277,76.660,0.000
1606127797.490,-38.086,-36.133,-15.137,-0.488,0.000
1606127797.494,-78.125,-47.852,-25.391,-117.676,0.000
1606127797.498,-88.867,-46.387,-22.461,-126.465,0.000
1606127797.502,-50.781,-31.250,-13.184,-19.531,0.000
1606127797.506,-10.742,-26.367,-5.371,66.406,0.000
1606127797.510,-26.367,-26.367,-12.695,25.391,0.000
1606127797.514,-67.871,-24.902,-20.020,-89.844,0.000
1606127797.518,-74.219,-31.738,-7.812,-106.445,0.000
1606127797.521,-34.180,-27.344,-2.930,2.930,0.000
1606127797.525,5.859,-4.395,-4.395,97.168,0.000
1606127797.529,-3.418,-5.371,-7.812,54.688,0.000
1606127797.533,-49.805,-26.855,-19.531,-76.172,0.000
1606127797.537,-65.918,-37.109,-22.461,-120.117,0.000
1606127797.541,-35.645,-32.715,-17.578,-28.809,0.000
1606127797.545,5.859,-19.531,-10.742,81.543,0.000
1606127797.549,2.930,-19.043,-10.254,60.059,0.000
1606127797.553,-44.922,-37.109,-19.531,-71.777,0.000
1606127797.557,-67.383,-36.133,-24.414,-130.371,0.000
1606127797.561,-39.551,-27.832,-19.531,-47.852,0.000
1606127797.564,4.883,-28.809,-12.695,67.871,0.000
1606127797.568,-1.953,-34.668,-24.414,53.711,0.000
1606127797.572,-46.387,-36.133,-37.109,-65.918,0.000
1606127797.576,-67.383,-33.203,-38.086,-139.648,0.000
1606127797.580,-47.852,-41.016,-36.621,-85.449,0.000
1606127797.584,-7.812,-24.902,-28.320,36.133,0.000
1606127797.588,-0.977,-7.324,-21.973,53.711,0.000
1606127797.592,-42.969,-30.762,-29.297,-54.688,0.000
1606127797.596,-70.801,-39.062,-27.832,-135.254,0.000
1606127797.600,-51.270,-37.109,-12.695,-82.520,0.000
1606127797.604,-6.348,-24.414,-8.789,48.340,0.000
1606127797.607,3.906,-18.555,-11.230,79.102,0.000
1606127797.611,-34.668,-36.621,-19.043,-22.949,0.000
1606127797.615,-68.848,-40.527,-34.668,-121.582,0.000
1606127797.619,-62.012,-44.434,-33.691,-96.191,0.000
1606127797.623,-13.184,-29.297,-18.555,34.668,0.000
1606127797.627,5.371,-17.090,-16.113,80.078,0.000
1606127797.631,-34.668,-36.133,-26.367,-20.508,0.000
1606127797.635,-70.312,-38.574,-27.832,-126.465,0.000
1606127797.639,-68.848,-38.086,-21.484,-112.305,0.000
1606127797.643,-26.367,-29.297,-10.254,11.230,0.000
1606127797.646,7.324,-27.344,-12.695,77.637,0.000
1606127797.650,-15.137,-37.109,-24.414,4.883,0.000
1606127797.654,-63.477,-34.668,-29.785,-116.699,0.000
1606127797.658,-65.430,-34.668,-35.156,-126.465,0.000
1606127797.662,-20.508,-26.855,-33.203,-12.207,0.000
1606127797.666,14.160,-9.766,-26.855,72.266,0.000
1606127797.670,-3.906,-24.902,-29.297,17.578,0.000
1606127797.674,-46.387,-49.805,-36.133,-110.352,0.000
1606127797.678,-57.129,-49.316,-35.645,-136.230,0.000
1606127797.682,-23.926,-29.297,-29.297,-14.648,0.000
1606127797.686,18.555,-15.137,-19.531,88.379,0.000
1606127797.689,11.230,-18.066,-10.254,41.992,0.000
1606127797.693,-36.621,-25.879,-18.555,-92.773,0.000
1606127797.697,-53.223,-22.461,-21.973,-129.883,0.000
1606127797.701,-23.438,-17.090,-18.555,-27.344,0.000
1606127797.705,11.719,-16.113,-21.484,78.613,0.000
1606127797.709,9.766,-16.113,-18.066,70.312,0.000
1606127797.713,-30.762,-22.949,-20.020,-60.059,0.000
1606127797.717,-50.293,-36.133,-29.297,-118.652,0.000
1606127797.721,-23.926,-30.762,-26.855,-31.738,0.000
1606127797.725,16.602,-6.836,-18.066,74.707,0.000
1606127797.729,13.184,-11.230,-15.137,70.801,0.000
1606127797.732,-34.180,-33.203,-25.879,-51.758,0.000
1606127797.736,-62.012,-32.227,-32.227,-123.535,0.000
1606127797.740,-40.527,-28.320,-27.344,-59.570,0.000
1606127797.744,5.859,-18.066,-22.461,61.035,0.000
1606127797.748,11.719,-15.137,-22.461,69.824,0.000
1606127797.752,-29.785,-26.855,-26.367,-45.898,0.000
1606127797.756,-62.988,-41.016,-31.250,-130.371,0.000
1606127797.760,-49.316,-41.016,-29.785,-82.031,0.000
1606127797.764,-5.859,-26.855,-18.066,34.180,0.000
1606127797.768,1.953,-30.762,-19.043,55.176,0.000
1606127797.771,-31.738,-46.387,-34.668,-45.898,0.000
1606127797.775,-59.570,-41.016,-45.410,-134.277,0.000
1606127797.779,-53.711,-31.250,-36.621,-88.379,0.000
1606127797.783,-11.719,-23.926,-21.484,35.156,0.000
1606127797.787,9.766,-20.996,-17.090,60.547,0.000
1606127797.791,-23.438,-29.297,-22.461,-36.133,0.000
1606127797.795,-57.129,-27.344,-23.926,-135.254,0.000
1606127797.799,-51.758,-23.926,-14.648,-115.234,0.000
1606127797.803,-4.395,-23.926,-17.090,8.301,0.000
1606127797.807,21.973,-25.391,-16.113,67.383,0.000
1606127797.811,-12.207,-32.715,-20.996,-13.672,0.000
1606127797.814,-65.430,-40.039,-31.250,-120.605,0.000
1606127797.818,-73.730,-34.668,-29.297,-113.770,0.000
1606127797.822,-28.320,-25.879,-20.508,-0.488,0.000
1606127797.826,3.418,-25.391,-18.066,70.312,0.000
1606127797.830,-19.531,-27.344,-24.414,4.395,0.000
1606127797.834,-59.570,-34.668,-23.926,-107.422,0.000
1606127797.838,-61.523,-33.691,-28.809,-117.676,0.000
1606127797.842,-26.367,-22.949,-30.273,-9.766,0.000
1606127797.846,4.883,-20.508,-16.602,73.242,0.000
1606127797.850,-7.324,-25.391,-22.949,20.020,0.000
1606127797.854,-52.246,-30.762,-43.945,-105.957,0.000
1606127797.857,-67.871,-41.992,-36.133,-139.160,0.000
1606127797.861,-29.785,-36.133,-22.461,-33.203,0.000
1606127797.865,6.348,-24.902,-18.066,74.219,0.000
1606127797.869,-4.883,-28.320,-7.324,44.434,0.000
1606127797.873,-52.246,-39.551,-18.555,-84.961,0.000
1606127797.877,-76.172,-45.410,-41.992,-139.160,0.000
1606127797.881,-47.363,-36.621,-40.527,-55.664,0.000
1606127797.885,-9.277,-27.832,-26.855,50.293,0.000
1606127797.889,-15.625,-29.297,-22.949,32.227,0.000
1606127797.893,-58.594,-42.969,-35.645,-86.426,0.000
1606127797.896,-80.566,-46.875,-40.527,-143.066,0.000
1606127797.900,-58.105,-38.086,-35.645,-71.289,0.000
1606127797.904,-20.020,-34.668,-32.227,37.598,0.000
1606127797.908,-11.230,-40.527,-27.832,54.199,0.000
1606127797.912,-33.203,-46.875,-28.320,-50.293,0.000
1606127797.916,-63.965,-41.504,-31.738,-146.484,0.000
1606127797.920,-59.570,-32.715,-28.809,-97.656,0.000
1606127797.924,-17.578,-27.344,-20.020,25.391,0.000
1606127797.928,-6.348,-31.250,-25.879,51.270,0.000
1606127797.932,-52.734,-46.387,-34.180,-59.570,0.000
1606127797.936,-94.727,-55.664,-37.598,-152.832,0.000
1606127797.939,-73.730,-43.945,-40.527,-105.469,0.000
1606127797.943,-26.855,-22.461,-22.461,21.973,0.000
1606127797.947,-9.766,-13.672,-15.137,65.918,0.000
1606127797.951,-41.016,-27.832,-27.344,-29.785,0.000
1606127797.955,-75.684,-36.133,-36.621,-129.395,0.000
1606127797.959,-61.523,-34.180,-39.062,-95.703,0.000
1606127797.963,-19.043,-30.273,-28.809,28.809,0.000
1606127797.967,17.090,-25.879,-13.672,77.637,0.000
1606127797.971,-15.137,-36.133,-16.113,-9.766,0.000
1606127797.975,-59.082,-42.969,-27.832,-123.535,0.000
1606127797.979,-53.223,-43.945,-36.133,-114.258,0.000
1606127797.982,-16.602,-38.574,-33.203,14.160,0.000
1606127797.986,20.020,-31.250,-28.320,79.102,0.000
1606127797.990,-5.859,-31.250,-31.250,10.254,0.000
1606127797.994,-46.875,-26.855,-32.715,-97.168,0.000
1606127797.998,-45.898,-28.320,-31.738,-106.934,0.000
1606127798.002,-4.883,-27.344,-25.391,5.371,0.000
1606127798.006,21.973,-19.531,-20.508,85.938,0.000
1606127798.010,-0.488,-20.996,-18.555,34.180,0.000
1606127798.014,-42.969,-29.297,-21.973,-97.656,0.000
1606127798.018,-56.641,-31.738,-38.086,-130.859,0.000
1606127798.021,-24.414,-28.809,-32.715,-20.508,0.000
1606127798.025,7.812,-20.996,-15.625,74.707,0.000
1606127798.029,11.230,-14.160,-21.484,34.180,0.000
1606127798.033,-38.086,-27.344,-34.668,-88.379,0.000
1606127798.037,-76.172,-36.133,-33.203,-121.094,0.000
1606127798.041,-35.645,-21.484,-22.949,-16.113,0.000
1606127798.045,6.348,0.488,-15.137,91.309,0.000
1606127798.049,0.000,-0.488,-11.719,61.523,0.000
1606127798.053,-48.340,-30.273,-18.555,-72.266,0.000
1606127798.057,-67.871,-37.598,-24.902,-126.953,0.000
1606127798.061,-35.645,-29.785,-15.625,-44.434,0.000
1606127798.064,2.441,-30.762,-9.277,62.988,0.000
1606127798.068,8.789,-36.621,-17.578,54.688,0.000
1606127798.072,-23.438,-33.203,-20.020,-60.059,0.000
1606127798.076,-50.293,-28.809,-24.414,-130.371,0.000
1606127798.080,-35.156,-36.621,-25.879,-65.918,0.000
1606127798.084,6.348,-20.020,-12.207,60.059,0.000
1606127798.088,14.648,-12.695,-9.277,72.266,0.000
1606127798.092,-27.832,-38.086,-23.438,-46.387,0.000
1606127798.096,-65.430,-40.527,-39.062,-135.742,0.000
1606127798.100,-59.082,-35.645,-37.109,-89.844,0.000
1606127798.104,-12.207,-24.414,-22.949,44.922,0.000
1606127798.107,5.371,-21.973,-25.391,73.730,0.000
1606127798.111,-35.645,-40.527,-27.832,-37.598,0.000
1606127798.115,-74.707,-46.875,-32.715,-130.859,0.000
1606127798.119,-61.523,-44.922,-30.762,-96.680,0.000
1606127798.123,-15.137,-31.738,-26.367,32.227,0.000
1606127798.127,3.418,-16.113,-25.879,75.684,0.000
1606127798.131,-12.695,-22.461,-29.297,-22.949,0.000
1606127798.135,-55.176,-26.367,-36.621,-125.977,0.000
1606127798.139,-69.824,-23.438,-36.621,-102.051,0.000
1606127798.143,-17.578,-14.648,-24.902,20.508,0.000
1606127798.146,11.719,-7.812,-12.695,79.590,0.000
1606127798.150,-19.043,-20.508,-22.461,0.488,0.000
1606127798.154,-67.871,-34.668,-37.598,-114.746,0.000
1606127798.158,-65.430,-36.133,-35.645,-117.188,0.000
1606127798.162,-19.531,-30.762,-19.531,-1.953,0.000
1606127798.166,7.812,-13.672,-16.113,72.266,0.000
1606127798.170,-8.301,-9.766,-17.090,18.555,0.000
1606127798.174,-49.316,-24.902,-18.066,-101.562,0.000
1606127798.178,-57.129,-25.879,-19.043,-122.559,0.000
1606127798.182,-17.090,-21.484,-13.184,-4.395,0.000
1606127798.186,16.113,-15.625,-16.113,86.426,0.000
1606127798.189,3.906,-19.531,-22.461,35.156,0.000
1606127798.193,-38.574,-37.598,-26.367,-93.262,0.000
1606127798.197,-50.781,-43.945,-33.691,-125.000,0.000
1606127798.201,-23.438,-35.156,-32.715,-27.832,0.000
1606127798.205,23.438,-27.832,-28.320,67.871,0.000
1606127798.209,25.391,-26.855,-25.879,41.504,0.000
1606127798.213,-41.992,-28.320,-20.996,-77.637,0.000
1606127798.217,-72.754,-35.645,-32.227,-135.254,0.000
1606127798.221,-48.828,-31.250,-37.109,-48.340,0.000
1606127798.225,-13.184,-15.625,-26.855,56.641,0.000
1606127798.229,-16.602,-17.578,-21.484,40.527,0.000
1606127798.232,-61.035,-31.250,-32.715,-77.637,0.000
1606127798.236,-89.844,-41.504,-40.039,-149.414,0.000
1606127798.240,-65.918,-37.109,-25.879,-76.660,0.000
1606127798.244,-23.438,-13.184,-12.207,45.898,0.000
1606127798.248,-15.137,-1.953,-10.742,55.176,0.000
1606127798.252,-56.641,-20.996,-22.949,-60.547,0.000
1606127798.256,-91.797,-36.621,-29.297,-143.066,0.000
1606127798.260,-71.777,-29.297,-26.367,-86.914,0.000
1606127798.264,-27.344,-17.090,-22.949,29.785,0.000
1606127798.268,-5.859,-20.020,-20.996,38.574,0.000
1606127798.271,-38.574,-23.438,-26.855,-68.359,0.000
1606127798.275,-91.797,-31.738,-31.738,-156.738,0.000
1606127798.279,-73.242,-23.438,-31.738,-116.699,0.000
1606127798.283,-27.832,-16.602,-29.785,9.277,0.000
1606127798.287,-14.648,-23.926,-24.902,38.574,0.000
1606127798.291,-44.434,-28.320,-33.691,-57.129,0.000
1606127798.295,-81.055,-39.551,-46.387,-158.203,0.000
1606127798.299,-64.453,-37.598,-36.133,-131.836,0.000
1606127798.303,-19.043,-29.785,-25.391,-7.324,0.000
1606127798.307,0.488,-26.855,-27.344,45.898,0.000
1606127798.311,-19.531,-31.738,-36.621,-28.809,0.000
1606127798.314,-63.965,-41.992,-34.668,-136.230,0.000
1606127798.318,-61.035,-33.691,-32.227,-122.070,0.000
1606127798.322,-16.602,-20.020,-28.320,10.254,0.000
1606127798.326,-0.977,-23.438,-25.879,75.195,0.000
1606127798.330,-20.996,-38.574,-30.762,-4.395,0.000
1606127798.334,-61.523,-50.781,-33.203,-121.582,0.000
1606127798.338,-67.383,-40.039,-35.645,-122.070,0.000
1606127798.342,-36.133,-34.668,-23.438,-6.836,0.000
1606127798.346,-0.977,-30.273,-16.602,74.707,0.000
1606127798.350,-4.395,-24.414,-36.621,25.391,0.000
1606127798.354,-71.289,-33.203,-46.387,-100.098,0.000
1606127798.357,-89.355,-43.457,-48.340,-123.047,0.000
1606127798.361,-45.410,-38.574,-44.434,-17.578,0.000
1606127798.365,-21.484,-24.414,-19.043,63.965,0.000
1606127798.369,-34.180,-21.973,-22.461,26.367,0.000
1606127798.373,-65.918,-33.203,-50.781,-85.938,0.000
1606127798.377,-76.172,-47.852,-50.293,-121.582,0.000
1606127798.381,-39.551,-45.410,-40.527,-26.367,0.000
1606127798.385,7.324,-21.484,-27.344,82.031,0.000
1606127798.389,1.953,-20.508,-26.855,62.012,0.000
1606127798.393,-33.691,-36.133,-46.387,-60.547,0.000
1606127798.396,-42.969,-40.039,-30.762,-107.910,0.000
1606127798.400,-16.602,-36.133,-24.414,-20.020,0.000
1606127798.404,28.320,-26.855,-33.203,84.473,0.000
1606127798.408,34.180,-22.461,-15.137,81.543,0.000
1606127798.412,-9.277,-36.133,-26.855,-32.227,0.000
1606127798.416,-29.297,-36.133,-36.621,-108.887,0.000
1606127798.420,13.184,-25.879,-22.949,-34.668,0.000
1606127798.424,32.227,-22.949,-19.531,83.984,0.000
1606127798.428,25.391,-7.812,-24.902,94.727,0.000
1606127798.432,-0.488,-20.996,-18.066,-6.836,0.000
1606127798.436,-28.320,-46.875,-13.184,-83.008,0.000
1606127798.439,-16.602,-42.480,-21.484,-34.668,0.000
1606127798.443,19.043,-29.785,-19.531,73.730,0.000
1606127798.447,29.297,-25.879,-7.324,108.398,0.000
1606127798.451,-3.906,-40.527,-7.324,10.742,0.000
1606127798.455,-46.387,-53.223,-25.391,-87.891,0.000
1606127798.459,-37.109,-45.898,-13.184,-48.340,0.000
1606127798.463,8.789,-35.156,5.371,64.453,0.000
1606127798.467,38.086,-35.645,0.488,101.562,0.000
1606127798.471,2.441,-39.551,-2.930,13.672,0.000
1606127798.475,-52.246,-42.969,-2.930,-97.656,0.000
1606127798.479,-39.551,-34.668,-7.812,-83.496,0.000
1606127798.482,8.301,-30.273,0.000,36.133,0.000
1606127798.486,37.598,-28.320,11.230,96.191,0.000
1606127798.490,13.184,-29.785,3.906,19.531,0.000
1606127798.494,-29.785,-39.062,-7.812,-101.562,0.000
1606127798.498,-28.809,-40.527,-1.465,-105.957,0.000
1606127798.502,12.207,-34.668,13.672,8.789,0.000
1606127798.506,34.668,-20.508,24.902,86.426,0.000
1606127798.510,39.551,-11.230,29.785,33.203,0.000
1606127798.514,-1.465,-21.484,29.297,-83.008,0.000
1606127798.518,-36.133,-32.715,29.785,-102.051,0.000
1606127798.521,0.488,-29.297,29.785,2.441,0.000
1606127798.525,29.297,-8.301,26.855,89.355,0.000
1606127798.529,14.648,-1.465,26.855,45.898,0.000
1606127798.533,-31.738,-28.809,18.066,-82.520,0.000
1606127798.537,-52.246,-40.527,9.766,-123.535,0.000
1606127798.541,-20.020,-33.203,14.160,-14.160,0.000
1606127798.545,14.160,-19.043,18.066,93.262,0.000
1606127798.549,-9.766,-24.414,15.625,41.504,0.000
1606127798.553,-71.777,-37.598,9.277,-105.957,0.000
1606127798.557,-98.145,-41.016,8.789,-161.621,0.000
1606127798.561,-72.266,-46.387,14.648,-71.289,0.000
1606127798.564,-37.109,-17.578,19.043,41.504,0.000
1606127798.568,-42.969,-8.789,17.090,28.320,0.000
1606127798.572,-82.520,-38.086,10.254,-92.285,0.000
1606127798.576,-101.074,-43.945,3.418,-153.809,0.000
1606127798.580,-70.801,-43.945,-9.277,-79.590,0.000
1606127798.584,-25.391,-34.180,-6.836,36.133,0.000
1606127798.588,2.441,-20.996,-0.977,44.922,0.000
1606127798.592,-31.250,-25.391,-10.254,-62.500,0.000
1606127798.596,-82.520,-36.621,-17.578,-144.043,0.000
1606127798.600,-58.105,-33.691,-14.160,-91.797,0.000
1606127798.604,-1.465,-13.672,-4.395,42.969,0.000
1606127798.607,12.207,-2.441,-2.930,64.453,0.000
1606127798.611,-26.367,-32.227,-17.578,-53.711,0.000
1606127798.615,-59.082,-51.758,-20.996,-145.020,0.000
1606127798.619,-44.434,-38.086,-16.113,-103.027,0.000
1606127798.623,-3.906,-26.855,-14.648,20.996,0.000
1606127798.627,5.859,-20.996,-17.090,64.453,0.000
1606127798.631,-33.203,-33.691,-24.414,-25.391,0.000
1606127798.635,-66.406,-42.480,-25.391,-125.000,0.000
1606127798.639,-51.758,-33.691,-24.414,-97.168,0.000
1606127798.643,-9.277,-25.391,-18.555,33.203,0.000
1606127798.646,12.695,-20.020,-17.090,90.820,0.000
1606127798.650,-18.555,-29.297,-24.414,-4.883,0.000
1606127798.654,-66.406,-42.480,-31.250,-120.117,0.000
1606127798.658,-71.289,-49.316,-35.156,-113.281,0.000
1606127798.662,-35.156,-33.691,-34.180,3.906,0.000
1606127798.666,-13.672,-9.277,-28.320,71.777,0.000
1606127798.670,-28.320,-23.438,-28.320,0.488,0.000
1606127798.674,-66.406,-42.969,-38.574,-123.047,0.000
1606127798.678,-88.867,-48.340,-42.969,-139.160,0.000
1606127798.682,-54.199,-37.109,-38.086,-30.762,0.000
1606127798.686,-16.602,-24.902,-34.180,56.641,0.000
1606127798.689,-27.832,-28.809,-35.645,7.812,0.000
1606127798.693,-74.707,-37.109,-42.969,-127.441,0.000
1606127798.697,-89.844,-40.039,-48.828,-160.156,0.000
1606127798.701,-48.828,-36.133,-41.016,-61.035,0.000
1606127798.705,-8.301,-28.809,-29.297,38.574,0.000
1606127798.709,-19.043,-27.832,-29.297,9.277,0.000
1606127798.713,-56.641,-32.227,-36.133,-119.141,0.000
1606127798.717,-66.406,-32.227,-40.527,-160.156,0.000
1606127798.721,-39.551,-21.973,-34.668,-65.918,0.000
1606127798.725,-2.930,-7.812,-25.391,45.898,0.000
1606127798.729,0.977,-10.742,-23.438,38.086,0.000
1606127798.732,-41.504,-22.949,-23.438,-83.496,0.000
1606127798.736,-70.801,-25.879,-30.762,-145.020,0.000
1606127798.740,-46.875,-21.484,-30.762,-64.453,0.000
1606127798.744,-5.859,-8.789,-27.344,53.223,0.000
1606127798.748,-5.371,-5.859,-31.250,54.199,0.000
1606127798.752,-44.434,-20.508,-32.715,-60.547,0.000
1606127798.756,-70.801,-27.832,-34.180,-135.742,0.000
1606127798.760,-53.223,-25.879,-29.297,-72.754,0.000
1606127798.764,-18.066,-11.719,-16.602,52.734,0.000
1606127798.768,-17.578,-14.648,-13.672,69.336,0.000
1606127798.771,-56.641,-34.180,-28.809,-44.434,0.000
1606127798.775,-88.379,-43.457,-35.156,-125.488,0.000
1606127798.779,-71.777,-44.434,-28.809,-73.730,0.000
1606127798.783,-26.855,-18.066,-20.508,52.246,0.000
1606127798.787,-11.719,-4.395,-15.625,80.566,0.000
1606127798.791,-39.551,-18.555,-22.949,-24.414,0.000
1606127798.795,-70.801,-28.809,-25.391,-124.512,0.000
1606127798.799,-63.965,-36.133,-22.461,-97.656,0.000
1606127798.803,-15.625,-24.902,-21.973,25.879,0.000
1606127798.807,16.113,0.488,-28.809,74.219,0.000
1606127798.811,-4.883,-14.160,-34.180,-12.207,0.000
1606127798.814,-44.922,-40.039,-38.086,-125.488,0.000
1606127798.818,-46.875,-41.016,-36.133,-108.887,0.000
1606127798.822,-0.488,-28.320,-27.344,10.742,0.000
1606127798.826,22.461,-16.602,-29.297,62.012,0.000
1606127798.830,-10.254,-24.414,-40.039,-19.531,0.000
1606127798.834,-51.758,-33.203,-41.504,-135.254,0.000
1606127798.838,-53.223,-30.273,-37.598,-131.348,0.000
1606127798.842,-20.508,-28.320,-38.574,-14.648,0.000
1606127798.846,1.465,-14.648,-40.527,62.012,0.000
1606127798.850,-17.578,-21.973,-35.645,9.277,0.000
1606127798.854,-53.223,-41.016,-36.621,-105.469,0.000
1606127798.857,-59.082,-36.133,-40.039,-124.512,0.000
1606127798.861,-26.367,-24.902,-28.809,-12.695,0.000
1606127798.865,-0.488,-19.531,-25.391,74.219,0.000
1606127798.869,-18.066,-24.414,-25.391,32.227,0.000
1606127798.873,-63.965,-30.273,-28.809,-92.773,0.000
1606127798.877,-93.262,-35.156,-40.527,-136.719,0.000
1606127798.881,-65.430,-34.668,-33.691,-46.387,0.000
1606127798.885,-20.996,-9.277,-19.043,59.570,0.000
1606127798.889,-28.809,-3.906,-25.391,38.574,0.000
1606127798.893,-79.102,-42.969,-38.086,-96.680,0.000
1606127798.896,-100.586,-57.617,-40.527,-152.344,0.000
1606127798.900,-64.941,-39.062,-39.062,-60.059,0.000
1606127798.904,-27.344,-29.785,-34.180,51.270,0.000
1606127798.908,-29.297,-34.180,-28.320,42.969,0.000
1606127798.912,-69.336,-42.969,-36.133,-77.637,0.000
1606127798.916,-94.727,-46.875,-42.969,-142.090,0.000
1606127798.920,-66.895,-41.016,-37.598,-67.871,0.000
1606127798.924,-18.066,-24.902,-18.555,57.129,0.000
1606127798.928,-8.301,-20.020,-9.277,69.336,0.000
1606127798.932,-45.410,-36.133,-26.855,-49.805,0.000
1606127798.936,-71.777,-46.875,-33.203,-134.766,0.000
1606127798.939,-48.828,-47.852,-31.250,-72.754,0.000
1606127798.943,-3.418,-26.855,-28.809,61.035,0.000
1606127798.947,6.348,-11.230,-25.879,78.613,0.000
1606127798.951,-20.508,-24.414,-28.320,-20.996,0.000
1606127798.955,-53.223,-40.039,-34.668,-113.770,0.000
1606127798.959,-47.363,-41.016,-39.551,-87.891,0.000
1606127798.963,-0.977,-13.672,-29.785,36.133,0.000
1606127798.967,17.090,-1.465,-22.461,83.008,0.000
1606127798.971,-10.742,-15.625,-25.391,-10.742,0.000
1606127798.975,-58.105,-26.367,-31.738,-112.305,0.000
1606127798.979,-63.477,-33.203,-36.133,-83.008,0.000
1606127798.982,-26.367,-20.996,-31.250,34.668,0.000
1606127798.986,-4.395,-10.742,-22.949,87.402,0.000
1606127798.990,-32.715,-26.367,-18.066,6.348,0.000
1606127798.994,-75.195,-34.180,-26.367,-104.980,0.000
1606127798.998,-79.590,-36.133,-36.621,-100.586,0.000
1606127799.002,-48.828,-31.250,-36.133,7.324,0.000
1606127799.006,-19.043,-16.113,-26.855,82.520,0.000
1606127799.010,-41.504,-24.414,-25.879,28.320,0.000
1606127799.014,-77.148,-39.062,-37.598,-93.750,0.000
1606127799.018,-67.383,-44.434,-42.969,-113.281,0.000
1606127799.021,-45.898,-41.016,-38.574,-10.254,0.000
1606127799.025,-15.137,-10.742,-27.832,72.266,0.000
1606127799.029,-16.113,-8.789,-24.414,24.414,0.000
1606127799.033,-52.246,-40.039,-34.668,-101.562,0.000
1606127799.037,-55.176,-39.062,-33.691,-120.117,0.000
1606127799.041,-18.555,-31.250,-25.879,-23.438,0.000
1606127799.045,16.602,-25.391,-30.273,63.477,0.000
1606127799.049,16.602,-20.020,-27.344,42.480,0.000
1606127799.053,-25.391,-27.344,-32.715,-77.637,0.000
1606127799.057,-53.223,-30.762,-36.133,-127.930,0.000
1606127799.061,-25.391,-23.438,-30.273,-41.992,0.000
1606127799.064,18.066,-17.090,-25.879,65.430,0.000
1606127799.068,10.254,-18.066,-24.902,47.852,0.000
1606127799.072,-31.250,-26.855,-35.156,-65.918,0.000
1606127799.076,-44.922,-30.762,-38.086,-115.723,0.000
1606127799.080,-23.438,-38.574,-29.297,-46.875,0.000
1606127799.084,10.742,-17.578,-24.902,56.641,0.000
1606127799.088,20.020,14.160,-25.879,59.082,0.000
1606127799.092,-23.438,-19.043,-26.367,-49.805,0.000
1606127799.096,-68.359,-42.480,-36.133,-130.371,0.000
1606127799.100,-46.875,-31.250,-33.203,-74.707,0.000
1606127799.104,0.977,-24.414,-21.973,56.152,0.000
1606127799.107,8.301,-33.203,-23.926,76.172,0.000
1606127799.111,-35.156,-40.527,-31.250,-37.109,0.000
1606127799.115,-71.777,-37.598,-40.039,-128.906,0.000
1606127799.119,-54.199,-33.691,-34.668,-86.426,0.000
1606127799.123,-11.230,-20.996,-19.531,43.457,0.000
1606127799.127,-1.465,-7.324,-17.578,73.730,0.000
1606127799.131,-30.273,-20.996,-20.020,-20.996,0.000
1606127799.135,-60.059,-34.668,-27.344,-112.305,0.000
1606127799.139,-56.152,-33.691,-35.156,-96.680,0.000
1606127799.143,-18.066,-29.785,-25.391,19.043,0.000
1606127799.146,8.301,-24.414,-22.949,77.148,0.000
1606127799.150,-12.695,-28.320,-26.367,-2.441,0.000
1606127799.154,-59.570,-36.621,-29.297,-121.094,0.000
1606127799.158,-62.012,-32.227,-29.297,-119.141,0.000
1606127799.162,-17.578,-15.137,-22.461,13.184,0.000
1606127799.166,13.184,2.930,-20.996,88.867,0.000
1606127799.170,-11.230,-17.578,-30.762,9.277,0.000
1606127799.174,-59.570,-46.875,-33.691,-107.910,0.000
1606127799.178,-66.895,-48.340,-36.133,-108.887,0.000
1606127799.182,-24.902,-37.598,-34.668,6.348,0.000
1606127799.186,8.789,-25.391,-29.785,85.449,0.000
1606127799.189,-8.789,-30.762,-28.809,27.832,0.000
1606127799.193,-59.082,-44.922,-29.785,-95.703,0.000
1606127799.197,-79.590,-53.711,-36.621,-120.605,0.000
1606127799.201,-45.898,-53.711,-33.203,-17.578,0.000
1606127799.205,-18.555,-45.410,-28.320,63.965,0.000
1606127799.209,-35.645,-37.109,-34.180,18.555,0.000
1606127799.213,-75.684,-43.457,-40.039,-109.863,0.000
1606127799.217,-91.797,-50.293,-33.691,-153.320,0.000
1606127799.221,-60.059,-51.270,-39.062,-63.965,0.000
1606127799.225,-20.508,-33.203,-41.992,32.227,0.000
1606127799.229,-23.438,-18.066,-32.227,8.301,0.000
1606127799.232,-61.523,-39.551,-38.574,-116.211,0.000
1606127799.236,-75.684,-50.293,-45.898,-177.734,0.000
1606127799.240,-46.875,-45.410,-43.945,-106.445,0.000
1606127799.244,-13.672,-31.250,-38.574,12.695,0.000
1606127799.248,-10.742,-25.879,-35.645,16.602,0.000
1606127799.252,-45.898,-36.621,-40.527,-99.609,0.000
1606127799.256,-69.336,-39.551,-43.945,-167.969,0.000
1606127799.260,-49.805,-33.691,-38.086,-102.051,0.000
1606127799.264,-2.441,-26.855,-27.832,20.020,0.000
1606127799.268,6.836,-23.926,-22.949,35.156,0.000
1606127799.271,-32.227,-37.109,-16.113,-64.941,0.000
1606127799.275,-62.500,-46.387,-25.879,-138.672,0.000
1606127799.279,-44.922,-39.551,-40.039,-86.426,0.000
1606127799.283,1.465,-30.273,-37.598,42.969,0.000
1606127799.287,19.043,-26.367,-27.344,77.637,0.000
1606127799.291,-18.066,-33.203,-27.832,-23.438,0.000
1606127799.295,-49.805,-40.039,-37.109,-122.070,0.000
1606127799.299,-45.410,-44.434,-34.180,-89.355,0.000
1606127799.303,-19.043,-19.043,-20.508,36.621,0.000
1606127799.307,2.441,5.859,-10.254,83.984,0.000
1606127799.311,-29.297,-25.391,-19.043,-12.695,0.000
1606127799.314,-69.824,-48.340,-29.785,-125.977,0.000
1606127799.318,-68.359,-43.945,-24.414,-115.234,0.000
1606127799.322,-26.855,-26.367,-19.531,9.766,0.000
1606127799.326,-4.395,-21.973,-24.414,71.289,0.000
1606127799.330,-30.273,-32.227,-29.297,-12.207,0.000
1606127799.334,-69.336,-40.039,-37.109,-127.930,0.000
1606127799.338,-63.477,-35.645,-35.645,-129.395,0.000
1606127799.342,-20.508,-27.344,-28.320,-14.648,0.000
1606127799.346,9.277,-11.719,-22.461,60.547,0.000
1606127799.350,-5.371,-11.719,-24.902,0.977,0.000
1606127799.354,-52.734,-31.738,-31.738,-119.141,0.000
1606127799.357,-60.059,-30.273,-29.297,-131.836,0.000
1606127799.361,-20.508,-23.926,-26.367,-21.484,0.000
1606127799.365,9.766,-11.230,-23.438,71.777,0.000
1606127799.369,-4.395,-7.324,-23.438,27.832,0.000
1606127799.373,-48.340,-31.250,-31.250,-107.910,0.000
1606127799.377,-62.500,-41.992,-40.527,-144.531,0.000
1606127799.381,-30.762,-36.133,-40.527,-42.969,0.000
1606127799.385,5.371,-22.949,-28.320,65.918,0.000
1606127799.389,3.418,-16.113,-24.902,48.828,0.000
1606127799.393,-47.363,-35.645,-40.527,-74.219,0.000
1606127799.396,-69.824,-45.898,-46.387,-119.629,0.000
1606127799.400,-33.203,-33.691,-30.762,-28.809,0.000
1606127799.404,0.000,-19.043,-20.996,77.148,0.000
1606127799.408,-4.395,-16.602,-25.879,61.035,0.000
1606127799.412,-41.504,-28.320,-33.203,-59.570,0.000
1606127799.416,-66.406,-39.551,-39.551,-125.488,0.000
1606127799.420,-43.457,-36.621,-36.133,-56.641,0.000
1606127799.424,-4.395,-20.508,-21.484,62.012,0.000
1606127799.428,0.488,-18.555,-15.625,59.570,0.000
1606127799.432,-31.250,-25.879,-25.391,-59.082,0.000
1606127799.436,-56.641,-38.574,-35.645,-138.672,0.000
1606127799.439,-49.316,-38.574,-41.992,-84.473,0.000
1606127799.443,-5.371,-26.367,-37.109,36.621,0.000
1606127799.447,14.160,-19.531,-27.344,61.523,0.000
1606127799.451,-23.926,-24.902,-34.668,-45.898,0.000
1606127799.455,-57.129,-32.715,-40.039,-139.160,0.000
1606127799.459,-41.992,-31.250,-39.551,-92.773,0.000
1606127799.463,4.883,-29.785,-35.156,40.527,0.000
1606127799.467,25.391,-25.879,-31.738,80.078,0.000
1606127799.471,-3.418,-23.438,-32.715,-13.184,0.000
1606127799.475,-42.969,-35.156,-30.273,-105.957,0.000
1606127799.479,-38.086,-36.621,-30.762,-84.961,0.000
1606127799.482,4.395,-22.949,-27.832,33.691,0.000
1606127799.486,18.066,-16.602,-24.902,87.891,0.000
1606127799.490,-13.184,-23.926,-23.926,1.953,0.000
1606127799.494,-47.363,-37.598,-23.438,-107.910,0.000
1606127799.498,-45.898,-41.016,-27.832,-97.656,0.000
1606127799.502,-9.766,-21.973,-24.902,16.602,0.000
1606127799.506,8.301,3.906,-15.137,85.938,0.000
1606127799.510,-7.812,-7.324,-17.090,16.113,0.000
1606127799.514,-42.969,-27.344,-29.297,-106.445,0.000
1606127799.518,-67.383,-29.297,-31.738,-117.188,0.000
1606127799.521,-37.598,-30.273,-23.438,-13.672,0.000
1606127799.525,-3.906,-22.461,-19.531,62.012,0.000
1606127799.529,-16.602,-25.879,-18.555,11.230,0.000
1606127799.533,-57.617,-37.109,-26.855,-105.957,0.000
1606127799.537,-72.754,-38.086,-32.227,-125.488,0.000
1606127799.541,-41.504,-28.809,-23.926,-26.367,0.000
1606127799.545,-6.836,-2.441,-22.461,60.547,0.000
1606127799.549,-12.207,0.000,-26.855,24.902,0.000
1606127799.553,-54.688,-36.621,-35.645,-96.680,0.000
1606127799.557,-75.684,-50.293,-37.598,-139.648,0.000
1606127799.561,-41.992,-36.621,-40.527,-51.270,0.000
1606127799.564,-3.906,-27.344,-40.039,54.688,0.000
1606127799.568,-10.254,-31.250,-30.762,43.457,0.000
1606127799.572,-53.711,-36.621,-30.762,-68.359,0.000
1606127799.576,-78.613,-45.410,-39.062,-128.906,0.000
1606127799.580,-49.316,-46.387,-36.621,-61.035,0.000
1606127799.584,-18.066,-30.273,-29.297,51.270,0.000
1606127799.588,-25.879,-19.043,-29.297,49.805,0.000
1606127799.592,-63.477,-30.762,-41.504,-63.965,0.000
1606127799.596,-84.961,-43.457,-46.875,-128.418,0.000
1606127799.600,-62.012,-41.016,-32.715,-69.824,0.000
1606127799.604,-20.996,-14.160,-25.879,45.898,0.000
1606127799.607,-11.230,-5.859,-26.367,64.453,0.000
1606127799.611,-51.270,-22.461,-31.250,-41.504,0.000
1606127799.615,-85.449,-28.809,-39.062,-125.977,0.000
1606127799.619,-65.918,-27.832,-33.691,-69.336,0.000
1606127799.623,-17.090,-19.043,-17.578,53.711,0.000
1606127799.627,-9.277,-14.648,-15.625,71.777,0.000
1606127799.631,-41.504,-21.973,-26.855,-27.832,0.000
1606127799.635,-73.242,-27.344,-31.738,-126.465,0.000
1606127799.639,-74.707,-35.645,-28.809,-108.398,0.000
1606127799.643,-38.574,-30.762,-27.832,1.953,0.000
1606127799.646,-21.973,-8.301,-32.715,48.340,0.000
1606127799.650,-34.668,-20.996,-34.668,-29.785,0.000
1606127799.654,-73.730,-50.781,-42.480,-134.766,0.000
1606127799.658,-83.008,-53.223,-44.434,-122.559,0.000
1606127799.662,-33.203,-32.715,-37.109,-5.859,0.000
1606127799.666,-7.812,-22.461,-33.203,56.641,0.000
1606127799.670,-27.832,-36.133,-32.715,-15.137,0.000
1606127799.674,-67.871,-43.457,-38.086,-128.418,0.000
1606127799.678,-69.824,-41.016,-40.039,-130.371,0.000
1606127799.682,-31.250,-34.668,-40.039,-18.066,0.000
1606127799.686,-7.324,-21.973,-32.227,59.082,0.000
1606127799.689,-26.367,-31.738,-36.621,7.324,0.000
1606127799.693,-74.707,-52.246,-45.410,-104.980,0.000
1606127799.697,-87.891,-50.293,-40.527,-127.441,0.000
1606127799.701,-59.082,-50.781,-34.668,-31.738,0.000
1606127799.705,-27.832,-46.387,-28.809,57.617,0.000
1606127799.709,-27.832,-39.551,-31.738,21.973,0.000
1606127799.713,-73.730,-49.805,-43.945,-103.027,0.000
1606127799.717,-82.520,-55.664,-50.293,-132.812,0.000
1606127799.721,-46.875,-49.805,-43.945,-36.621,0.000
1606127799.725,-18.555,-34.668,-30.762,57.617,0.000
1606127799.729,-21.484,-24.902,-25.879,35.156,0.000
1606127799.732,-66.406,-44.434,-35.645,-87.891,0.000
1606127799.736,-82.520,-51.758,-41.992,-142.578,0.000
1606127799.740,-52.246,-42.480,-41.016,-59.082,0.000
1606127799.744,-3.418,-13.184,-31.250,53.223,0.000
1606127799.748,7.812,4.883,-20.996,45.410,0.000
1606127799.752,-35.645,-28.320,-25.391,-68.359,0.000
1606127799.756,-57.617,-37.598,-33.691,-126.953,0.000
1606127799.760,-35.645,-25.879,-24.902,-62.012,0.000
1606127799.764,4.395,-19.043,-14.648,51.758,0.000
1606127799.768,14.648,-20.508,-18.555,61.523,0.000
1606127799.771,-20.996,-28.320,-26.367,-44.434,0.000
1606127799.775,-44.434,-31.738,-30.273,-116.211,0.000
1606127799.779,-30.762,-37.109,-28.320,-62.500,0.000
1606127799.783,4.395,-17.090,-20.996,50.781,0.000
1606127799.787,15.625,-0.488,-14.160,72.266,0.000
1606127799.791,-21.484,-29.297,-12.695,-19.531,0.000
1606127799.795,-54.688,-38.086,-21.973,-104.492,0.000
1606127799.799,-38.574,-33.691,-20.996,-68.359,0.000
1606127799.803,4.395,-24.902,-17.578,49.316,0.000
1606127799.807,14.648,-10.742,-18.066,85.449,0.000
1606127799.811,-20.996,-22.461,-18.555,-4.883,0.000
1606127799.814,-60.059,-35.645,-29.297,-105.469,0.000
1606127799.818,-53.711,-30.273,-29.297,-85.938,0.000
1606127799.822,-10.254,-8.789,-17.090,35.645,0.000
1606127799.826,8.789,7.324,-18.555,85.449,0.000
1606127799.830,-16.602,-10.254,-19.531,0.488,0.000
1606127799.834,-52.734,-34.180,-20.996,-105.469,0.000
1606127799.838,-57.617,-35.645,-29.785,-104.492,0.000
1606127799.842,-20.020,-27.832,-33.203,-0.977,0.000
1606127799.846,10.254,-25.879,-27.344,69.336,0.000
1606127799.850,-8.789,-31.738,-17.578,8.789,0.000
1606127799.854,-59.082,-41.992,-21.484,-108.887,0.000
1606127799.857,-65.430,-48.340,-24.414,-119.141,0.000
1606127799.861,-25.879,-38.086,-16.602,-9.277,0.000
1606127799.865,-0.977,-16.113,-15.625,66.895,0.000
1606127799.869,-15.625,-17.578,-21.484,7.324,0.000
1606127799.873,-61.523,-32.227,-31.738,-117.676,0.000
1606127799.877,-66.895,-39.062,-31.250,-141.113,0.000
1606127799.881,-34.668,-45.410,-28.809,-44.922,0.000
1606127799.885,-19.043,-28.809,-25.391,41.992,0.000
1606127799.889,-27.832,-23.438,-20.508,15.625,0.000
1606127799.893,-65.430,-43.457,-23.926,-100.586,0.000
1606127799.896,-80.566,-48.828,-37.598,-147.949,0.000
1606127799.900,-46.387,-35.156,-40.527,-62.012,0.000
1606127799.904,-9.277,-25.879,-27.832,43.457,0.000
1606127799.908,-9.766,-27.344,-18.066,35.156,0.000
1606127799.912,-47.363,-28.320,-22.461,-74.219,0.000
1606127799.916,-75.195,-34.668,-26.367,-131.348,0.000
1606127799.920,-54.199,-39.551,-30.273,-61.035,0.000
1606127799.924,-15.625,-26.367,-22.461,50.293,0.000
1606127799.928,-13.672,-11.230,-19.043,54.199,0.000
1606127799.932,-47.852,-24.414,-24.414,-56.641,0.000
1606127799.936,-69.824,-39.062,-23.926,-129.883,0.000
1606127799.939,-52.734,-37.598,-26.367,-74.219,0.000
1606127799.943,-11.230,-30.762,-28.320,43.457,0.000
1606127799.947,4.395,-26.855,-28.809,71.777,0.000
1606127799.951,-30.762,-34.180,-26.367,-32.227,0.000
1606127799.955,-66.406,-43.457,-26.367,-120.605,0.000
1606127799.959,-48.828,-30.273,-24.414,-71.777,0.000
1606127799.963,-2.441,-18.555,-28.809,53.223,0.000
1606127799.967,6.836,-22.949,-25.391,86.426,0.000
1606127799.971,-25.391,-36.621,-27.832,-17.578,0.000
1606127799.975,-59.082,-46.875,-41.504,-112.305,0.000
1606127799.979,-53.711,-42.480,-38.086,-85.938,0.000
1606127799.982,-13.672,-30.762,-24.414,20.996,0.000
1606127799.986,2.930,-27.832,-16.602,70.801,0.000
1606127799.990,-27.344,-37.109,-24.414,-11.719,0.000
1606127799.994,-65.918,-40.039,-33.203,-120.605,0.000
1606127799.998,-55.176,-37.598,-35.156,-110.352,0.000
1606127800.002,-13.672,-25.391,-26.855,8.301,0.000
1606127800.006,7.812,-16.113,-19.043,74.707,0.000
1606127800.010,-15.625,-20.020,-25.391,3.418,0.000
1606127800.014,-58.105,-30.762,-28.320,-115.723,0.000
1606127800.018,-62.988,-34.180,-29.297,-115.723,0.000
1606127800.021,-28.809,-32.227,-24.414,0.488,0.000
1606127800.025,-6.348,-24.414,-20.508,72.266,0.000
1606127800.029,-21.973,-27.344,-26.367,16.602,0.000
1606127800.033,-55.664,-39.062,-30.273,-102.051,0.000
1606127800.037,-60.547,-36.621,-27.344,-121.582,0.000
1606127800.041,-22.949,-26.367,-20.996,-13.184,0.000
1606127800.045,9.766,-16.113,-16.113,74.219,0.000
1606127800.049,-3.418,-19.043,-24.902,28.320,0.000
1606127800.053,-40.039,-27.832,-30.273,-84.961,0.000
1606127800.057,-51.758,-26.855,-34.180,-110.352,0.000
1606127800.061,-23.926,-29.297,-34.180,-16.602,0.000
1606127800.064,8.301,-20.020,-20.996,80.078,0.000
1606127800.068,8.789,-8.789,-20.996,52.734,0.000
1606127800.072,-27.832,-20.508,-21.484,-64.453,0.000
1606127800.076,-55.176,-31.250,-21.973,-116.699,0.000
1606127800.080,-32.227,-30.273,-26.855,-44.434,0.000
1606127800.084,7.324,-20.996,-20.508,57.617,0.000
1606127800.088,7.324,-17.090,-16.113,50.781,0.000
1606127800.092,-29.297,-27.344,-24.902,-64.941,0.000
1606127800.096,-53.223,-35.156,-34.180,-133.789,0.000
1606127800.100,-31.738,-26.855,-29.297,-58.105,0.000
1606127800.104,4.883,-12.207,-18.555,58.105,0.000
1606127800.107,5.371,-7.324,-14.648,58.105,0.000
1606127800.111,-30.273,-28.809,-17.578,-47.852,0.000
1606127800.115,-61.035,-42.969,-24.414,-127.930,0.000
1606127800.119,-45.410,-39.062,-30.273,-81.543,0.000
1606127800.123,-0.977,-29.297,-23.926,42.969,0.000
1606127800.127,11.230,-20.508,-20.996,62.012,0.000
1606127800.131,-20.020,-24.902,-29.297,-39.062,0.000
1606127800.135,-52.734,-34.668,-29.785,-119.629,0.000
1606127800.139,-47.852,-42.480,-22.461,-86.914,0.000
1606127800.143,-7.812,-34.180,-20.020,36.621,0.000
1606127800.146,3.906,-22.461,-20.508,82.031,0.000
1606127800.150,-24.902,-30.762,-21.973,-6.348,0.000
1606127800.154,-62.500,-46.875,-25.879,-113.281,0.000
1606127800.158,-58.594,-47.852,-26.855,-102.539,0.000
1606127800.162,-16.602,-32.715,-17.578,20.020,0.000
1606127800.166,3.418,-11.230,-15.137,83.984,0.000
1606127800.170,-20.996,-23.926,-22.461,1.953,0.000
1606127800.174,-66.406,-47.363,-32.227,-120.605,0.000
1606127800.178,-64.453,-41.992,-31.250,-113.770,0.000
1606127800.182,-26.855,-30.762,-27.344,4.395,0.000
1606127800.186,-2.441,-20.020,-30.273,75.195,0.000
1606127800.189,-12.695,-25.391,-26.855,18.555,0.000
1606127800.193,-59.570,-35.156,-27.832,-100.586,0.000
1606127800.197,-60.547,-27.832,-27.832,-115.723,0.000
1606127800.201,-19.531,-21.484,-20.996,-12.207,0.000
1606127800.205,1.953,-15.137,-16.113,75.684,0.000
1606127800.209,-7.812,-17.578,-20.508,31.250,0.000
1606127800.213,-48.340,-29.297,-30.762,-95.703,0.000
1606127800.217,-63.965,-34.668,-35.645,-128.418,0.000
1606127800.221,-30.273,-29.785,-31.250,-32.227,0.000
1606127800.225,7.812,-12.207,-32.227,58.594,0.000
1606127800.229,-8.301,-16.113,-35.156,27.344,0.000
1606127800.232,-59.082,-33.691,-41.992,-95.215,0.000
1606127800.236,-69.336,-41.504,-43.457,-136.230,0.000
1606127800.240,-30.273,-39.551,-34.668,-46.387,0.000
1606127800.244,5.859,-18.555,-28.320,57.129,0.000
1606127800.248,0.488,-16.602,-29.297,55.664,0.000
1606127800.252,-34.180,-32.227,-25.879,-63.965,0.000
1606127800.256,-60.059,-38.574,-25.391,-133.789,0.000
1606127800.260,-41.992,-35.156,-29.297,-63.965,0.000
1606127800.264,-1.465,-26.855,-26.367,46.875,0.000
1606127800.268,-0.977,-26.855,-26.367,51.270,0.000
1606127800.271,-41.016,-36.621,-32.715,-55.176,0.000
1606127800.275,-57.617,-41.016,-33.203,-130.859,0.000
1606127800.279,-39.062,-35.645,-34.180,-77.148,0.000
1606127800.283,-13.672,-21.973,-31.250,48.340,0.000
1606127800.287,-0.977,-11.719,-29.297,68.848,0.000
1606127800.291,-35.156,-19.043,-31.250,-36.621,0.000
1606127800.295,-70.312,-29.297,-29.785,-119.141,0.000
1606127800.299,-61.035,-34.180,-30.273,-88.867,0.000
1606127800.303,-23.438,-33.691,-28.320,22.461,0.000
1606127800.307,-7.324,-11.719,-26.855,64.453,0.000
1606127800.311,-40.527,-7.324,-32.715,-24.414,0.000
1606127800.314,-78.613,-32.227,-38.574,-123.047,0.000
1606127800.318,-70.312,-35.156,-34.668,-105.469,0.000
1606127800.322,-22.461,-20.020,-16.602,17.578,0.000
1606127800.326,2.930,-13.184,-17.578,68.848,0.000
1606127800.330,-23.926,-24.414,-23.438,-11.230,0.000
1606127800.334,-57.617,-26.855,-20.508,-112.793,0.000
1606127800.338,-57.129,-27.344,-31.738,-106.445,0.000
1606127800.342,-18.555,-31.738,-28.320,6.836,0.000
1606127800.346,1.953,-21.973,-28.320,65.430,0.000
1606127800.350,-23.926,-27.344,-30.273,-2.930,0.000
1606127800.354,-56.152,-40.039,-31.738,-108.398,0.000
1606127800.357,-61.035,-40.527,-31.250,-111.816,0.000
1606127800.361,-25.879,-29.297,-19.043,-1.465,0.000
1606127800.365,8.789,-19.043,-17.578,71.777,0.000
1606127800.369,-11.719,-20.996,-20.996,16.113,0.000
1606127800.373,-54.199,-33.691,-23.926,-101.074,0.000
1606127800.377,-67.383,-40.527,-30.762,-128.418,0.000
1606127800.381,-37.598,-35.156,-33.691,-29.785,0.000
1606127800.385,-3.906,-11.719,-28.320,62.500,0.000
1606127800.389,-17.090,-4.395,-25.879,27.832,0.000
1606127800.393,-54.688,-26.855,-29.785,-87.891,0.000
1606127800.396,-67.871,-37.598,-29.297,-122.070,0.000
1606127800.400,-45.898,-36.621,-16.602,-32.715,0.000
1606127800.404,-16.602,-26.855,-4.883,63.477,0.000
1606127800.408,-11.719,-23.438,-5.371,44.434,0.000
1606127800.412,-48.340,-33.203,-22.461,-73.730,0.000
1606127800.416,-71.289,-40.039,-29.785,-126.465,0.000
1606127800.420,-41.016,-30.762,-15.625,-45.898,0.000
1606127800.424,-1.953,-20.020,-11.719,64.453,0.000
1606127800.428,-5.371,-20.020,-19.531,62.012,0.000
1606127800.432,-41.992,-32.715,-27.832,-57.617,0.000
1606127800.436,-72.266,-43.457,-33.691,-133.301,0.000
1606127800.439,-55.664,-40.527,-36.133,-74.707,0.000
1606127800.443,0.000,-15.137,-28.320,43.457,0.000
1606127800.447,6.348,-0.488,-23.926,59.570,0.000
1606127800.451,-41.016,-20.508,-34.668,-53.711,0.000
1606127800.455,-63.965,-27.344,-42.480,-136.230,0.000
1606127800.459,-50.781,-29.297,-38.086,-97.656,0.000
1606127800.463,-5.859,-19.043,-22.949,29.785,0.000
1606127800.467,14.160,-10.742,-8.301,72.266,0.000
1606127800.471,-27.832,-24.414,-17.578,-26.367,0.000
1606127800.475,-66.895,-36.133,-32.227,-119.141,0.000
1606127800.479,-56.641,-28.320,-24.414,-87.891,0.000
1606127800.482,-14.648,-15.137,-12.695,36.621,0.000
1606127800.486,1.953,-9.766,-16.113,83.984,0.000
1606127800.490,-26.367,-14.648,-21.484,-1.953,0.000
1606127800.494,-64.453,-34.180,-22.461,-103.516,0.000
1606127800.498,-58.594,-32.715,-19.043,-85.449,0.000
1606127800.502,-19.043,-14.648,-9.277,38.574,0.000
1606127800.506,-1.465,-17.090,-11.719,96.191,0.000
1606127800.510,-26.855,-27.832,-12.695,13.672,0.000
1606127800.514,-71.289,-27.832,-13.184,-101.074,0.000
1606127800.518,-69.824,-32.227,-27.832,-106.934,0.000
1606127800.521,-23.926,-25.391,-23.926,10.254,0.000
1606127800.525,10.742,-3.418,-16.602,92.773,0.000
1606127800.529,0.977,-1.465,-20.020,30.273,0.000
1606127800.533,-33.203,-20.508,-27.832,-99.609,0.000
1606127800.537,-47.363,-26.367,-39.551,-129.395,0.000
1606127800.541,-20.996,-16.602,-38.086,-16.113,0.000
1606127800.545,18.066,-6.836,-27.832,79.590,0.000
1606127800.549,1.953,-16.602,-29.785,33.691,0.000
1606127800.553,-40.039,-30.273,-36.621,-95.215,0.000
1606127800.557,-44.922,-31.738,-30.273,-130.371,0.000
1606127800.561,-5.371,-24.902,-20.020,-24.902,0.000
1606127800.564,23.926,-9.766,-13.672,73.242,0.000
1606127800.568,10.254,-5.371,-26.367,38.086,0.000
1606127800.572,-24.414,-14.648,-36.621,-74.219,0.000
1606127800.576,-42.480,-26.855,-37.598,-116.211,0.000
1606127800.580,-20.996,-30.273,-38.086,-36.621,0.000
1606127800.584,16.602,5.859,-23.926,76.660,0.000
1606127800.588,11.230,27.344,-12.695,72.266,0.000
1606127800.592,-29.297,-18.555,-19.043,-44.922,0.000
1606127800.596,-58.105,-44.434,-27.832,-113.770,0.000
1606127800.600,-35.645,-37.109,-26.855,-44.434,0.000
1606127800.604,4.883,-27.832,-27.832,69.336,0.000
1606127800.607,-0.977,-32.715,-34.668,62.500,0.000
1606127800.611,-43.945,-49.316,-38.086,-52.734,0.000
1606127800.615,-73.730,-49.805,-37.109,-126.953,0.000
1606127800.619,-60.059,-41.504,-34.180,-76.172,0.000
1606127800.623,-16.602,-33.691,-33.203,36.133,0.000
1606127800.627,2.930,-24.414,-31.250,60.059,0.000
1606127800.631,-38.574,-37.598,-30.762,-34.668,0.000
1606127800.635,-71.777,-50.293,-38.574,-133.301,0.000
1606127800.639,-54.688,-49.805,-48.828,-104.004,0.000
1606127800.643,-12.695,-38.086,-42.969,21.484,0.000
1606127800.646,3.418,-28.320,-33.203,58.105,0.000
1606127800.650,-27.832,-31.250,-34.668,-35.645,0.000
1606127800.654,-66.406,-39.551,-44.434,-138.672,0.000
1606127800.658,-62.012,-41.504,-44.434,-122.559,0.000
1606127800.662,-21.484,-32.227,-37.109,2.441,0.000
1606127800.666,3.418,-11.230,-33.691,62.988,0.000
1606127800.670,-28.320,-19.043,-37.598,-24.414,0.000
1606127800.674,-72.266,-38.574,-50.781,-134.277,0.000
1606127800.678,-66.895,-41.016,-54.199,-119.141,0.000
1606127800.682,-27.344,-33.691,-37.109,1.465,0.000
1606127800.686,0.488,-18.555,-26.367,72.754,0.000
1606127800.689,-18.066,-25.391,-31.250,13.672,0.000
1606127800.693,-62.988,-41.016,-41.504,-100.586,0.000
1606127800.697,-67.383,-41.016,-36.133,-104.980,0.000
1606127800.701,-30.762,-34.668,-21.973,5.859,0.000
1606127800.705,-0.977,-26.855,-27.344,76.660,0.000
1606127800.709,-12.695,-28.320,-34.668,27.344,0.000
1606127800.713,-60.059,-43.945,-34.668,-93.262,0.000
1606127800.717,-65.430,-50.293,-39.062,-128.418,0.000
1606127800.721,-34.668,-44.922,-39.062,-33.203,0.000
1606127800.725,-13.184,-29.297,-34.180,56.641,0.000
1606127800.729,-19.043,-25.391,-30.273,23.438,0.000
1606127800.732,-59.082,-51.270,-30.273,-98.145,0.000
1606127800.736,-71.777,-59.570,-36.621,-136.719,0.000
1606127800.740,-36.621,-42.969,-30.762,-46.875,0.000
1606127800.744,-4.883,-29.785,-15.625,50.293,0.000
1606127800.748,-7.324,-28.320,-15.625,36.621,0.000
1606127800.752,-46.875,-36.621,-29.297,-78.125,0.000
1606127800.756,-76.660,-40.039,-39.551,-142.578,0.000
1606127800.760,-52.246,-28.809,-32.715,-63.965,0.000
1606127800.764,-10.254,-16.602,-25.879,49.316,0.000
1606127800.768,-8.301,-12.207,-29.785,35.156,0.000
1606127800.771,-43.457,-30.273,-34.668,-77.637,0.000
1606127800.775,-66.406,-44.434,-37.109,-139.160,0.000
1606127800.779,-41.992,-35.645,-38.574,-77.148,0.000
1606127800.783,2.441,-26.367,-23.438,41.016,0.000
1606127800.787,7.812,-28.809,-21.973,61.523,0.000
1606127800.791,-27.832,-30.762,-31.738,-43.945,0.000
1606127800.795,-67.871,-38.574,-29.297,-128.418,0.000
1606127800.799,-61.035,-41.992,-26.855,-85.938,0.000
1606127800.803,-24.414,-19.531,-18.555,26.367,0.000
1606127800.807,-20.020,-3.418,-18.555,52.246,0.000
1606127800.811,-51.270,-28.320,-29.785,-46.387,0.000
1606127800.814,-89.844,-48.828,-37.109,-144.531,0.000
1606127800.818,-71.289,-48.340,-33.691,-111.816,0.000
1606127800.822,-24.414,-39.062,-23.438,13.672,0.000
1606127800.826,-17.090,-30.762,-23.926,62.500,0.000
1606127800.830,-38.574,-35.645,-23.926,-18.066,0.000
1606127800.834,-68.359,-42.969,-20.020,-116.211,0.000
1606127800.838,-65.430,-36.621,-22.461,-104.980,0.000
1606127800.842,-30.762,-26.367,-24.902,3.906,0.000
1606127800.846,-6.348,-25.391,-20.996,66.895,0.000
1606127800.850,-23.926,-27.344,-26.367,-1.953,0.000
1606127800.854,-62.012,-33.691,-30.762,-118.652,0.000
1606127800.857,-66.406,-41.504,-30.762,-128.418,0.000
1606127800.861,-27.832,-40.039,-34.180,-19.531,0.000
1606127800.865,5.371,-18.066,-32.715,59.570,0.000
1606127800.869,-16.602,-8.301,-34.180,4.883,0.000
1606127800.873,-57.129,-28.809,-33.203,-112.305,0.000
1606127800.877,-62.988,-32.715,-31.738,-126.953,0.000
1606127800.881,-33.203,-31.738,-28.320,-21.484,0.000
1606127800.885,-0.977,-28.809,-20.020,65.918,0.000
1606127800.889,-10.742,-31.250,-17.090,17.578,0.000
1606127800.893,-57.617,-47.363,-31.250,-109.375,0.000
1606127800.896,-79.590,-46.387,-43.945,-145.020,0.000
1606127800.900,-44.434,-37.109,-35.645,-46.875,0.000
1606127800.904,-8.301,-21.484,-28.320,58.594,0.000
1606127800.908,-19.531,-18.066,-32.715,34.180,0.000
1606127800.912,-64.453,-47.852,-33.691,-86.914,0.000
1606127800.916,-84.473,-55.664,-35.645,-132.324,0.000
1606127800.920,-56.152,-45.898,-29.785,-51.758,0.000
1606127800.924,-22.949,-36.621,-26.367,56.641,0.000
1606127800.928,-24.414,-32.227,-28.320,52.246,0.000
1606127800.932,-60.059,-39.062,-29.785,-60.059,0.000
1606127800.936,-80.566,-43.457,-32.227,-125.977,0.000
1606127800.939,-57.617,-43.945,-29.785,-66.406,0.000
1606127800.943,-16.113,-23.926,-23.926,54.688,0.000
1606127800.947,-4.395,-6.348,-17.578,63.965,0.000
1606127800.951,-41.992,-30.762,-27.832,-50.781,0.000
1606127800.955,-70.801,-38.574,-34.668,-124.023,0.000
1606127800.959,-47.363,-33.203,-26.855,-78.125,0.000
1606127800.963,-5.371,-24.902,-20.020,38.086,0.000
1606127800.967,12.207,-12.695,-15.137,67.871,0.000
1606127800.971,-16.602,-25.391,-27.344,-31.250,0.000
1606127800.975,-49.316,-30.762,-37.598,-125.000,0.000
1606127800.979,-38.086,-25.879,-21.484,-94.238,0.000
1606127800.982,8.789,-18.066,-10.254,33.203,0.000
1606127800.986,20.508,-18.555,-18.066,73.730,0.000
1606127800.990,-13.184,-28.809,-28.809,-22.949,0.000
1606127800.994,-55.176,-37.109,-27.832,-120.605,0.000
1606127800.998,-61.035,-40.527,-20.020,-96.680,0.000
1606127801.002,-19.531,-28.809,-18.066,21.973,0.000
1606127801.006,-10.742,-18.066,-20.996,75.684,0.000
1606127801.010,-47.363,-28.809,-28.320,-15.625,0.000
1606127801.014,-80.078,-39.551,-37.109,-135.254,0.000
1606127801.018,-76.172,-37.109,-38.086,-125.488,0.000
1606127801.021,-36.621,-33.203,-31.250,-12.695,0.000
1606127801.025,-18.555,-33.691,-32.227,56.641,0.000
1606127801.029,-39.551,-39.062,-39.551,-3.906,0.000
1606127801.033,-75.195,-43.457,-41.504,-115.234,0.000
1606127801.037,-77.637,-40.527,-35.156,-119.629,0.000
1606127801.041,-36.133,-26.855,-19.531,-0.488,0.000
1606127801.045,-4.395,-18.066,-13.672,83.008,0.000
1606127801.049,-17.578,-24.414,-22.461,27.832,0.000
1606127801.053,-51.270,-42.480,-22.949,-91.309,0.000
1606127801.057,-51.270,-44.922,-26.367,-115.723,0.000
1606127801.061,-19.531,-33.691,-24.902,-9.766,0.000
1606127801.064,9.766,-27.832,-18.555,72.266,0.000
1606127801.068,11.230,-27.344,-26.855,31.738,0.000
1606127801.072,-23.438,-30.273,-24.902,-74.707,0.000
1606127801.076,-52.734,-36.621,-18.066,-116.211,0.000
1606127801.080,-31.738,-35.156,-15.137,-33.203,0.000
1606127801.084,5.859,-18.066,-8.301,71.289,0.000
1606127801.088,0.000,-11.719,-12.207,60.547,0.000
1606127801.092,-43.457,-27.832,-23.438,-62.988,0.000
1606127801.096,-61.035,-37.598,-28.320,-116.211,0.000
1606127801.100,-35.156,-33.203,-21.484,-43.457,0.000
1606127801.104,2.930,-11.719,-12.207,65.918,0.000
1606127801.107,6.348,-9.766,-15.625,71.289,0.000
1606127801.111,-28.809,-26.367,-19.531,-49.316,0.000
1606127801.115,-52.246,-27.344,-13.184,-120.117,0.000
1606127801.119,-38.574,-25.879,-16.602,-60.059,0.000
1606127801.123,1.465,-18.555,-24.902,51.758,0.000
1606127801.127,10.742,-21.973,-25.879,62.988,0.000
1606127801.131,-24.902,-25.391,-23.438,-44.434,0.000
1606127801.135,-52.246,-25.391,-28.809,-118.652,0.000
1606127801.139,-39.551,-32.227,-30.762,-74.707,0.000
1606127801.143,0.977,-25.879,-24.902,40.039,0.000
1606127801.146,9.766,-14.648,-23.438,71.289,0.000
1606127801.150,-24.902,-17.090,-26.855,-20.020,0.000
1606127801.154,-65.918,-34.180,-32.715,-121.094,0.000
1606127801.158,-60.547,-34.668,-31.738,-99.121,0.000
1606127801.162,-13.672,-22.461,-29.297,21.484,0.000
1606127801.166,3.906,-14.160,-23.926,65.918,0.000
1606127801.170,-23.926,-20.996,-27.344,-18.066,0.000
1606127801.174,-64.453,-35.156,-30.273,-120.605,0.000
1606127801.178,-70.801,-31.250,-22.461,-112.305,0.000
1606127801.182,-30.273,-20.996,-18.555,-2.441,0.000
1606127801.186,-3.418,-22.461,-26.367,61.523,0.000
1606127801.189,-21.484,-21.484,-23.438,-0.488,0.000
1606127801.193,-58.594,-30.762,-28.320,-98.633,0.000
1606127801.197,-66.406,-45.410,-33.691,-111.816,0.000
1606127801.201,-29.297,-35.156,-22.461,-14.648,0.000
1606127801.205,2.441,-17.090,-16.602,67.871,0.000
1606127801.209,-16.602,-22.949,-21.484,11.719,0.000
1606127801.213,-53.223,-30.273,-25.391,-104.004,0.000
1606127801.217,-60.547,-32.715,-32.227,-123.047,0.000
1606127801.221,-33.203,-28.809,-25.879,-25.391,0.000
1606127801.225,-2.441,-12.695,-13.184,67.383,0.000
1606127801.229,-15.625,-16.602,-21.973,27.344,0.000
1606127801.232,-56.641,-34.180,-31.250,-99.609,0.000
1606127801.236,-69.824,-41.504,-26.855,-135.742,0.000
1606127801.240,-39.062,-36.133,-26.367,-44.922,0.000
1606127801.244,-4.395,-16.113,-22.949,48.828,0.000
1606127801.248,-17.090,-11.719,-18.555,41.992,0.000
1606127801.252,-61.523,-32.715,-29.297,-69.824,0.000
1606127801.256,-75.684,-44.434,-35.645,-124.023,0.000
1606127801.260,-40.039,-34.180,-28.320,-38.086,0.000
1606127801.264,-8.301,-17.578,-13.672,53.223,0.000
1606127801.268,-8.301,-19.531,-21.484,38.574,0.000
1606127801.271,-27.832,-32.715,-38.086,-68.359,0.000
1606127801.275,-52.246,-30.762,-36.621,-130.859,0.000
1606127801.279,-39.551,-33.203,-34.180,-60.059,0.000
1606127801.283,-2.441,-17.578,-40.527,44.434,0.000
1606127801.287,1.953,-3.418,-42.480,40.527,0.000
1606127801.291,-30.273,-28.809,-39.551,-60.547,0.000
1606127801.295,-50.781,-35.645,-34.180,-129.883,0.000
1606127801.299,-31.738,-25.879,-27.344,-74.707,0.000
1606127801.303,5.859,-17.090,-22.949,37.598,0.000
1606127801.307,15.137,-15.137,-17.578,60.547,0.000
1606127801.311,-7.324,-22.949,-23.926,-41.504,0.000
1606127801.314,-36.133,-37.109,-36.621,-139.648,0.000
1606127801.318,-41.016,-31.250,-41.504,-101.074,0.000
1606127801.322,-0.488,-11.719,-34.180,30.762,0.000
1606127801.326,4.883,-22.461,-27.832,67.871,0.000
1606127801.330,-33.203,-38.086,-29.785,-24.414,0.000
1606127801.334,-65.430,-37.598,-36.621,-117.188,0.000
1606127801.338,-66.895,-37.109,-29.785,-99.121,0.000
1606127801.342,-9.277,-29.785,-21.484,17.578,0.000
1606127801.346,7.324,-26.367,-21.973,69.824,0.000
1606127801.350,-41.504,-41.992,-24.414,-4.395,0.000
1606127801.354,-71.777,-48.828,-30.273,-104.980,0.000
1606127801.357,-69.336,-43.457,-23.926,-89.844,0.000
1606127801.361,-27.344,-32.227,-21.484,23.926,0.000
1606127801.365,3.906,-22.949,-21.484,89.844,0.000
1606127801.369,-9.277,-23.926,-14.648,38.086,0.000
1606127801.373,-48.340,-42.480,-15.137,-77.637,0.000
1606127801.377,-56.152,-45.410,-9.766,-92.285,0.000
1606127801.381,-20.020,-27.344,-11.719,9.766,0.000
1606127801.385,11.719,-13.672,-13.672,92.285,0.000
1606127801.389,3.418,-19.531,-8.301,46.875,0.000
1606127801.393,-41.016,-35.645,-20.996,-81.543,0.000
1606127801.396,-57.129,-41.016,-32.715,-117.676,0.000
1606127801.400,-25.879,-36.133,-26.855,-29.785,0.000
1606127801.404,10.254,-27.344,-22.949,62.500,0.000
1606127801.408,0.977,-30.273,-30.273,29.297,0.000
1606127801.412,-41.016,-37.598,-29.297,-92.773,0.000
1606127801.416,-48.340,-29.785,-21.484,-128.418,0.000
1606127801.420,-16.602,-25.391,-23.438,-41.016,0.000
1606127801.424,17.578,-14.160,-22.461,63.477,0.000
1606127801.428,21.973,-0.977,-20.508,57.129,0.000
1606127801.432,-14.160,-17.090,-26.855,-54.199,0.000
1606127801.436,-38.574,-28.809,-24.414,-105.469,0.000
1606127801.439,-14.160,-24.902,-20.508,-41.016,0.000
1606127801.443,25.391,-15.137,-17.090,75.195,0.000
1606127801.447,28.320,-10.254,-19.043,83.984,0.000
1606127801.451,-16.113,-25.391,-18.555,-38.086,0.000
1606127801.455,-46.875,-37.109,-20.996,-104.492,0.000
1606127801.459,-24.414,-33.691,-27.344,-38.574,0.000
1606127801.463,16.602,-13.672,-19.531,81.543,0.000
1606127801.467,20.508,-1.953,-17.578,97.656,0.000
1606127801.471,-16.602,-28.320,-23.926,-10.742,0.000
1606127801.475,-54.199,-44.434,-30.762,-91.797,0.000
1606127801.479,-46.875,-35.156,-29.785,-54.688,0.000
1606127801.482,-5.859,-29.297,-26.367,50.293,0.000
1606127801.486,8.789,-28.320,-24.414,76.660,0.000
1606127801.490,-19.043,-34.180,-27.344,-21.973,0.000
1606127801.494,-54.199,-38.574,-38.574,-124.512,0.000
1606127801.498,-45.410,-36.621,-35.645,-91.309,0.000
1606127801.502,-4.883,-23.926,-23.926,23.438,0.000
1606127801.506,9.277,-11.719,-22.949,70.312,0.000
1606127801.510,-15.625,-15.625,-29.785,0.488,0.000
1606127801.514,-55.176,-30.273,-41.016,-108.887,0.000
1606127801.518,-59.570,-39.551,-34.668,-105.957,0.000
1606127801.521,-16.602,-29.297,-26.855,8.789,0.000
1606127801.525,8.301,-10.742,-34.668,80.566,0.000
1606127801.529,-25.879,-22.461,-39.062,12.207,0.000
1606127801.533,-65.430,-44.922,-33.691,-114.258,0.000
1606127801.537,-64.941,-47.852,-28.320,-121.582,0.000
1606127801.541,-26.855,-38.086,-25.391,-6.836,0.000
1606127801.545,0.000,-25.391,-20.508,66.895,0.000
1606127801.549,-17.578,-38.086,-23.438,11.230,0.000
1606127801.553,-60.547,-53.223,-33.203,-105.957,0.000
1606127801.557,-73.242,-41.504,-36.621,-130.859,0.000
1606127801.561,-41.504,-38.086,-25.391,-27.832,0.000
1606127801.564,-10.742,-12.207,-20.020,65.918,0.000
1606127801.568,-19.531,-4.395,-24.414,30.273,0.000
1606127801.572,-58.594,-41.504,-31.250,-86.426,0.000
1606127801.576,-69.824,-50.293,-35.156,-124.023,0.000
1606127801.580,-36.621,-44.922,-30.273,-32.715,0.000
1606127801.584,-3.906,-33.203,-20.020,74.219,0.000
1606127801.588,-12.695,-28.320,-19.043,51.758,0.000
1606127801.592,-56.641,-43.945,-25.391,-63.965,0.000
1606127801.596,-74.707,-53.223,-29.297,-119.141,0.000
1606127801.600,-49.316,-42.969,-27.344,-44.922,0.000
1606127801.604,-10.742,-25.879,-13.184,67.871,0.000
1606127801.607,-7.812,-9.766,-14.648,61.035,0.000
1606127801.611,-54.688,-31.250,-31.738,-62.500,0.000
1606127801.615,-88.379,-56.641,-42.969,-129.883,0.000
1606127801.619,-64.941,-48.340,-32.227,-66.406,0.000
1606127801.623,-20.508,-31.738,-19.043,47.852,0.000
1606127801.627,-15.137,-30.273,-22.949,58.105,0.000
1606127801.631,-53.223,-40.039,-30.762,-51.758,0.000
1606127801.635,-83.496,-45.898,-33.203,-129.883,0.000
1606127801.639,-62.988,-46.387,-27.832,-77.637,0.000
1606127801.643,-17.578,-35.156,-25.879,39.062,0.000
1606127801.646,-4.395,-22.949,-23.926,56.641,0.000
1606127801.650,-37.109,-34.668,-23.926,-40.039,0.000
1606127801.654,-70.312,-45.898,-30.273,-130.859,0.000
1606127801.658,-51.758,-45.898,-33.691,-102.539,0.000
1606127801.662,-8.789,-39.062,-31.250,15.137,0.000
1606127801.666,0.488,-30.273,-28.320,59.570,0.000
1606127801.670,-27.832,-38.086,-31.738,-23.926,0.000
1606127801.674,-60.547,-44.434,-30.273,-120.117,0.000
1606127801.678,-64.453,-43.457,-29.785,-100.586,0.000
1606127801.682,-31.738,-34.180,-31.738,13.672,0.000
1606127801.686,-8.789,-29.297,-29.297,62.988,0.000
1606127801.689,-33.203,-41.504,-27.344,-15.137,0.000
1606127801.693,-71.289,-45.410,-30.273,-121.582,0.000
1606127801.697,-65.430,-40.039,-40.039,-116.211,0.000
1606127801.701,-25.879,-41.992,-34.180,-2.930,0.000
1606127801.705,1.465,-41.016,-25.391,64.941,0.000
1606127801.709,-12.207,-40.527,-29.297,8.301,0.000
1606127801.713,-52.734,-38.086,-28.320,-95.215,0.000
1606127801.717,-66.406,-40.527,-35.645,-114.258,0.000
1606127801.721,-32.227,-36.133,-31.738,-2.441,0.000
1606127801.725,0.488,-23.926,-13.672,85.449,0.000
1606127801.729,-10.742,-29.297,-16.602,27.832,0.000
1606127801.732,-48.340,-36.621,-26.855,-90.820,0.000
1606127801.736,-59.082,-30.273,-25.391,-116.699,0.000
1606127801.740,-28.320,-19.531,-25.879,-16.602,0.000
1606127801.744,5.859,0.488,-23.926,76.660,0.000
1606127801.748,0.977,-3.418,-22.949,47.852,0.000
1606127801.752,-39.551,-29.297,-29.297,-63.477,0.000
1606127801.756,-60.059,-27.832,-30.762,-107.910,0.000
1606127801.760,-33.691,-19.531,-20.996,-42.480,0.000
1606127801.764,9.766,-10.254,-13.672,60.547,0.000
1606127801.768,6.836,-4.395,-14.160,54.199,0.000
1606127801.771,-37.598,-18.555,-25.879,-64.453,0.000
1606127801.775,-64.941,-24.414,-31.250,-122.559,0.000
1606127801.779,-38.574,-10.254,-19.531,-45.898,0.000
1606127801.783,7.324,-2.930,-17.578,67.871,0.000
1606127801.787,5.859,-5.859,-20.508,70.312,0.000
1606127801.791,-22.949,-10.742,-14.160,-32.715,0.000
1606127801.795,-50.293,-21.484,-21.484,-106.445,0.000
1606127801.799,-42.969,-31.738,-31.250,-61.035,0.000
1606127801.803,-3.906,-20.996,-22.461,58.105,0.000
1606127801.807,3.906,16.113,-23.438,77.148,0.000
1606127801.811,-30.273,-0.977,-28.809,-25.879,0.000
1606127801.814,-70.801,-37.598,-35.645,-110.352,0.000
1606127801.818,-65.430,-37.598,-38.086,-70.801,0.000
1606127801.822,-27.344,-30.273,-26.367,48.340,0.000
1606127801.826,-20.020,-26.855,-19.043,77.148,0.000
1606127801.830,-50.781,-34.180,-18.555,-17.090,0.000
1606127801.834,-83.984,-38.574,-18.555,-109.863,0.000
1606127801.838,-81.543,-42.969,-27.344,-93.262,0.000
1606127801.842,-47.852,-45.410,-29.297,27.344,0.000
1606127801.846,-29.785,-24.902,-24.902,72.754,0.000
1606127801.850,-53.223,-27.344,-29.785,-8.789,0.000
1606127801.854,-88.867,-45.898,-35.156,-98.145,0.000
1606127801.857,-87.402,-45.410,-39.551,-81.055,0.000
1606127801.861,-41.504,-30.762,-31.738,43.945,0.000
1606127801.865,-8.301,-17.090,-19.531,111.816,0.000
1606127801.869,-17.578,-26.367,-20.508,44.922,0.000
1606127801.873,-44.922,-40.039,-30.762,-71.777,0.000
1606127801.877,-49.805,-42.969,-20.020,-83.008,0.000
1606127801.881,-13.672,-33.203,-7.324,26.855,0.000
1606127801.885,18.555,-8.301,-20.508,107.422,0.000
1606127801.889,6.348,-8.789,-31.250,56.152,0.000
1606127801.893,-30.273,-32.227,-33.203,-61.523,0.000
1606127801.896,-39.551,-32.715,-29.297,-78.613,0.000
1606127801.900,-5.371,-22.461,-26.855,16.113,0.000
1606127801.904,31.250,-12.207,-28.320,89.844,0.000
1606127801.908,20.020,-16.113,-31.738,56.641,0.000
1606127801.912,-20.020,-25.879,-34.180,-42.480,0.000
1606127801.916,-32.227,-23.438,-25.879,-76.660,0.000
1606127801.920,-5.371,-20.020,-11.230,1.465,0.000
1606127801.924,26.855,-11.230,-12.695,96.680,0.000
1606127801.928,23.438,-7.812,-23.438,78.613,0.000
1606127801.932,-19.531,-25.879,-27.344,-34.180,0.000
1606127801.936,-48.340,-43.457,-28.809,-93.262,0.000
1606127801.939,-28.320,-41.992,-26.367,-26.367,0.000
1606127801.943,8.301,-23.926,-22.461,72.754,0.000
1606127801.947,8.789,-16.113,-15.625,73.242,0.000
1606127801.951,-33.203,-31.250,-20.508,-34.180,0.000
1606127801.955,-41.504,-33.691,-31.738,-106.934,0.000
1606127801.959,-29.785,-27.832,-30.273,-47.852,0.000
1606127801.963,-14.160,-24.902,-25.879,62.988,0.000
1606127801.967,0.977,-23.438,-28.809,67.871,0.000
1606127801.971,-31.738,-31.250,-29.785,-33.203,0.000
1606127801.975,-58.594,-33.203,-30.273,-103.516,0.000
1606127801.979,-41.992,-23.438,-30.762,-65.918,0.000
1606127801.982,0.977,-19.531,-29.297,40.527,0.000
1606127801.986,12.207,-13.184,-20.508,64.453,0.000
1606127801.990,-25.879,-16.113,-24.414,-27.832,0.000
1606127801.994,-57.617,-31.250,-36.621,-112.305,0.000
1606127801.998,-45.898,-27.344,-39.551,-87.891,0.000
1606127802.002,-5.371,-21.484,-27.832,29.297,0.000
1606127802.006,4.395,-20.508,-20.020,73.242,0.000
1606127802.010,-25.391,-23.926,-25.879,-6.836,0.000
1606127802.014,-60.059,-33.203,-28.320,-95.703,0.000
1606127802.018,-55.176,-32.227,-26.367,-86.914,0.000
1606127802.021,-20.508,-20.508,-26.367,16.602,0.000
1606127802.025,-2.441,-9.766,-20.020,71.289,0.000
1606127802.029,-22.461,-19.043,-20.020,-0.488,0.000
1606127802.033,-65.918,-37.109,-33.691,-110.352,0.000
1606127802.037,-76.172,-40.039,-30.762,-112.793,0.000
1606127802.041,-21.484,-26.367,-21.484,-5.371,0.000
1606127802.045,-4.395,-22.461,-20.996,58.594,0.000
1606127802.049,-40.527,-27.832,-19.531,9.277,0.000
1606127802.053,-63.965,-35.156,-24.902,-102.051,0.000
1606127802.057,-67.383,-37.109,-27.832,-122.559,0.000
1606127802.061,-37.109,-31.738,-19.043,-14.648,0.000
1606127802.064,-7.812,-25.879,-16.602,67.383,0.000
1606127802.068,-21.484,-24.902,-28.809,22.461,0.000
1606127802.072,-57.129,-31.250,-34.668,-95.703,0.000
1606127802.076,-64.453,-27.344,-35.156,-117.188,0.000
1606127802.080,-34.180,-26.367,-25.391,-29.785,0.000
1606127802.084,3.418,-17.578,-11.230,61.523,0.000
1606127802.088,4.395,-1.953,-17.578,41.504,0.000
1606127802.092,-38.574,-24.902,-27.832,-80.078,0.000
1606127802.096,-67.383,-47.852,-39.551,-132.324,0.000
1606127802.100,-42.480,-52.734,-45.898,-56.152,0.000
1606127802.104,-2.441,-38.574,-34.180,45.410,0.000
1606127802.107,-5.371,-28.320,-27.344,40.039,0.000
1606127802.111,-42.969,-39.062,-27.832,-70.801,0.000
1606127802.115,-62.500,-38.574,-29.297,-135.254,0.000
1606127802.119,-48.828,-30.273,-28.320,-66.895,0.000
1606127802.123,-9.766,-18.066,-20.508,41.016,0.000
1606127802.127,1.465,-3.418,-14.648,46.875,0.000
1606127802.131,-34.668,-24.414,-19.531,-59.570,0.000
1606127802.135,-66.406,-44.434,-31.250,-134.766,0.000
1606127802.139,-55.176,-40.039,-33.691,-86.426,0.000
1606127802.143,-18.066,-35.156,-30.762,25.879,0.000
1606127802.146,-10.254,-37.598,-24.414,47.363,0.000
1606127802.150,-46.387,-42.969,-28.809,-57.617,0.000
1606127802.154,-83.984,-45.410,-36.621,-144.043,0.000
1606127802.158,-53.223,-42.969,-28.320,-104.492,0.000
1606127802.162,-12.207,-33.691,-13.184,11.719,0.000
1606127802.166,-25.391,-10.254,-11.230,46.875,0.000
1606127802.170,-56.641,-21.973,-25.879,-43.945,0.000
1606127802.174,-88.867,-50.293,-35.156,-137.695,0.000
1606127802.178,-74.707,-46.875,-33.203,-116.699,0.000
1606127802.182,-30.762,-37.598,-23.438,-5.371,0.000
1606127802.186,-5.859,-25.879,-15.625,51.758,0.000
1606127802.189,-29.297,-26.367,-23.926,-24.902,0.000
1606127802.193,-67.871,-37.109,-32.715,-126.465,0.000
1606127802.197,-63.965,-37.598,-30.762,-113.770,0.000
1606127802.201,-31.250,-31.250,-27.344,-10.742,0.000
1606127802.205,-9.766,-23.438,-22.461,56.641,0.000
1606127802.209,-31.738,-23.438,-22.461,-0.488,0.000
1606127802.213,-76.172,-31.738,-35.156,-114.258,0.000
1606127802.217,-77.148,-39.062,-35.645,-120.605,0.000
1606127802.221,-35.156,-31.738,-15.137,-9.277,0.000
1606127802.225,0.000,-12.207,-6.836,77.148,0.000
1606127802.229,-3.906,-9.766,-10.742,34.668,0.000
1606127802.232,-37.109,-28.320,-15.137,-80.566,0.000
1606127802.236,-40.039,-31.250,-20.020,-106.445,0.000
1606127802.240,-1.465,-18.555,-23.926,-14.160,0.000
1606127802.244,32.715,-5.859,-23.926,74.219,0.000
1606127802.248,24.414,-7.324,-24.902,39.062,0.000
1606127802.252,-21.484,-20.508,-34.668,-80.566,0.000
1606127802.256,-41.504,-21.973,-40.039,-124.512,0.000
1606127802.260,-10.742,-12.695,-31.738,-39.062,0.000
1606127802.264,11.230,-9.277,-18.555,55.664,0.000
1606127802.268,-8.301,-8.301,-11.230,34.180,0.000
1606127802.271,-50.293,-25.391,-17.578,-82.520,0.000
1606127802.275,-79.590,-39.551,-29.785,-150.391,0.000
1606127802.279,-51.758,-33.691,-27.344,-72.754,0.000
1606127802.283,-7.324,-24.902,-21.973,42.969,0.000
1606127802.287,-12.207,-27.344,-18.066,44.434,0.000
1606127802.291,-51.270,-32.715,-18.066,-50.781,0.000
1606127802.295,-77.637,-36.621,-28.809,-111.816,0.000
1606127802.299,-60.059,-40.039,-26.367,-57.129,0.000
1606127802.303,-18.066,-31.738,-20.020,50.293,0.000
1606127802.307,-13.184,-17.090,-22.461,62.500,0.000
1606127802.311,-49.805,-34.668,-27.344,-38.086,0.000
1606127802.314,-83.496,-52.734,-35.156,-118.652,0.000
1606127802.318,-70.312,-41.992,-26.367,-81.543,0.000
1606127802.322,-31.250,-31.738,-17.578,29.785,0.000
1606127802.326,-16.602,-27.344,-23.926,58.594,0.000
1606127802.330,-39.551,-36.133,-25.879,-34.668,0.000
1606127802.334,-74.707,-43.945,-26.855,-130.371,0.000
1606127802.338,-70.801,-34.668,-28.809,-110.352,0.000
1606127802.342,-29.785,-25.879,-22.949,-1.953,0.000
1606127802.346,-10.742,-25.391,-24.902,35.156,0.000
1606127802.350,-37.109,-29.785,-33.203,-45.410,0.000
1606127802.354,-73.242,-35.156,-37.109,-139.648,0.000
1606127802.357,-72.266,-35.645,-33.691,-126.953,0.000
1606127802.361,-28.320,-31.250,-24.902,-15.137,0.000
1606127802.365,1.953,-9.277,-25.391,46.875,0.000
1606127802.369,-12.695,3.418,-34.180,-17.578,0.000
1606127802.373,-47.852,-22.461,-41.016,-119.141,0.000
1606127802.377,-52.734,-34.180,-42.969,-119.629,0.000
1606127802.381,-16.113,-36.133,-43.457,-18.066,0.000
1606127802.385,9.766,-29.297,-38.086,48.340,0.000
1606127802.389,-6.836,-28.320,-35.156,1.953,0.000
1606127802.393,-46.387,-39.062,-43.945,-110.352,0.000
1606127802.396,-48.828,-38.574,-39.062,-124.023,0.000
1606127802.400,-8.789,-29.785,-31.738,-15.625,0.000
1606127802.404,19.531,-12.695,-33.691,66.406,0.000
1606127802.408,7.324,-17.578,-29.785,29.785,0.000
1606127802.412,-32.715,-37.598,-29.297,-74.219,0.000
1606127802.416,-46.387,-36.621,-33.691,-85.449,0.000
1606127802.420,-21.973,-31.738,-22.461,4.395,0.000
1606127802.424,4.883,-26.367,-11.719,87.891,0.000
1606127802.428,-4.883,-27.344,-12.695,65.430,0.000
1606127802.432,-53.711,-36.133,-21.973,-50.293,0.000
1606127802.436,-78.125,-42.480,-21.973,-99.609,0.000
1606127802.439,-49.316,-39.551,-16.113,-24.902,0.000
1606127802.443,-11.719,-30.762,-11.719,70.312,0.000
1606127802.447,-12.207,-25.391,-14.160,62.500,0.000
1606127802.451,-45.410,-30.273,-30.273,-47.852,0.000
1606127802.455,-66.406,-37.109,-32.715,-113.281,0.000
1606127802.459,-49.316,-39.551,-30.762,-50.781,0.000
1606127802.463,-14.160,-32.715,-32.715,56.152,0.000
1606127802.467,-7.324,-20.508,-21.484,66.895,0.000
1606127802.471,-43.457,-30.762,-20.508,-38.086,0.000
1606127802.475,-73.242,-40.527,-28.809,-104.492,0.000
1606127802.479,-61.523,-33.203,-20.996,-59.570,0.000
1606127802.482,-19.531,-25.879,-16.602,42.480,0.000
1606127802.486,-5.371,-18.066,-24.414,63.477,0.000
1606127802.490,-40.039,-24.414,-26.367,-32.227,0.000
1606127802.494,-66.895,-34.180,-22.949,-116.699,0.000
1606127802.498,-49.805,-32.715,-25.879,-86.914,0.000
1606127802.502,-17.578,-24.414,-22.949,24.414,0.000
1606127802.506,-4.395,-21.484,-16.602,59.570,0.000
1606127802.510,-31.250,-22.949,-25.879,-25.879,0.000
1606127802.514,-71.289,-27.832,-31.738,-122.070,0.000
1606127802.518,-62.500,-28.809,-23.926,-99.121,0.000
1606127802.521,-21.973,-20.508,-21.973,17.578,0.000
1606127802.525,-0.488,-13.184,-21.484,71.289,0.000
1606127802.529,-20.020,-20.020,-21.484,-7.812,0.000
1606127802.533,-60.547,-34.668,-28.809,-119.141,0.000
1606127802.537,-58.105,-36.133,-24.902,-111.328,0.000
1606127802.541,-23.438,-30.762,-20.020,0.000,0.000
1606127802.545,-5.859,-24.902,-28.320,64.453,0.000
1606127802.549,-29.297,-31.250,-33.691,-2.930,0.000
1606127802.553,-74.219,-43.945,-39.062,-120.117,0.000
1606127802.557,-74.707,-41.992,-40.039,-123.535,0.000
1606127802.561,-39.551,-34.180,-41.992,-23.926,0.000
1606127802.564,-10.254,-30.762,-39.062,48.340,0.000
1606127802.568,-26.367,-42.480,-37.598,0.000,0.000
1606127802.572,-67.871,-52.246,-53.711,-114.746,0.000
1606127802.576,-71.777,-50.781,-53.223,-136.230,0.000
1606127802.580,-40.039,-46.875,-35.156,-43.457,0.000
1606127802.584,-7.324,-35.645,-24.902,47.852,0.000
1606127802.588,-10.254,-36.621,-24.414,20.996,0.000
1606127802.592,-49.316,-45.410,-35.156,-87.891,0.000
1606127802.596,-68.848,-41.016,-41.992,-129.883,0.000
1606127802.600,-36.621,-38.574,-34.668,-61.523,0.000
1606127802.604,10.742,-27.832,-31.738,46.875,0.000
1606127802.607,8.789,-23.926,-29.297,39.551,0.000
1606127802.611,-32.227,-32.227,-33.203,-69.336,0.000
1606127802.615,-55.176,-39.551,-36.621,-123.535,0.000
1606127802.619,-27.344,-31.250,-27.832,-51.270,0.000
1606127802.623,9.277,-23.438,-22.461,61.035,0.000
1606127802.627,7.324,-28.320,-27.832,58.105,0.000
1606127802.631,-26.855,-31.250,-35.645,-49.316,0.000
1606127802.635,-51.758,-33.691,-29.785,-111.816,0.000
1606127802.639,-32.715,-31.250,-24.902,-52.734,0.000
1606127802.643,2.441,-30.762,-26.855,53.711,0.000
1606127802.646,7.324,-37.109,-20.996,70.801,0.000
1606127802.650,-25.879,-35.156,-24.902,-27.344,0.000
1606127802.654,-58.594,-35.645,-31.250,-114.258,0.000
1606127802.658,-53.711,-44.922,-26.855,-83.008,0.000
1606127802.662,-24.902,-41.016,-26.367,32.227,0.000
1606127802.666,-17.090,-38.086,-23.438,67.871,0.000
1606127802.670,-42.969,-35.645,-24.414,-34.668,0.000
1606127802.674,-74.707,-36.133,-30.762,-128.906,0.000
1606127802.678,-67.383,-35.156,-29.297,-94.238,0.000
1606127802.682,-18.066,-20.508,-16.113,23.926,0.000
1606127802.686,7.324,-20.996,-7.324,68.359,0.000
1606127802.689,-23.926,-34.668,-21.484,-15.625,0.000
1606127802.693,-66.895,-41.016,-38.086,-125.000,0.000
1606127802.697,-60.059,-35.156,-39.062,-106.445,0.000
1606127802.701,-12.207,-26.855,-28.320,16.602,0.000
1606127802.705,11.719,-20.020,-21.973,76.172,0.000
1606127802.709,-7.812,-24.414,-26.855,8.789,0.000
1606127802.713,-50.293,-36.621,-36.621,-108.398,0.000
1606127802.717,-61.035,-36.621,-40.527,-123.535,0.000
1606127802.721,-19.043,-30.762,-31.250,-22.949,0.000
1606127802.725,19.043,-19.531,-21.484,55.664,0.000
1606127802.729,6.348,-18.555,-26.855,12.695,0.000
1606127802.732,-34.668,-31.250,-35.156,-99.609,0.000
1606127802.736,-47.363,-41.504,-37.598,-122.559,0.000
1606127802.740,-20.508,-34.668,-38.086,-28.320,0.000
1606127802.744,8.301,-20.020,-33.691,58.594,0.000
1606127802.748,-10.254,-20.508,-33.691,22.461,0.000
1606127802.752,-55.664,-37.109,-36.133,-94.727,0.000
1606127802.756,-66.895,-49.316,-30.273,-121.094,0.000
1606127802.760,-39.551,-35.156,-29.785,-40.527,0.000
1606127802.764,-6.836,-20.020,-31.738,45.898,0.000
1606127802.768,-12.695,-24.414,-37.598,24.902,0.000
1606127802.771,-49.316,-32.227,-38.574,-80.566,0.000
1606127802.775,-62.500,-30.273,-25.391,-116.699,0.000
1606127802.779,-39.062,-27.832,-16.602,-45.898,0.000
1606127802.783,-10.254,-24.902,-19.531,57.617,0.000
1606127802.787,-14.648,-33.691,-22.949,47.363,0.000
1606127802.791,-49.316,-42.480,-26.367,-62.012,0.000
1606127802.795,-71.289,-43.457,-33.203,-119.629,0.000
1606127802.799,-53.711,-41.016,-21.484,-60.547,0.000
1606127802.803,-13.672,-31.250,-16.113,48.340,0.000
1606127802.807,-3.418,-20.508,-15.137,64.453,0.000
1606127802.811,-36.133,-23.926,-16.113,-35.156,0.000
1606127802.814,-65.430,-36.133,-26.855,-114.258,0.000
1606127802.818,-48.340,-33.691,-25.391,-68.359,0.000
1606127802.822,-8.789,-24.414,-20.020,42.969,0.000
1606127802.826,0.977,-3.906,-13.184,69.824,0.000
1606127802.830,-26.855,-2.441,-14.648,-19.043,0.000
1606127802.834,-52.734,-29.297,-23.438,-106.934,0.000
1606127802.838,-40.527,-28.809,-23.438,-77.148,0.000
1606127802.842,-5.371,-18.066,-16.602,38.574,0.000
1606127802.846,3.418,-25.391,-16.602,66.895,0.000
1606127802.850,-28.320,-35.156,-30.762,-25.879,0.000
1606127802.854,-63.965,-34.668,-34.668,-121.094,0.000
1606127802.857,-55.176,-31.250,-27.344,-98.633,0.000
1606127802.861,-9.277,-20.996,-20.508,17.090,0.000
1606127802.865,16.113,-7.324,-20.508,74.707,0.000
1606127802.869,-7.324,-8.789,-17.090,7.812,0.000
1606127802.873,-46.387,-22.461,-14.648,-98.633,0.000
1606127802.877,-50.293,-25.391,-23.438,-98.633,0.000
1606127802.881,-25.879,-25.879,-21.973,4.395,0.000
1606127802.885,-4.395,-27.344,-14.160,67.383,0.000
1606127802.889,-23.926,-31.250,-20.020,12.207,0.000
1606127802.893,-61.035,-41.992,-32.715,-99.609,0.000
1606127802.896,-64.941,-41.504,-29.785,-110.840,0.000
1606127802.900,-35.645,-26.855,-18.555,-2.930,0.000
1606127802.904,-9.277,-20.508,-13.184,71.289,0.000
1606127802.908,-20.996,-28.320,-17.090,22.461,0.000
1606127802.912,-56.152,-34.668,-21.484,-87.402,0.000
1606127802.916,-67.383,-34.180,-21.484,-118.164,0.000
1606127802.920,-36.621,-39.551,-21.484,-32.227,0.000
1606127802.924,-5.371,-41.504,-24.414,56.641,0.000
1606127802.928,-9.766,-34.180,-20.508,32.715,0.000
1606127802.932,-43.457,-35.645,-20.996,-82.031,0.000
1606127802.936,-66.406,-41.016,-36.621,-131.348,0.000
1606127802.939,-35.156,-34.668,-33.203,-45.410,0.000
1606127802.943,9.766,-25.391,-20.020,60.547,0.000
1606127802.947,7.812,-19.531,-20.996,48.340,0.000
1606127802.951,-25.391,-25.879,-24.414,-59.082,0.000
1606127802.955,-49.316,-28.809,-22.461,-113.281,0.000
1606127802.959,-31.250,-12.695,-22.461,-50.781,0.000
1606127802.963,6.348,-7.324,-22.949,51.758,0.000
1606127802.967,8.301,-17.090,-19.043,53.223,0.000
1606127802.971,-31.738,-29.297,-29.785,-57.129,0.000
1606127802.975,-60.547,-37.598,-30.273,-128.906,0.000
1606127802.979,-40.527,-31.250,-26.855,-74.219,0.000
1606127802.982,-2.441,-20.996,-31.738,34.180,0.000
1606127802.986,1.465,-19.531,-30.762,51.758,0.000
1606127802.990,-36.133,-29.297,-41.016,-45.898,0.000
1606127802.994,-63.477,-31.250,-42.969,-128.906,0.000
1606127802.998,-51.758,-34.180,-39.551,-94.238,0.000
1606127803.002,-14.648,-33.203,-28.320,24.414,0.000
1606127803.006,3.906,-21.973,-14.648,63.477,0.000
1606127803.010,-22.949,-27.344,-28.320,-29.785,0.000
1606127803.014,-58.594,-37.598,-40.039,-118.652,0.000
1606127803.018,-56.641,-41.016,-32.715,-94.727,0.000
1606127803.021,-22.949,-39.062,-24.902,10.254,0.000
1606127803.025,-4.883,-27.344,-28.320,60.059,0.000
1606127803.029,-31.250,-26.367,-31.738,-11.719,0.000
1606127803.033,-69.336,-33.691,-31.738,-116.211,0.000
1606127803.037,-62.988,-32.227,-30.762,-107.910,0.000
1606127803.041,-21.973,-25.879,-24.414,7.812,0.000
1606127803.045,1.953,-18.066,-21.973,67.383,0.000
1606127803.049,-22.949,-28.809,-25.879,0.488,0.000
1606127803.053,-63.477,-36.621,-30.273,-102.539,0.000
1606127803.057,-62.988,-32.715,-29.297,-104.980,0.000
1606127803.061,-27.344,-36.133,-29.297,-7.324,0.000
1606127803.064,-0.488,-20.996,-28.809,56.641,0.000
1606127803.068,-20.020,-19.531,-28.809,8.301,0.000
1606127803.072,-54.199,-36.133,-29.297,-95.215,0.000
1606127803.076,-61.035,-38.574,-27.832,-116.699,0.000
1606127803.080,-32.715,-41.016,-27.344,-28.809,0.000
1606127803.084,5.859,-27.344,-24.902,62.012,0.000
1606127803.088,-1.465,-22.949,-26.855,32.715,0.000
1606127803.092,-43.945,-30.762,-35.645,-89.844,0.000
1606127803.096,-62.500,-38.086,-39.062,-126.953,0.000
1606127803.100,-37.598,-31.738,-34.180,-34.180,0.000
1606127803.104,0.488,-3.906,-21.973,57.617,0.000
1606127803.107,-1.953,6.836,-22.949,35.156,0.000
1606127803.111,-42.480,-21.973,-33.203,-79.102,0.000
1606127803.115,-68.359,-42.969,-42.480,-134.277,0.000
1606127803.119,-49.805,-38.086,-39.551,-62.500,0.000
1606127803.123,-7.812,-24.414,-27.832,44.434,0.000
1606127803.127,-5.859,-23.438,-29.297,32.715,0.000
1606127803.131,-41.016,-29.785,-26.855,-77.148,0.000
1606127803.135,-59.570,-31.250,-22.949,-129.883,0.000
1606127803.139,-42.969,-34.668,-22.949,-72.754,0.000
1606127803.143,-0.488,-30.273,-24.414,36.621,0.000
1606127803.146,3.418,-25.391,-30.762,51.270,0.000
1606127803.150,-30.273,-33.203,-34.668,-52.246,0.000
1606127803.154,-54.199,-41.016,-31.738,-125.488,0.000
1606127803.158,-39.551,-37.598,-28.320,-74.707,0.000
1606127803.162,-3.418,-28.320,-20.508,35.156,0.000
1606127803.166,8.789,-12.695,-12.695,63.477,0.000
1606127803.170,-18.066,-18.555,-20.508,-25.879,0.000
1606127803.174,-52.734,-37.598,-31.250,-118.652,0.000
1606127803.178,-47.852,-37.598,-31.250,-90.332,0.000
1606127803.182,-8.301,-24.902,-23.926,24.902,0.000
1606127803.186,11.719,-20.508,-26.367,63.477,0.000
1606127803.189,-21.484,-29.785,-40.527,-27.832,0.000
1606127803.193,-64.941,-37.109,-39.551,-125.977,0.000
1606127803.197,-58.105,-32.227,-31.738,-104.980,0.000
1606127803.201,-17.578,-28.320,-31.738,6.836,0.000
1606127803.205,2.930,-27.832,-25.391,59.570,0.000
1606127803.209,-22.461,-26.855,-25.879,-10.742,0.000
1606127803.213,-59.570,-33.203,-27.832,-110.352,0.000
1606127803.217,-61.035,-35.156,-33.691,-112.793,0.000
1606127803.221,-24.414,-32.715,-35.645,-11.230,0.000
1606127803.225,3.906,-32.715,-25.879,58.594,0.000
1606127803.229,-5.371,-33.203,-21.973,14.648,0.000
1606127803.232,-29.785,-30.762,-25.879,-83.008,0.000
1606127803.236,-45.410,-22.461,-28.809,-112.793,0.000
1606127803.240,-36.133,-8.301,-24.902,-37.109,0.000
1606127803.244,-10.742,-9.766,-26.367,34.668,0.000
1606127803.248,-19.531,-22.949,-27.344,-4.883,0.000
1606127803.252,-64.941,-30.273,-33.691,-120.117,0.000
1606127803.256,-92.773,-36.133,-41.016,-153.809,0.000
1606127803.260,-67.871,-38.574,-38.086,-62.988,0.000
1606127803.264,-28.320,-30.273,-25.391,31.250,0.000
1606127803.268,-32.715,-21.484,-20.996,4.395,0.000
1606127803.271,-73.242,-24.902,-32.715,-108.887,0.000
1606127803.275,-85.938,-32.715,-41.992,-147.461,0.000
1606127803.279,-50.781,-35.156,-31.738,-63.477,0.000
1606127803.283,-12.695,-28.320,-21.484,42.969,0.000
1606127803.287,-15.137,-29.297,-31.250,34.180,0.000
1606127803.291,-39.551,-30.273,-35.645,-68.848,0.000
1606127803.295,-56.641,-36.621,-28.809,-122.559,0.000
1606127803.299,-33.203,-39.551,-33.203,-62.500,0.000
1606127803.303,5.859,-31.738,-35.156,41.992,0.000
1606127803.307,12.695,-32.715,-24.414,55.176,0.000
1606127803.311,-18.066,-41.504,-25.391,-42.969,0.000
1606127803.314,-48.828,-48.828,-35.156,-117.676,0.000
1606127803.318,-34.180,-45.410,-35.645,-62.988,0.000
1606127803.322,8.301,-29.297,-26.367,53.711,0.000
1606127803.326,13.184,-25.879,-23.926,68.359,0.000
1606127803.330,-23.438,-37.598,-32.715,-28.809,0.000
1606127803.334,-59.082,-41.992,-43.457,-117.676,0.000
1606127803.338,-47.852,-36.133,-41.992,-83.008,0.000
1606127803.342,-6.836,-35.645,-34.180,38.086,0.000
1606127803.346,5.371,-31.738,-29.297,72.266,0.000
1606127803.350,-25.391,-40.039,-28.320,-17.090,0.000
1606127803.354,-62.012,-51.758,-34.668,-109.375,0.000
1606127803.357,-58.105,-45.898,-38.086,-91.309,0.000
1606127803.361,-20.020,-32.227,-31.250,29.785,0.000
1606127803.365,2.441,-17.578,-23.926,93.262,0.000
1606127803.369,-30.762,-24.902,-31.738,12.207,0.000
1606127803.373,-72.266,-41.992,-34.668,-95.215,0.000
1606127803.377,-64.941,-40.527,-22.461,-81.055,0.000
1606127803.381,-22.949,-24.902,-16.113,31.250,0.000
1606127803.385,-0.488,-18.555,-9.766,90.332,0.000
1606127803.389,-18.555,-32.227,-5.859,23.438,0.000
1606127803.393,-60.059,-46.387,-20.996,-93.262,0.000
1606127803.396,-71.777,-50.781,-33.203,-99.121,0.000
1606127803.400,-33.203,-45.410,-27.344,11.230,0.000
1606127803.404,-2.930,-40.039,-27.832,77.637,0.000
1606127803.408,-15.137,-37.109,-29.785,25.391,0.000
1606127803.412,-43.945,-41.992,-28.809,-82.520,0.000
1606127803.416,-45.410,-35.156,-30.762,-100.098,0.000
1606127803.420,-30.762,-18.555,-24.902,-24.414,0.000
1606127803.424,-17.090,-23.438,-26.855,35.645,0.000
1606127803.428,-15.625,-32.227,-35.156,13.184,0.000
1606127803.432,-57.129,-35.645,-40.039,-93.750,0.000
1606127803.436,-82.031,-41.016,-30.273,-141.113,0.000
1606127803.439,-54.688,-36.133,-23.926,-59.082,0.000
1606127803.443,-19.531,-30.762,-26.855,41.016,0.000
1606127803.447,-13.184,-26.367,-23.926,37.109,0.000
1606127803.451,-46.387,-35.645,-28.809,-67.383,0.000
1606127803.455,-64.941,-41.992,-34.180,-118.652,0.000
1606127803.459,-38.086,-37.109,-28.809,-40.527,0.000
1606127803.463,3.906,-28.320,-21.484,71.289,0.000
1606127803.467,6.348,-26.367,-20.996,70.312,0.000
1606127803.471,-31.738,-32.227,-29.297,-44.434,0.000
1606127803.475,-51.758,-31.250,-29.785,-104.492,0.000
1606127803.479,-34.180,-36.621,-29.785,-45.410,0.000
1606127803.482,6.348,-39.551,-30.762,57.129,0.000
1606127803.486,11.230,-35.156,-28.809,73.730,0.000
1606127803.490,-28.809,-36.621,-33.203,-31.250,0.000
1606127803.494,-57.129,-38.574,-28.320,-109.375,0.000
1606127803.498,-40.527,-36.621,-23.926,-63.965,0.000
1606127803.502,-5.371,-33.203,-23.926,43.457,0.000
1606127803.506,7.324,-27.832,-23.438,74.707,0.000
1606127803.510,-19.043,-27.832,-32.227,-17.578,0.000
1606127803.514,-52.734,-41.504,-34.180,-110.840,0.000
1606127803.518,-41.504,-39.551,-32.227,-83.984,0.000
1606127803.521,3.906,-24.414,-27.344,37.109,0.000
1606127803.525,23.438,-18.555,-21.484,82.520,0.000
1606127803.529,-3.906,-29.297,-26.855,-5.859,0.000
1606127803.533,-38.574,-38.086,-28.809,-107.422,0.000
1606127803.537,-36.621,-40.039,-24.414,-91.797,0.000
1606127803.541,0.488,-26.855,-19.043,23.438,0.000
1606127803.545,18.555,-17.090,-13.184,79.102,0.000
1606127803.549,-6.836,-34.668,-11.230,10.742,0.000
1606127803.553,-46.875,-45.410,-23.926,-97.168,0.000
1606127803.557,-51.758,-39.551,-31.250,-101.074,0.000
1606127803.561,-20.020,-31.250,-25.879,4.395,0.000
1606127803.564,2.441,-23.926,-18.555,71.289,0.000
1606127803.568,-15.625,-20.996,-18.555,17.090,0.000
1606127803.572,-55.176,-25.879,-25.391,-95.215,0.000
1606127803.576,-66.406,-40.527,-25.879,-116.699,0.000
1606127803.580,-38.574,-46.387,-23.438,-19.531,0.000
1606127803.584,-10.742,-29.297,-18.066,57.617,0.000
1606127803.588,-20.020,-17.090,-13.672,20.996,0.000
1606127803.592,-58.105,-32.227,-22.949,-90.820,0.000
1606127803.596,-76.660,-40.039,-30.273,-134.277,0.000
1606127803.600,-47.852,-35.645,-31.738,-41.016,0.000
1606127803.604,-16.113,-24.902,-23.926,61.035,0.000
1606127803.607,-25.879,-23.926,-16.113,35.156,0.000
1606127803.611,-60.059,-31.738,-16.602,-79.102,0.000
1606127803.615,-77.148,-31.738,-24.902,-126.465,0.000
1606127803.619,-50.293,-32.227,-30.273,-52.734,0.000
1606127803.623,-8.789,-29.297,-15.625,50.781,0.000
1606127803.627,-5.859,-18.066,-17.578,45.410,0.000
1606127803.631,-43.457,-22.461,-37.109,-67.871,0.000
1606127803.635,-57.617,-29.785,-37.109,-125.977,0.000
1606127803.639,-31.738,-24.902,-26.367,-62.012,0.000
1606127803.643,6.348,-14.160,-26.855,43.945,0.000
1606127803.646,13.184,-11.719,-31.738,50.293,0.000
1606127803.650,-17.090,-20.996,-31.738,-56.641,0.000
1606127803.654,-41.992,-27.832,-34.180,-129.395,0.000
1606127803.658,-30.762,-30.762,-37.109,-77.148,0.000
1606127803.662,11.719,-15.625,-24.414,42.969,0.000
1606127803.666,28.809,1.465,-18.555,67.871,0.000
1606127803.670,0.488,-13.184,-28.809,-36.621,0.000
1606127803.674,-35.156,-26.367,-32.227,-126.953,0.000
1606127803.678,-39.062,-27.832,-31.738,-94.727,0.000
1606127803.682,-7.324,-19.043,-30.273,19.531,0.000
1606127803.686,6.836,2.441,-21.973,59.082,0.000
1606127803.689,-28.320,-5.371,-22.461,-30.273,0.000
1606127803.693,-71.289,-27.832,-33.203,-129.883,0.000
1606127803.697,-74.219,-31.738,-37.598,-117.188,0.000
1606127803.701,-36.133,-30.762,-18.555,-2.441,0.000
1606127803.705,-18.066,-24.414,-19.531,51.270,0.000
1606127803.709,-45.410,-23.438,-37.109,-31.250,0.000
1606127803.713,-76.660,-23.926,-36.621,-131.836,0.000
1606127803.717,-80.566,-26.855,-39.062,-125.977,0.000
1606127803.721,-56.641,-22.949,-31.738,-20.020,0.000
1606127803.725,-32.227,-13.672,-24.902,42.969,0.000
1606127803.729,-47.852,-23.438,-30.273,-18.066,0.000
1606127803.732,-83.984,-40.039,-34.668,-120.117,0.000
1606127803.736,-87.891,-41.504,-27.832,-122.559,0.000
1606127803.740,-56.152,-38.574,-16.602,-21.973,0.000
1606127803.744,-20.020,-33.691,-6.836,57.617,0.000
1606127803.748,-31.738,-30.762,-19.043,11.230,0.000
1606127803.752,-82.031,-33.203,-32.715,-109.375,0.000
1606127803.756,-99.121,-38.574,-30.273,-136.719,0.000
1606127803.760,-66.406,-33.203,-23.926,-42.480,0.000
1606127803.764,-31.738,-26.367,-18.555,44.434,0.000
1606127803.768,-41.504,-31.738,-25.879,9.766,0.000
1606127803.771,-84.473,-41.016,-37.598,-110.840,0.000
1606127803.775,-100.586,-51.270,-39.551,-151.855,0.000
1606127803.779,-68.359,-43.945,-32.227,-62.988,0.000
1606127803.783,-27.344,-33.203,-19.043,40.527,0.000
1606127803.787,-33.203,-36.133,-30.273,19.043,0.000
1606127803.791,-62.988,-29.297,-44.922,-89.355,0.000
1606127803.795,-75.195,-30.762,-41.992,-137.695,0.000
1606127803.799,-51.758,-37.109,-27.344,-62.012,0.000
1606127803.803,-6.348,-17.578,-20.020,50.781,0.000
1606127803.807,3.418,1.465,-25.879,50.293,0.000
1606127803.811,-31.738,-23.926,-28.320,-56.641,0.000
1606127803.814,-57.129,-44.922,-27.832,-120.605,0.000
1606127803.818,-24.902,-37.109,-21.973,-48.828,0.000
1606127803.822,18.066,-18.555,-22.461,69.824,0.000
1606127803.826,18.066,-3.418,-20.020,71.289,0.000
1606127803.830,-13.184,-6.348,-15.625,-36.133,0.000
1606127803.834,-34.180,-24.902,-28.809,-108.398,0.000
1606127803.838,-26.855,-33.203,-34.668,-59.570,0.000
1606127803.842,6.348,-26.367,-28.809,55.664,0.000
1606127803.846,23.926,-24.414,-21.973,86.914,0.000
1606127803.850,0.488,-24.414,-17.090,1.465,0.000
1606127803.854,-31.250,-26.367,-27.344,-85.938,0.000
1606127803.857,-25.879,-22.949,-26.855,-59.570,0.000
1606127803.861,11.230,-24.902,-12.207,55.664,0.000
1606127803.865,29.297,-19.531,-18.555,100.098,0.000
1606127803.869,3.906,-16.602,-29.297,19.043,0.000
1606127803.873,-39.062,-38.574,-40.039,-84.473,0.000
1606127803.877,-44.434,-45.898,-45.410,-78.613,0.000
1606127803.881,-12.695,-37.109,-35.645,28.809,0.000
1606127803.885,13.184,-21.973,-31.250,88.379,0.000
1606127803.889,-6.348,-24.414,-36.621,23.438,0.000
1606127803.893,-48.828,-41.016,-44.922,-87.402,0.000
1606127803.896,-55.176,-38.574,-44.434,-95.215,0.000
1606127803.900,-18.555,-23.926,-31.738,16.602,0.000
1606127803.904,8.301,-22.949,-19.043,85.938,0.000
1606127803.908,-8.789,-36.621,-25.391,21.973,0.000
1606127803.912,-43.945,-40.039,-37.109,-93.262,0.000
1606127803.916,-52.734,-32.715,-37.109,-108.887,0.000
1606127803.920,-26.855,-35.156,-29.297,-10.254,0.000
1606127803.924,-4.395,-36.621,-26.367,71.777,0.000
1606127803.928,-22.949,-39.062,-29.785,28.809,0.000
1606127803.932,-62.500,-47.852,-34.180,-87.402,0.000
1606127803.936,-76.172,-46.387,-36.621,-121.094,0.000
1606127803.939,-56.152,-46.387,-35.156,-35.156,0.000
1606127803.943,-17.090,-44.434,-22.949,62.988,0.000
1606127803.947,-15.137,-34.668,-20.020,44.922,0.000
1606127803.951,-55.664,-40.039,-22.461,-74.707,0.000
1606127803.955,-76.660,-51.270,-29.785,-126.953,0.000
1606127803.959,-56.641,-46.875,-40.039,-49.316,0.000
1606127803.963,-16.113,-37.598,-30.762,57.617,0.000
1606127803.967,-11.230,-30.273,-28.320,53.711,0.000
1606127803.971,-51.758,-34.180,-33.691,-62.012,0.000
1606127803.975,-73.730,-43.945,-35.645,-127.930,0.000
1606127803.979,-48.340,-32.227,-33.203,-61.035,0.000
1606127803.982,-16.113,-16.602,-31.738,50.293,0.000
1606127803.986,-15.137,-17.578,-35.156,52.734,0.000
1606127803.990,-45.898,-21.484,-32.715,-51.270,0.000
1606127803.994,-70.801,-29.785,-28.809,-125.488,0.000
1606127803.998,-56.641,-29.785,-26.855,-78.125,0.000
1606127804.002,-15.137,-20.020,-25.391,44.922,0.000
1606127804.006,0.000,-7.812,-21.484,71.289,0.000
1606127804.010,-31.738,-22.949,-24.414,-27.832,0.000
1606127804.014,-58.594,-41.504,-33.203,-107.422,0.000
1606127804.018,-45.898,-35.645,-37.598,-75.195,0.000
1606127804.021,-10.254,-32.715,-32.227,28.320,0.000
1606127804.025,14.160,-21.973,-30.273,62.500,0.000
1606127804.029,-17.090,-29.785,-41.504,-24.902,0.000
1606127804.033,-61.035,-42.480,-42.480,-126.953,0.000
1606127804.037,-48.340,-36.621,-41.504,-106.445,0.000
1606127804.041,-1.465,-19.043,-35.156,10.254,0.000
1606127804.045,21.973,-6.348,-30.762,53.223,0.000
1606127804.049,-3.418,-17.578,-37.109,-24.414,0.000
1606127804.053,-42.969,-33.203,-44.434,-125.000,0.000
1606127804.057,-39.062,-29.785,-43.457,-119.629,0.000
1606127804.061,0.000,-20.508,-35.645,-6.348,0.000
1606127804.064,18.555,-14.648,-33.691,60.059,0.000
1606127804.068,-7.812,-21.973,-39.551,-7.812,0.000
1606127804.072,-49.805,-33.691,-37.109,-117.188,0.000
1606127804.076,-55.176,-29.785,-34.180,-128.418,0.000
1606127804.080,-31.250,-29.785,-29.297,-34.668,0.000
1606127804.084,-12.207,-23.926,-22.461,40.527,0.000
1606127804.088,-25.879,-26.855,-20.020,2.441,0.000
1606127804.092,-69.336,-50.781,-29.785,-116.699,0.000
1606127804.096,-79.102,-55.664,-34.668,-139.648,0.000
1606127804.100,-41.504,-37.109,-26.367,-36.621,0.000
1606127804.104,-15.137,-24.902,-17.578,46.875,0.000
1606127804.107,-25.391,-28.809,-16.113,16.602,0.000
1606127804.111,-62.988,-40.039,-20.508,-96.680,0.000
1606127804.115,-84.473,-44.434,-28.320,-137.207,0.000
1606127804.119,-56.641,-41.992,-26.367,-50.781,0.000
1606127804.123,-14.160,-33.203,-20.020,51.270,0.000
1606127804.127,-17.090,-30.273,-25.391,37.109,0.000
1606127804.131,-52.246,-37.598,-32.715,-73.242,0.000
1606127804.135,-71.289,-54.688,-38.086,-131.348,0.000
1606127804.139,-44.922,-49.316,-43.457,-64.941,0.000
1606127804.143,2.441,-25.391,-32.227,50.293,0.000
1606127804.146,10.254,-29.297,-27.344,53.223,0.000
1606127804.150,-22.461,-40.527,-31.250,-51.758,0.000
1606127804.154,-48.828,-46.387,-25.879,-115.723,0.000
1606127804.158,-32.227,-38.086,-19.531,-57.617,0.000
1606127804.162,7.812,-23.438,-11.230,55.664,0.000
1606127804.166,18.555,-17.090,-14.160,76.660,0.000
1606127804.170,-6.836,-25.879,-18.066,-15.625,0.000
1606127804.174,-41.504,-30.762,-18.555,-101.074,0.000
1606127804.178,-29.785,-18.066,-20.996,-67.383,0.000
1606127804.182,20.020,-10.742,-13.672,48.828,0.000
1606127804.186,20.020,-9.766,-11.719,80.566,0.000
1606127804.189,-21.484,-19.531,-20.020,-17.090,0.000
1606127804.193,-55.176,-31.738,-26.855,-111.816,0.000
1606127804.197,-49.805,-37.598,-25.391,-87.402,0.000
1606127804.201,-10.742,-30.762,-15.625,30.762,0.000
1606127804.205,5.371,-20.996,-12.695,80.078,0.000
1606127804.209,-18.555,-26.855,-20.996,3.418,0.000
1606127804.213,-46.875,-37.598,-35.156,-92.773,0.000
1606127804.217,-51.758,-31.738,-32.227,-89.355,0.000
1606127804.221,-34.180,-27.344,-22.461,9.277,0.000
1606127804.225,-27.344,-21.973,-23.926,64.453,0.000
1606127804.229,-52.246,-17.578,-24.902,-4.883,0.000
1606127804.232,-91.309,-27.832,-29.297,-119.629,0.000
1606127804.236,-89.355,-33.203,-33.691,-125.000,0.000
1606127804.240,-41.504,-27.832,-29.785,-10.254,0.000
1606127804.244,-6.348,-12.207,-25.391,65.918,0.000
1606127804.248,-16.602,-3.906,-21.973,16.113,0.000
1606127804.252,-49.805,-26.855,-31.738,-96.191,0.000
