timestamps,TP9,AF7,AF8,TP10,Right AUX
1606143408.397,-0.488,0.000,0.000,-0.488,0.000
1606143408.401,0.488,0.000,-0.488,1.465,0.000
1606143408.405,-0.488,-1.465,-0.977,2.930,0.000
1606143408.409,-7.324,1.953,1.465,-27.344,0.000
1606143408.413,28.320,-12.207,-11.719,109.863,0.000
1606143408.417,-54.199,-34.668,-32.715,-46.875,0.000
1606143408.421,-187.988,-33.691,-36.133,-466.309,0.000
1606143408.424,-90.820,-31.738,-31.738,-271.484,0.000
1606143408.428,101.562,-25.879,-23.926,269.531,0.000
1606143408.432,145.020,-17.090,-22.461,429.688,0.000
1606143408.436,-30.273,-28.809,-31.250,-12.695,0.000
1606143408.440,-185.547,-36.621,-38.574,-458.496,0.000
1606143408.444,-103.027,-30.273,-32.227,-325.684,0.000
1606143408.448,90.332,-25.391,-24.414,216.797,0.000
1606143408.452,137.695,-22.461,-25.391,434.082,0.000
1606143408.456,-11.719,-28.809,-25.879,55.176,0.000
1606143408.460,-182.129,-29.785,-30.762,-427.246,0.000
1606143408.464,-148.438,-23.438,-36.133,-386.719,0.000
1606143408.467,57.129,-21.973,-24.414,160.156,0.000
1606143408.471,137.207,-23.438,-13.184,446.777,0.000
1606143408.475,-13.672,-33.691,-29.785,106.445,0.000
1606143408.479,-191.895,-46.387,-42.480,-410.645,0.000
1606143408.483,-170.898,-47.852,-32.227,-427.734,0.000
1606143408.487,30.762,-35.645,-24.902,88.379,0.000
1606143408.491,145.508,-27.832,-15.137,437.012,0.000
1606143408.495,24.414,-31.738,-18.555,188.965,0.000
1606143408.499,-169.434,-35.645,-29.785,-340.332,0.000
1606143408.503,-178.223,-26.367,-30.273,-455.566,0.000
1606143408.507,1.953,-23.926,-23.926,6.836,0.000
1606143408.510,130.859,-27.832,-12.695,420.898,0.000
1606143408.514,51.758,21.484,-20.020,260.254,0.000
1606143408.518,-155.762,37.109,-42.480,-298.340,0.000
1606143408.522,-206.055,-20.020,-44.922,-502.930,0.000
1606143408.526,-21.484,-35.645,-25.391,-76.660,0.000
1606143408.530,144.531,-20.508,-9.766,398.438,0.000
1606143408.534,92.773,-23.926,-15.625,313.477,0.000
1606143408.538,-116.699,-38.574,-30.273,-236.816,0.000
1606143408.542,-189.453,-40.527,-28.320,-486.328,0.000
1606143408.546,-33.691,-32.715,-22.461,-121.582,0.000
1606143408.549,132.812,-29.785,-17.090,368.164,0.000
1606143408.553,96.191,-30.273,-22.949,348.633,0.000
1606143408.557,-103.516,-41.016,-30.273,-180.176,0.000
1606143408.561,-199.707,-15.137,-25.391,-490.723,0.000
1606143408.565,-74.707,6.348,-29.297,-207.031,0.000
1606143408.569,107.422,-26.367,-27.344,305.176,0.000
1606143408.573,103.516,-34.180,-17.090,378.906,0.000
1606143408.577,-86.426,-41.016,-22.461,-111.816,0.000
1606143408.581,-214.844,-49.805,-38.086,-504.883,0.000
1606143408.585,-104.980,-42.480,-33.691,-290.527,0.000
1606143408.589,98.145,-31.250,-19.043,261.719,0.000
1606143408.592,122.070,-23.438,-22.949,408.203,0.000
1606143408.596,-62.988,-27.832,-29.297,-48.828,0.000
1606143408.600,-212.891,-41.992,-28.809,-485.352,0.000
1606143408.604,-130.859,-30.273,-23.438,-337.891,0.000
1606143408.608,81.543,-26.367,-20.020,222.168,0.000
1606143408.612,129.395,-5.859,-24.902,425.293,0.000
1606143408.616,-49.316,28.320,-27.344,17.578,0.000
1606143408.620,-210.449,-16.113,-28.320,-454.102,0.000
1606143408.624,-153.809,-41.992,-23.438,-389.648,0.000
1606143408.628,51.270,-32.715,-19.043,146.973,0.000
1606143408.632,132.812,-28.809,-15.625,424.805,0.000
1606143408.635,-15.625,-38.086,-18.066,91.309,0.000
1606143408.639,-188.965,-42.969,-29.785,-411.621,0.000
1606143408.643,-163.086,-40.039,-30.762,-426.270,0.000
1606143408.647,33.691,-32.715,-20.508,89.844,0.000
1606143408.651,138.672,-25.879,-18.555,431.641,0.000
1606143408.655,17.578,-35.156,-20.996,168.945,0.000
1606143408.659,-175.781,-48.340,-31.738,-364.746,0.000
1606143408.663,-181.152,-10.742,-34.180,-461.426,0.000
1606143408.667,5.371,-1.953,-23.438,17.578,0.000
1606143408.671,131.836,-28.809,-20.996,409.180,0.000
1606143408.674,39.062,-32.715,-27.344,223.633,0.000
1606143408.678,-157.227,-44.434,-35.156,-317.383,0.000
1606143408.682,-184.570,-41.016,-28.320,-485.352,0.000
1606143408.686,-7.324,-31.250,-22.461,-52.734,0.000
1606143408.690,142.578,-25.391,-17.090,396.484,0.000
1606143408.694,65.430,-30.273,-18.066,277.344,0.000
1606143408.698,-142.578,-38.574,-32.715,-265.625,0.000
1606143408.702,-199.707,-36.621,-37.109,-474.609,0.000
1606143408.706,-57.617,-29.297,-29.785,-121.094,0.000
1606143408.710,103.027,-27.832,-26.367,346.680,0.000
1606143408.714,65.918,13.672,-33.691,319.824,0.000
1606143408.717,-128.906,12.695,-36.133,-208.008,0.000
1606143408.721,-217.285,-44.434,-35.156,-513.184,0.000
1606143408.725,-85.938,-40.527,-30.762,-204.590,0.000
1606143408.729,109.375,-22.461,-14.648,321.289,0.000
1606143408.733,111.816,-18.555,-11.230,381.348,0.000
1606143408.737,-89.844,-31.738,-26.367,-122.070,0.000
1606143408.741,-211.914,-40.527,-32.227,-493.164,0.000
1606143408.745,-105.469,-31.250,-35.156,-257.324,0.000
1606143408.749,92.773,-23.438,-28.320,286.621,0.000
1606143408.753,113.281,-25.391,-18.066,412.598,0.000
1606143408.757,-78.125,-35.156,-27.832,-60.059,0.000
1606143408.760,-213.867,-32.227,-36.133,-485.840,0.000
1606143408.764,-125.488,-10.742,-26.367,-320.312,0.000
1606143408.768,71.777,-20.508,-24.414,223.633,0.000
1606143408.772,121.094,-21.973,-25.391,417.480,0.000
1606143408.776,-38.574,-26.855,-29.297,5.859,0.000
1606143408.780,-194.824,-41.992,-39.551,-460.449,0.000
1606143408.784,-146.484,-37.598,-39.062,-386.230,0.000
1606143408.788,53.223,-30.762,-24.902,158.203,0.000
1606143408.792,130.859,-28.809,-18.555,429.688,0.000
1606143408.796,-6.836,-29.297,-16.602,94.238,0.000
1606143408.799,-180.664,-40.039,-21.973,-410.156,0.000
1606143408.803,-168.945,-45.410,-30.273,-433.594,0.000
1606143408.807,29.297,-30.273,-23.438,95.215,0.000
1606143408.811,135.254,-17.090,-16.113,442.383,0.000
1606143408.815,1.465,-27.832,-22.949,156.738,0.000
1606143408.819,-189.453,-53.711,-28.320,-377.930,0.000
1606143408.823,-193.848,-7.324,-33.691,-465.820,0.000
1606143408.827,-4.883,28.809,-24.902,24.902,0.000
1606143408.831,120.605,-26.367,-13.184,414.551,0.000
1606143408.835,20.508,-40.039,-24.414,203.613,0.000
1606143408.839,-162.598,-46.387,-23.438,-323.242,0.000
1606143408.842,-190.430,-25.391,-36.133,-482.422,0.000
1606143408.846,-16.602,-8.789,-47.363,-54.199,0.000
1606143408.850,133.301,-29.785,-29.297,384.766,0.000
1606143408.854,57.617,-37.598,-27.832,254.395,0.000
1606143408.858,-141.113,-46.387,-39.062,-281.250,0.000
1606143408.862,-191.406,-43.945,-42.969,-494.629,0.000
1606143408.866,-38.086,-36.621,-39.062,-114.258,0.000
1606143408.870,119.629,-29.297,-23.438,371.582,0.000
1606143408.874,76.660,-24.414,-17.090,334.961,0.000
1606143408.878,-132.324,-37.109,-33.691,-208.008,0.000
1606143408.882,-213.867,-39.551,-33.203,-490.234,0.000
1606143408.885,-70.801,-32.227,-25.391,-166.504,0.000
1606143408.889,107.910,-33.203,-22.461,341.797,0.000
1606143408.893,96.680,-31.250,-15.625,372.070,0.000
1606143408.897,-106.445,-43.457,-21.484,-153.809,0.000
1606143408.901,-216.309,-33.203,-22.949,-503.906,0.000
1606143408.905,-94.727,48.340,-24.414,-235.352,0.000
1606143408.909,100.098,26.855,-20.996,303.711,0.000
1606143408.913,114.746,-45.410,-14.160,404.297,0.000
1606143408.917,-66.895,-46.875,-27.832,-64.941,0.000
1606143408.921,-177.734,-44.434,-28.809,-451.660,0.000
1606143408.924,-97.168,-38.574,-11.230,-287.598,0.000
1606143408.928,67.383,-39.551,-5.859,223.145,0.000
1606143408.932,108.887,-35.645,-13.184,403.809,0.000
1606143408.936,-57.129,-41.504,-16.602,-14.648,0.000
1606143408.940,-221.191,-44.434,-21.973,-477.539,0.000
1606143408.944,-162.109,-19.043,-27.832,-391.602,0.000
1606143408.948,36.621,-32.227,-5.371,151.855,0.000
1606143408.952,104.492,-45.898,-6.348,414.551,0.000
1606143408.956,-45.410,-46.875,-25.879,58.105,0.000
1606143408.960,-213.867,-55.176,-31.250,-444.824,0.000
1606143408.964,-168.945,-43.457,-31.738,-424.805,0.000
1606143408.967,40.527,-30.762,-22.461,121.582,0.000
1606143408.971,139.648,-27.344,-21.484,440.430,0.000
1606143408.975,12.695,-41.504,-30.762,142.090,0.000
1606143408.979,-161.621,-57.617,-28.320,-365.234,0.000
1606143408.983,-149.414,-0.488,-26.367,-414.551,0.000
1606143408.987,35.645,20.508,-21.973,74.219,0.000
1606143408.991,147.461,-39.551,-11.230,443.359,0.000
1606143408.995,40.527,-50.781,-21.973,219.727,0.000
1606143408.999,-149.414,-45.898,-33.691,-315.430,0.000
1606143409.003,-173.828,-45.898,-37.109,-454.590,0.000
1606143409.007,5.859,-45.410,-33.203,-6.836,0.000
1606143409.010,148.926,-41.992,-20.508,418.945,0.000
1606143409.014,75.195,-41.016,-16.113,282.715,0.000
1606143409.018,-122.070,-46.875,-21.484,-255.859,0.000
1606143409.022,-172.852,-43.945,-21.484,-472.168,0.000
1606143409.026,-12.207,-41.504,-18.066,-74.219,0.000
1606143409.030,142.578,-46.387,-17.578,400.391,0.000
1606143409.034,87.891,-42.480,-18.555,329.102,0.000
1606143409.038,-114.746,-42.969,-24.902,-215.820,0.000
1606143409.042,-194.336,-26.367,-33.203,-493.164,0.000
1606143409.046,-47.852,-12.207,-23.438,-152.344,0.000
1606143409.049,129.395,-33.203,-7.324,355.469,0.000
1606143409.053,99.609,-37.109,-13.184,368.652,0.000
1606143409.057,-100.098,-34.668,-23.926,-150.391,0.000
1606143409.061,-193.848,-31.738,-24.414,-489.746,0.000
1606143409.065,-71.289,-30.273,-23.926,-224.609,0.000
1606143409.069,118.164,-30.762,-20.508,303.223,0.000
1606143409.073,132.324,-27.832,-20.020,395.996,0.000
1606143409.077,-55.176,-32.715,-20.996,-73.242,0.000
1606143409.081,-200.195,-41.016,-28.809,-481.445,0.000
1606143409.085,-114.258,-7.324,-30.762,-303.711,0.000
1606143409.089,95.215,-2.930,-17.578,248.535,0.000
1606143409.092,132.324,-28.320,-17.578,416.016,0.000
1606143409.096,-49.805,-33.691,-25.879,-22.461,0.000
1606143409.100,-199.707,-35.645,-30.762,-465.820,0.000
1606143409.104,-125.977,-38.574,-27.344,-351.074,0.000
1606143409.108,78.613,-32.715,-21.484,198.242,0.000
1606143409.112,137.207,-20.996,-21.973,438.965,0.000
1606143409.116,-16.602,-22.461,-24.414,62.988,0.000
1606143409.120,-181.152,-27.344,-28.809,-417.480,0.000
1606143409.124,-148.926,-13.672,-34.180,-391.602,0.000
1606143409.128,49.316,-18.066,-28.809,135.742,0.000
1606143409.132,137.207,-34.180,-22.949,439.453,0.000
1606143409.135,-2.441,-31.250,-25.391,131.348,0.000
1606143409.139,-187.500,-37.598,-34.668,-386.230,0.000
1606143409.143,-180.664,-45.410,-37.109,-446.289,0.000
1606143409.147,12.695,-43.457,-31.250,61.035,0.000
1606143409.151,128.418,-35.645,-24.902,435.547,0.000
1606143409.155,20.020,-37.109,-22.949,201.172,0.000
1606143409.159,-175.293,-41.016,-35.156,-340.332,0.000
1606143409.163,-199.707,-46.875,-41.992,-470.703,0.000
1606143409.167,-12.207,-43.457,-31.250,-1.953,0.000
1606143409.171,132.324,-29.785,-19.531,430.664,0.000
1606143409.174,42.969,-29.785,-25.879,265.137,0.000
1606143409.178,-167.480,-49.805,-37.109,-305.176,0.000
1606143409.182,-213.867,-36.621,-36.621,-509.766,0.000
1606143409.186,-40.039,-5.371,-30.273,-88.379,0.000
1606143409.190,118.652,-20.020,-16.602,380.371,0.000
1606143409.194,63.477,-31.738,-17.090,300.781,0.000
1606143409.198,-137.695,-32.227,-27.344,-241.211,0.000
1606143409.202,-205.078,-32.715,-23.926,-500.488,0.000
1606143409.206,-57.617,-26.367,-21.973,-147.949,0.000
1606143409.210,111.328,-22.461,-20.020,349.121,0.000
1606143409.214,81.543,-28.809,-19.043,344.727,0.000
1606143409.217,-116.699,-34.668,-29.785,-162.109,0.000
1606143409.221,-215.820,-38.086,-37.598,-498.047,0.000
1606143409.225,-95.215,-31.738,-34.180,-231.445,0.000
1606143409.229,95.703,-28.320,-21.484,303.711,0.000
1606143409.233,103.027,-30.762,-9.766,397.949,0.000
1606143409.237,-88.867,-34.668,-20.508,-88.867,0.000
1606143409.241,-214.355,-40.527,-27.344,-498.047,0.000
1606143409.245,-114.746,-41.504,-25.879,-288.086,0.000
1606143409.249,83.984,-28.809,-25.879,261.719,0.000
1606143409.253,118.164,-21.973,-20.020,418.945,0.000
1606143409.257,-65.918,-35.156,-29.785,-26.855,0.000
1606143409.260,-209.961,-31.738,-37.109,-463.379,0.000
1606143409.264,-124.512,-9.277,-31.250,-322.266,0.000
1606143409.268,76.172,-18.555,-24.902,215.820,0.000
1606143409.272,127.441,-27.832,-20.020,435.547,0.000
1606143409.276,-30.762,-25.879,-23.926,46.875,0.000
1606143409.280,-196.289,-28.809,-30.762,-445.801,0.000
1606143409.284,-153.809,-24.902,-30.762,-391.113,0.000
1606143409.288,46.387,-30.273,-19.043,148.926,0.000
1606143409.292,130.859,-28.320,-14.648,437.500,0.000
1606143409.296,-0.977,-29.785,-34.668,118.652,0.000
1606143409.299,-173.828,-40.039,-40.527,-384.766,0.000
1606143409.303,-164.062,-41.016,-27.344,-417.480,0.000
1606143409.307,21.484,-38.086,-20.508,96.191,0.000
1606143409.311,133.789,-29.785,-14.648,456.055,0.000
1606143409.315,20.996,-31.738,-18.555,188.965,0.000
1606143409.319,-173.340,-50.293,-30.762,-360.840,0.000
1606143409.323,-187.988,-21.973,-29.297,-469.727,0.000
1606143409.327,1.465,-9.766,-17.090,13.184,0.000
1606143409.331,142.578,-32.715,-12.695,423.828,0.000
1606143409.335,43.945,-33.691,-13.184,233.398,0.000
1606143409.339,-165.527,-45.898,-26.855,-324.707,0.000
1606143409.342,-205.078,-47.363,-40.039,-507.812,0.000
1606143409.346,-28.320,-38.086,-29.785,-75.684,0.000
1606143409.350,125.977,-29.297,-18.555,388.672,0.000
1606143409.354,64.453,-24.902,-20.996,294.434,0.000
1606143409.358,-140.625,-45.898,-27.832,-251.953,0.000
1606143409.362,-214.355,-23.438,-32.715,-507.812,0.000
1606143409.366,-58.594,47.363,-31.250,-147.461,0.000
1606143409.370,115.234,9.766,-20.508,349.609,0.000
1606143409.374,82.520,-39.062,-20.020,339.355,0.000
1606143409.378,-119.141,-51.270,-32.715,-191.406,0.000
1606143409.382,-215.820,-57.129,-35.645,-509.277,0.000
1606143409.385,-77.637,-41.992,-25.391,-200.195,0.000
1606143409.389,110.840,-34.180,-17.090,328.613,0.000
1606143409.393,99.609,-31.738,-11.230,389.648,0.000
1606143409.397,-90.820,-38.086,-17.090,-111.328,0.000
1606143409.401,-204.102,-25.879,-25.391,-479.492,0.000
1606143409.405,-103.027,-10.742,-35.156,-251.465,0.000
1606143409.409,88.867,-23.926,-30.273,286.133,0.000
1606143409.413,111.816,-30.762,-27.344,417.480,0.000
1606143409.417,-70.801,-44.922,-31.250,-43.945,0.000
1606143409.421,-208.984,-40.527,-29.297,-463.379,0.000
1606143409.424,-121.094,-29.297,-29.297,-309.082,0.000
1606143409.428,81.055,-38.086,-31.250,232.422,0.000
1606143409.432,129.883,-28.320,-27.832,427.246,0.000
1606143409.436,-30.762,-25.879,-32.227,30.273,0.000
1606143409.440,-187.012,-40.527,-37.109,-428.711,0.000
1606143409.444,-137.207,-38.086,-33.203,-365.723,0.000
1606143409.448,58.105,-35.156,-33.203,170.410,0.000
1606143409.452,139.160,-32.227,-27.344,456.543,0.000
1606143409.456,-8.789,-33.203,-28.320,111.328,0.000
1606143409.460,-191.895,-50.781,-41.504,-407.715,0.000
1606143409.464,-167.480,-11.719,-43.457,-423.340,0.000
1606143409.467,38.574,20.996,-30.762,112.305,0.000
1606143409.471,143.066,-24.902,-21.973,456.055,0.000
1606143409.475,14.648,-44.434,-26.367,168.457,0.000
1606143409.479,-170.410,-40.527,-32.227,-365.723,0.000
1606143409.483,-172.363,-42.969,-38.086,-456.055,0.000
1606143409.487,17.090,-37.598,-30.273,38.086,0.000
1606143409.491,132.324,-30.762,-20.020,433.594,0.000
1606143409.495,37.598,-33.691,-22.461,237.793,0.000
1606143409.499,-156.250,-48.828,-33.203,-303.711,0.000
1606143409.503,-195.801,-14.160,-37.109,-472.656,0.000
1606143409.507,-13.672,2.441,-28.809,-29.785,0.000
1606143409.510,130.859,-33.691,-19.531,409.180,0.000
1606143409.514,54.688,-41.016,-19.043,291.016,0.000
1606143409.518,-140.625,-45.410,-23.438,-253.418,0.000
1606143409.522,-196.289,-42.480,-30.273,-486.328,0.000
1606143409.526,-30.762,-33.691,-32.715,-94.727,0.000
1606143409.530,144.531,-20.020,-10.254,396.484,0.000
1606143409.534,95.703,-19.043,-7.324,349.121,0.000
1606143409.538,-116.211,-45.410,-33.203,-199.707,0.000
1606143409.542,-201.172,-22.461,-36.133,-496.582,0.000
1606143409.546,-56.152,7.812,-29.297,-166.504,0.000
1606143409.549,121.582,-28.809,-20.996,337.402,0.000
1606143409.553,108.887,-33.203,-14.648,368.164,0.000
1606143409.557,-81.055,-38.574,-27.344,-137.695,0.000
1606143409.561,-197.754,-22.461,-37.598,-495.117,0.000
1606143409.565,-88.379,5.371,-30.273,-249.023,0.000
1606143409.569,110.840,-19.531,-20.996,287.598,0.000
1606143409.573,124.023,-25.391,-17.578,403.809,0.000
1606143409.577,-61.035,-32.227,-22.461,-56.152,0.000
1606143409.581,-189.453,-43.945,-36.133,-468.262,0.000
1606143409.585,-110.840,-33.691,-30.762,-311.523,0.000
1606143409.589,90.332,-18.066,-15.137,242.188,0.000
1606143409.592,129.395,-20.020,-23.438,422.363,0.000
1606143409.596,-51.270,-35.156,-32.227,-7.812,0.000
1606143409.600,-197.754,-35.645,-34.668,-453.125,0.000
1606143409.604,-133.301,-14.648,-27.832,-354.980,0.000
1606143409.608,72.266,-20.996,-15.137,194.824,0.000
1606143409.612,143.555,-40.039,-11.719,448.242,0.000
1606143409.616,-6.348,-40.039,-18.555,83.984,0.000
1606143409.620,-179.688,-43.457,-24.902,-414.551,0.000
1606143409.624,-153.320,-40.039,-23.438,-405.273,0.000
1606143409.628,51.270,-26.855,-19.043,124.512,0.000
1606143409.632,142.578,-22.461,-22.461,437.988,0.000
1606143409.635,13.184,-24.902,-22.949,150.879,0.000
1606143409.639,-165.039,-41.016,-27.344,-351.562,0.000
1606143409.643,-166.016,-4.395,-37.109,-425.781,0.000
1606143409.647,18.066,16.602,-30.273,56.152,0.000
1606143409.651,137.695,-25.879,-22.949,430.664,0.000
1606143409.655,45.898,-32.227,-19.043,217.773,0.000
1606143409.659,-147.949,-36.621,-21.484,-317.871,0.000
1606143409.663,-183.105,-41.992,-32.715,-465.332,0.000
1606143409.667,-5.859,-39.062,-27.832,-19.531,0.000
1606143409.671,137.695,-36.133,-20.508,409.180,0.000
1606143409.674,60.547,-38.086,-22.949,273.438,0.000
1606143409.678,-144.043,-44.434,-30.273,-270.996,0.000
1606143409.682,-193.359,-38.086,-36.621,-482.910,0.000
1606143409.686,-23.926,-34.180,-26.855,-88.379,0.000
1606143409.690,132.324,-37.109,-20.996,368.164,0.000
1606143409.694,81.543,-30.762,-24.414,308.105,0.000
1606143409.698,-122.559,-34.668,-23.926,-231.934,0.000
1606143409.702,-205.566,-31.250,-33.691,-513.672,0.000
1606143409.706,-59.570,-20.020,-28.809,-167.480,0.000
1606143409.710,118.652,-20.996,-11.230,340.820,0.000
1606143409.714,104.004,-19.043,-10.254,356.445,0.000
1606143409.717,-94.727,-26.855,-27.344,-155.762,0.000
1606143409.721,-200.684,-31.250,-35.645,-491.211,0.000
1606143409.725,-82.520,-31.738,-29.297,-226.074,0.000
1606143409.729,106.445,-25.879,-19.531,312.988,0.000
1606143409.733,123.535,-16.602,-7.324,423.340,0.000
1606143409.737,-67.383,-30.762,-18.555,-71.289,0.000
1606143409.741,-198.730,-30.273,-35.645,-493.164,0.000
1606143409.745,-110.840,-22.461,-34.180,-309.082,0.000
1606143409.749,86.426,-26.855,-25.879,246.094,0.000
1606143409.753,124.023,-19.043,-18.555,420.410,0.000
1606143409.757,-54.688,-32.227,-24.414,-8.789,0.000
1606143409.760,-198.730,-44.434,-30.273,-443.848,0.000
1606143409.764,-128.418,-13.672,-34.668,-331.543,0.000
1606143409.768,68.848,-18.066,-35.156,201.660,0.000
1606143409.772,125.977,-27.344,-26.855,434.570,0.000
1606143409.776,-28.320,-24.902,-27.344,59.082,0.000
1606143409.780,-191.895,-32.715,-40.527,-431.641,0.000
1606143409.784,-166.992,6.348,-37.598,-414.551,0.000
1606143409.788,36.621,3.906,-20.996,122.070,0.000
1606143409.792,135.254,-28.320,-14.648,431.152,0.000
1606143409.796,-6.836,-39.062,-26.367,118.164,0.000
1606143409.799,-187.988,-49.316,-39.551,-395.508,0.000
1606143409.803,-173.828,-47.852,-41.016,-447.754,0.000
1606143409.807,21.484,-37.109,-31.738,62.012,0.000
1606143409.811,129.883,-29.297,-20.020,429.199,0.000
1606143409.815,10.254,-38.086,-30.762,184.082,0.000
1606143409.819,-178.711,-44.922,-41.992,-343.262,0.000
1606143409.823,-188.477,-38.086,-32.715,-454.102,0.000
1606143409.827,1.953,-36.133,-30.762,10.742,0.000
1606143409.831,141.602,-29.297,-26.367,425.293,0.000
1606143409.835,54.199,-27.344,-23.926,250.977,0.000
1606143409.839,-148.438,-47.852,-35.645,-298.340,0.000
1606143409.842,-187.500,-18.555,-39.062,-477.051,0.000
1606143409.846,-28.809,7.812,-38.086,-76.660,0.000
1606143409.850,122.559,-14.648,-26.855,376.465,0.000
1606143409.854,69.824,-23.438,-27.344,296.387,0.000
1606143409.858,-130.371,-33.691,-40.039,-247.070,0.000
1606143409.862,-203.125,-32.715,-38.086,-506.348,0.000
1606143409.866,-63.965,-30.273,-32.715,-161.133,0.000
1606143409.870,113.770,-23.438,-22.949,345.703,0.000
1606143409.874,91.797,-26.855,-28.809,357.910,0.000
1606143409.878,-99.609,-40.527,-34.668,-163.574,0.000
1606143409.882,-186.035,-28.320,-33.691,-484.863,0.000
1606143409.885,-69.336,-20.996,-30.273,-205.566,0.000
1606143409.889,113.281,-31.738,-20.020,316.406,0.000
1606143409.893,114.746,-29.297,-23.438,385.742,0.000
1606143409.897,-83.008,-40.039,-36.621,-101.074,0.000
1606143409.901,-208.496,-42.480,-41.016,-488.770,0.000
1606143409.905,-103.027,-28.320,-32.227,-285.156,0.000
1606143409.909,100.586,-19.043,-23.926,273.438,0.000
1606143409.913,133.301,-20.020,-27.344,416.992,0.000
1606143409.917,-41.992,-25.879,-30.273,-33.691,0.000
1606143409.921,-187.500,-23.926,-33.203,-448.242,0.000
1606143409.924,-130.371,-2.441,-31.738,-321.289,0.000
1606143409.928,67.383,-2.441,-21.484,211.426,0.000
1606143409.932,125.000,-21.484,-22.949,427.734,0.000
1606143409.936,-35.645,-28.320,-33.203,31.250,0.000
1606143409.940,-191.406,-31.738,-34.180,-443.359,0.000
1606143409.944,-144.531,-32.227,-34.668,-396.484,0.000
1606143409.948,53.223,-30.762,-29.297,136.230,0.000
1606143409.952,135.742,-27.344,-19.531,433.594,0.000
1606143409.956,-10.254,-36.133,-22.461,107.910,0.000
1606143409.960,-189.453,-37.598,-35.645,-403.809,0.000
1606143409.964,-169.922,-28.809,-39.551,-424.805,0.000
1606143409.967,18.066,-31.250,-33.203,90.820,0.000
1606143409.971,124.512,-32.715,-27.832,435.547,0.000
1606143409.975,12.695,-39.062,-20.508,186.035,0.000
1606143409.979,-178.711,-47.363,-31.738,-349.121,0.000
1606143409.983,-192.871,-31.738,-41.504,-459.961,0.000
1606143409.987,-4.883,-27.832,-27.344,17.090,0.000
1606143409.991,128.418,-34.180,-29.297,413.574,0.000
1606143409.995,32.227,-36.621,-31.250,227.539,0.000
1606143409.999,-156.738,-37.109,-24.902,-310.059,0.000
1606143410.003,-194.336,-35.645,-35.156,-494.141,0.000
1606143410.007,-29.785,-41.992,-33.691,-77.148,0.000
1606143410.010,130.371,-31.250,-21.973,386.230,0.000
1606143410.014,73.730,-17.090,-23.438,297.852,0.000
1606143410.018,-122.559,-37.598,-22.461,-239.746,0.000
1606143410.022,-175.293,-17.578,-29.297,-477.051,0.000
1606143410.026,-23.926,25.391,-38.574,-116.211,0.000
1606143410.030,130.371,1.465,-33.691,360.840,0.000
1606143410.034,91.309,-17.090,-35.156,333.496,0.000
1606143410.038,-102.539,-24.902,-42.480,-194.824,0.000
1606143410.042,-187.988,-35.156,-46.875,-501.953,0.000
1606143410.046,-50.781,-29.785,-37.109,-190.430,0.000
1606143410.049,125.000,-26.855,-26.367,330.566,0.000
1606143410.053,110.840,-25.879,-30.762,382.324,0.000
1606143410.057,-76.172,-25.879,-30.762,-114.258,0.000
1606143410.061,-177.734,-15.625,-31.250,-462.891,0.000
1606143410.065,-71.289,-8.789,-38.086,-235.352,0.000
1606143410.069,120.117,-26.855,-37.598,289.551,0.000
1606143410.073,145.020,-26.855,-23.438,424.316,0.000
1606143410.077,-40.527,-29.297,-21.973,-33.203,0.000
1606143410.081,-182.129,-38.086,-39.551,-456.055,0.000
1606143410.085,-105.469,-36.133,-39.551,-313.477,0.000
1606143410.089,89.355,-28.320,-33.203,227.051,0.000
1606143410.092,147.461,-22.949,-28.320,439.453,0.000
1606143410.096,-20.020,-29.785,-33.691,30.273,0.000
1606143410.100,-185.059,-34.668,-42.480,-442.871,0.000
1606143410.104,-129.395,-32.227,-36.621,-370.605,0.000
1606143410.108,75.684,-22.461,-29.785,179.688,0.000
1606143410.112,150.391,-14.160,-22.949,447.754,0.000
1606143410.116,4.883,-26.367,-17.578,101.074,0.000
1606143410.120,-156.250,-37.109,-23.926,-397.461,0.000
1606143410.124,-131.348,-20.020,-34.668,-412.109,0.000
1606143410.128,58.105,-10.742,-36.621,109.863,0.000
1606143410.132,156.738,-19.531,-29.297,442.383,0.000
1606143410.135,31.738,-27.344,-28.809,170.410,0.000
1606143410.139,-152.832,-33.203,-32.715,-348.145,0.000
1606143410.143,-154.297,-32.715,-27.832,-433.105,0.000
1606143410.147,34.180,-25.391,-25.391,51.270,0.000
1606143410.151,155.273,-20.996,-19.531,439.941,0.000
1606143410.155,60.547,-22.461,-18.555,237.793,0.000
1606143410.159,-140.137,-34.668,-28.809,-314.453,0.000
1606143410.163,-184.082,-20.996,-33.691,-479.980,0.000
1606143410.167,-9.766,-11.230,-32.227,-36.133,0.000
1606143410.171,139.160,-23.438,-20.996,404.297,0.000
1606143410.174,67.383,-21.973,-21.484,280.273,0.000
1606143410.178,-136.230,-34.180,-37.598,-269.531,0.000
1606143410.182,-194.336,-41.016,-39.062,-503.906,0.000
1606143410.186,-27.344,-26.855,-25.391,-111.328,0.000
1606143410.190,145.020,-18.555,-21.973,375.977,0.000
1606143410.194,104.492,-21.484,-28.320,329.590,0.000
1606143410.198,-100.586,-28.809,-30.762,-205.566,0.000
1606143410.202,-186.523,-27.832,-31.738,-489.258,0.000
1606143410.206,-54.199,-19.531,-36.133,-171.875,0.000
1606143410.210,118.652,-28.320,-23.926,326.172,0.000
1606143410.214,101.074,-30.762,-24.902,356.445,0.000
1606143410.217,-97.168,-35.645,-41.992,-152.832,0.000
1606143410.221,-203.613,-41.992,-39.062,-498.047,0.000
1606143410.225,-86.914,-43.457,-32.715,-244.629,0.000
1606143410.229,104.492,-38.574,-23.926,285.156,0.000
1606143410.233,125.977,-30.762,-20.020,415.039,0.000
1606143410.237,-55.664,-33.203,-23.438,-43.945,0.000
1606143410.241,-188.477,-35.156,-27.832,-464.844,0.000
1606143410.245,-94.238,-28.809,-33.203,-296.387,0.000
1606143410.249,111.328,-17.578,-25.391,254.395,0.000
1606143410.253,147.949,-15.137,-19.531,436.035,0.000
1606143410.257,-32.227,-33.203,-30.273,8.789,0.000
1606143410.260,-187.012,-31.738,-30.762,-444.824,0.000
1606143410.264,-124.512,-10.254,-28.320,-351.074,0.000
1606143410.268,70.312,-22.461,-24.902,192.383,0.000
1606143410.272,133.789,-28.320,-20.020,438.477,0.000
1606143410.276,-18.066,-28.809,-25.391,68.848,0.000
1606143410.280,-187.988,-34.668,-21.973,-416.992,0.000
1606143410.284,-152.832,-18.555,-23.438,-402.832,0.000
1606143410.288,52.734,-20.508,-29.785,115.234,0.000
1606143410.292,146.484,-28.320,-17.578,444.336,0.000
1606143410.296,2.441,-29.297,-14.648,149.414,0.000
1606143410.299,-187.988,-38.086,-22.949,-381.348,0.000
1606143410.303,-183.105,-7.324,-23.438,-451.660,0.000
1606143410.307,1.953,11.719,-21.973,32.715,0.000
1606143410.311,122.070,-22.461,-12.207,416.992,0.000
1606143410.315,20.996,-42.480,-13.672,203.125,0.000
1606143410.319,-174.316,-50.781,-24.414,-341.309,0.000
1606143410.323,-190.430,-43.945,-22.461,-474.609,0.000
1606143410.327,2.930,-35.645,-11.230,-7.324,0.000
1606143410.331,142.578,-29.297,-8.789,416.504,0.000
1606143410.335,56.152,-25.879,-13.672,271.484,0.000
1606143410.339,-139.160,-38.086,-20.996,-266.602,0.000
1606143410.342,-188.965,-25.391,-32.715,-480.957,0.000
1606143410.346,-36.133,-17.090,-26.855,-88.379,0.000
1606143410.350,121.094,-40.039,-14.160,383.301,0.000
1606143410.354,76.660,-43.457,-18.555,323.242,0.000
1606143410.358,-126.953,-41.992,-23.926,-214.844,0.000
1606143410.362,-209.961,-41.504,-22.949,-499.023,0.000
1606143410.366,-62.988,-34.668,-24.414,-163.574,0.000
1606143410.370,117.676,-25.879,-22.461,340.332,0.000
1606143410.374,96.191,-25.879,-21.484,356.934,0.000
1606143410.378,-98.145,-39.551,-25.879,-162.598,0.000
1606143410.382,-199.707,-44.922,-34.668,-500.977,0.000
1606143410.385,-83.008,-40.527,-33.691,-232.910,0.000
1606143410.389,106.445,-29.297,-22.949,292.480,0.000
1606143410.393,111.328,-26.855,-28.320,378.906,0.000
1606143410.397,-78.613,-36.621,-26.855,-109.375,0.000
1606143410.401,-207.031,-30.762,-30.762,-506.348,0.000
1606143410.405,-120.605,5.371,-39.551,-316.895,0.000
1606143410.409,80.078,4.883,-26.855,235.352,0.000
1606143410.413,120.605,-25.391,-25.391,404.785,0.000
1606143410.417,-62.012,-47.852,-35.645,-38.574,0.000
1606143410.421,-209.473,-55.664,-37.598,-480.957,0.000
1606143410.424,-136.230,-45.410,-35.645,-360.352,0.000
1606143410.428,67.871,-33.203,-28.320,190.430,0.000
1606143410.432,129.883,-20.020,-24.902,433.105,0.000
1606143410.436,-28.320,-24.902,-28.320,60.059,0.000
1606143410.440,-193.848,-30.273,-30.762,-428.223,0.000
1606143410.444,-154.297,-15.625,-28.809,-394.043,0.000
1606143410.448,49.805,-16.113,-24.902,134.766,0.000
1606143410.452,140.625,-23.926,-26.855,433.105,0.000
1606143410.456,0.000,-33.203,-28.809,125.000,0.000
1606143410.460,-178.711,-39.551,-32.227,-386.719,0.000
1606143410.464,-167.969,-41.016,-34.668,-437.500,0.000
1606143410.467,31.250,-30.273,-23.438,73.730,0.000
1606143410.471,141.602,-20.996,-15.625,436.523,0.000
1606143410.475,13.672,-30.762,-23.926,175.781,0.000
1606143410.479,-175.781,-42.969,-36.621,-350.586,0.000
1606143410.483,-186.035,-18.066,-47.363,-453.613,0.000
1606143410.487,-4.395,3.418,-39.551,-0.488,0.000
1606143410.491,133.301,-19.531,-28.320,406.738,0.000
1606143410.495,44.434,-39.062,-30.273,243.652,0.000
1606143410.499,-152.344,-44.434,-39.551,-303.223,0.000
1606143410.503,-191.406,-40.039,-42.969,-493.164,0.000
1606143410.507,-27.832,-47.852,-39.551,-82.520,0.000
1606143410.510,128.418,-40.527,-34.668,377.930,0.000
1606143410.514,72.266,-29.785,-33.691,296.387,0.000
1606143410.518,-128.906,-36.133,-31.738,-243.652,0.000
1606143410.522,-197.754,-36.133,-25.879,-496.094,0.000
1606143410.526,-53.223,-29.297,-23.438,-137.695,0.000
1606143410.530,122.559,-29.297,-22.949,363.281,0.000
1606143410.534,107.422,-39.062,-30.273,369.141,0.000
1606143410.538,-99.609,-50.293,-34.180,-152.344,0.000
1606143410.542,-215.332,-33.203,-40.527,-502.441,0.000
1606143410.546,-87.402,-16.602,-48.828,-236.328,0.000
1606143410.549,122.559,-20.020,-32.715,311.035,0.000
1606143410.553,135.254,-18.066,-29.785,399.414,0.000
1606143410.557,-62.988,-22.949,-40.527,-94.238,0.000
1606143410.561,-187.500,-28.320,-46.387,-472.656,0.000
1606143410.565,-78.125,-30.273,-43.457,-259.277,0.000
1606143410.569,107.910,-28.320,-29.785,272.461,0.000
1606143410.573,122.559,-21.484,-26.855,417.969,0.000
1606143410.577,-56.152,-33.691,-36.133,-16.602,0.000
1606143410.581,-205.566,-37.109,-36.621,-461.426,0.000
1606143410.585,-133.301,16.113,-41.504,-340.332,0.000
1606143410.589,72.754,14.648,-40.039,208.984,0.000
1606143410.592,133.301,-29.297,-24.902,434.570,0.000
1606143410.596,-28.809,-35.645,-33.203,40.039,0.000
1606143410.600,-191.406,-43.457,-44.922,-442.871,0.000
1606143410.604,-144.531,-38.574,-38.574,-379.395,0.000
1606143410.608,64.941,-25.879,-24.902,169.922,0.000
1606143410.612,145.508,-24.414,-26.367,449.707,0.000
1606143410.616,-1.465,-30.273,-31.250,118.652,0.000
1606143410.620,-177.246,-29.297,-29.297,-388.184,0.000
1606143410.624,-151.855,-7.324,-31.250,-417.480,0.000
1606143410.628,41.504,-9.277,-26.367,97.168,0.000
1606143410.632,143.066,-29.785,-21.484,440.918,0.000
1606143410.635,27.344,-38.574,-25.879,175.293,0.000
1606143410.639,-150.879,-46.387,-36.621,-350.586,0.000
1606143410.643,-161.621,-43.457,-39.062,-453.613,0.000
1606143410.647,7.324,-32.715,-29.297,29.297,0.000
1606143410.651,135.254,-26.855,-25.391,425.293,0.000
1606143410.655,41.992,-26.855,-26.855,226.074,0.000
1606143410.659,-157.227,-31.738,-27.832,-315.918,0.000
1606143410.663,-195.801,-35.645,-32.227,-477.051,0.000
1606143410.667,-22.461,-38.086,-27.832,-49.316,0.000
1606143410.671,141.602,-27.832,-26.367,388.672,0.000
1606143410.674,74.707,-20.508,-29.785,299.316,0.000
1606143410.678,-138.184,-41.016,-38.574,-251.465,0.000
1606143410.682,-201.660,-19.531,-45.898,-525.391,0.000
1606143410.686,-45.410,15.137,-36.621,-142.578,0.000
1606143410.690,126.953,-13.184,-20.020,360.352,0.000
1606143410.694,82.031,-34.180,-20.020,331.055,0.000
1606143410.698,-132.812,-42.480,-35.645,-208.008,0.000
1606143410.702,-214.844,-39.062,-41.992,-513.672,0.000
1606143410.706,-67.383,-30.273,-24.902,-196.289,0.000
1606143410.710,106.445,-33.691,-19.043,320.801,0.000
1606143410.714,94.238,-34.180,-27.832,375.000,0.000
1606143410.717,-90.820,-43.457,-34.180,-128.906,0.000
1606143410.721,-208.496,-23.926,-38.574,-501.465,0.000
1606143410.725,-102.539,-1.953,-32.715,-265.625,0.000
1606143410.729,84.961,-31.738,-31.738,262.207,0.000
1606143410.733,106.934,-33.691,-27.344,391.602,0.000
1606143410.737,-68.848,-36.133,-29.297,-64.941,0.000
1606143410.741,-201.660,-40.039,-30.762,-485.840,0.000
1606143410.745,-116.211,-33.691,-20.996,-325.195,0.000
1606143410.749,84.473,-33.691,-15.137,232.422,0.000
1606143410.753,128.906,-29.785,-17.578,431.152,0.000
1606143410.757,-37.598,-35.156,-30.762,14.160,0.000
1606143410.760,-191.895,-30.762,-33.691,-440.430,0.000
1606143410.764,-137.695,0.000,-32.715,-361.816,0.000
1606143410.768,58.105,-14.160,-27.832,169.434,0.000
1606143410.772,133.301,-29.785,-22.461,432.617,0.000
1606143410.776,-7.812,-29.785,-29.785,86.426,0.000
1606143410.780,-181.152,-28.809,-39.551,-413.574,0.000
1606143410.784,-161.133,-6.836,-35.645,-425.293,0.000
1606143410.788,36.621,-17.578,-20.020,92.773,0.000
1606143410.792,129.883,-41.016,-21.484,420.410,0.000
1606143410.796,4.395,-33.691,-30.273,151.855,0.000
1606143410.799,-180.664,-36.133,-38.086,-372.070,0.000
1606143410.803,-187.012,-41.504,-33.691,-461.914,0.000
1606143410.807,0.000,-41.504,-28.320,30.273,0.000
1606143410.811,126.465,-35.645,-23.926,422.363,0.000
1606143410.815,23.926,-30.762,-28.809,214.844,0.000
1606143410.819,-171.875,-41.016,-38.574,-332.031,0.000
1606143410.823,-198.242,-38.574,-35.645,-488.281,0.000
1606143410.827,-18.066,-26.367,-19.531,-26.855,0.000
1606143410.831,136.230,-25.879,-13.184,413.574,0.000
1606143410.835,70.312,-25.391,-18.555,282.715,0.000
1606143410.839,-130.371,-29.785,-25.879,-263.672,0.000
1606143410.842,-194.824,-31.738,-32.227,-498.047,0.000
1606143410.846,-41.504,-23.926,-27.344,-113.281,0.000
1606143410.850,124.512,-19.043,-16.113,373.047,0.000
1606143410.854,85.938,-20.508,-16.113,331.543,0.000
1606143410.858,-108.398,-35.156,-22.461,-200.195,0.000
1606143410.862,-192.871,-15.625,-32.715,-492.676,0.000
1606143410.866,-60.547,9.766,-29.297,-181.152,0.000
1606143410.870,119.141,-15.625,-10.742,327.148,0.000
1606143410.874,100.098,-34.668,-13.672,362.305,0.000
1606143410.878,-99.609,-42.969,-27.832,-141.113,0.000
1606143410.882,-205.566,-42.969,-24.902,-487.305,0.000
1606143410.885,-94.238,-41.992,-27.344,-251.465,0.000
1606143410.889,94.238,-40.527,-21.973,277.344,0.000
1606143410.893,104.980,-39.062,-18.066,395.508,0.000
1606143410.897,-77.637,-49.316,-32.227,-79.102,0.000
1606143410.901,-196.777,-39.062,-29.785,-472.656,0.000
1606143410.905,-105.957,-15.625,-23.926,-284.180,0.000
1606143410.909,86.426,-28.320,-17.090,252.441,0.000
1606143410.913,114.258,-44.922,-23.926,418.457,0.000
1606143410.917,-62.988,-52.246,-38.574,-15.625,0.000
1606143410.921,-206.055,-55.176,-39.062,-462.402,0.000
1606143410.924,-132.324,-47.852,-29.785,-356.445,0.000
1606143410.928,59.570,-44.922,-21.973,175.293,0.000
1606143410.932,114.746,-41.504,-20.508,418.457,0.000
1606143410.936,-31.738,-41.992,-21.973,62.988,0.000
1606143410.940,-200.195,-49.805,-29.785,-426.758,0.000
1606143410.944,-155.762,-55.176,-32.715,-396.484,0.000
1606143410.948,46.875,-42.969,-28.809,130.371,0.000
1606143410.952,120.605,-24.414,-24.414,410.156,0.000
1606143410.956,-16.113,-25.391,-20.508,101.562,0.000
1606143410.960,-205.566,-44.922,-27.344,-412.598,0.000
1606143410.964,-216.797,12.695,-29.785,-478.516,0.000
1606143410.967,-28.809,45.410,-23.926,21.484,0.000
1606143410.971,98.145,-22.461,-15.625,404.297,0.000
1606143410.975,-12.695,-42.480,-16.113,177.246,0.000
1606143410.979,-211.426,-51.758,-25.879,-356.445,0.000
1606143410.983,-221.191,-47.363,-31.738,-477.051,0.000
1606143410.987,-22.949,-33.203,-24.414,-17.578,0.000
1606143410.991,124.023,-28.320,-14.648,405.273,0.000
1606143410.995,50.781,-30.273,-23.438,256.348,0.000
1606143410.999,-136.719,-38.086,-30.762,-280.762,0.000
1606143411.003,-182.129,-38.086,-35.156,-488.770,0.000
1606143411.007,-20.508,-36.621,-30.762,-95.215,0.000
1606143411.010,139.648,-37.598,-11.719,381.348,0.000
1606143411.014,86.914,-39.062,-20.020,321.289,0.000
1606143411.018,-114.746,-48.828,-31.738,-214.844,0.000
1606143411.022,-185.059,-43.457,-29.297,-487.793,0.000
1606143411.026,-41.504,-30.273,-24.902,-148.438,0.000
1606143411.030,126.953,-28.809,-18.066,354.492,0.000
1606143411.034,106.445,-29.297,-16.113,358.887,0.000
1606143411.038,-91.309,-37.598,-17.090,-168.457,0.000
1606143411.042,-191.895,-38.086,-25.391,-502.441,0.000
1606143411.046,-70.801,-30.762,-25.879,-221.191,0.000
1606143411.049,102.539,-27.344,-17.090,298.828,0.000
1606143411.053,109.375,-23.926,-9.277,388.184,0.000
1606143411.057,-78.613,-39.062,-13.184,-89.844,0.000
1606143411.061,-210.938,-39.551,-27.832,-487.305,0.000
1606143411.065,-118.652,-26.855,-28.320,-287.598,0.000
1606143411.069,73.242,-29.785,-17.090,259.277,0.000
1606143411.073,107.910,-28.320,-15.137,414.062,0.000
1606143411.077,-73.242,-38.086,-21.973,-28.809,0.000
1606143411.081,-223.145,-48.340,-32.227,-467.285,0.000
1606143411.085,-150.879,-44.922,-37.109,-352.539,0.000
1606143411.089,57.129,-34.668,-22.461,200.684,0.000
1606143411.092,122.070,-27.344,-11.719,438.965,0.000
1606143411.096,-35.645,-34.668,-17.090,44.922,0.000
1606143411.100,-193.848,-39.551,-27.344,-435.547,0.000
1606143411.104,-153.320,-28.320,-35.156,-397.949,0.000
1606143411.108,48.340,-28.809,-29.785,132.812,0.000
1606143411.112,130.371,-37.109,-23.926,430.176,0.000
1606143411.116,-5.859,-41.992,-25.879,119.629,0.000
1606143411.120,-182.129,-43.457,-32.227,-397.949,0.000
1606143411.124,-168.457,-33.203,-31.738,-437.988,0.000
1606143411.128,26.855,-24.902,-24.902,83.496,0.000
1606143411.132,129.395,-23.926,-25.879,429.688,0.000
1606143411.135,21.973,-20.996,-31.250,179.688,0.000
1606143411.139,-156.250,-31.250,-33.203,-335.449,0.000
1606143411.143,-174.805,-5.859,-39.062,-456.055,0.000
1606143411.147,3.418,15.625,-37.598,-3.906,0.000
1606143411.151,138.672,-21.484,-24.902,406.250,0.000
1606143411.155,44.434,-34.180,-22.949,239.746,0.000
1606143411.159,-153.809,-34.668,-38.574,-298.828,0.000
1606143411.163,-186.035,-33.203,-46.387,-484.375,0.000
1606143411.167,-5.371,-26.855,-31.738,-62.988,0.000
1606143411.171,137.207,-26.367,-19.531,391.602,0.000
1606143411.174,54.688,-32.227,-17.578,295.898,0.000
1606143411.178,-148.438,-41.504,-20.996,-245.117,0.000
1606143411.182,-210.938,-43.945,-25.391,-497.070,0.000
1606143411.186,-69.336,-35.645,-25.391,-136.719,0.000
1606143411.190,94.238,-28.809,-22.461,349.121,0.000
1606143411.194,66.895,-31.250,-20.996,332.031,0.000
1606143411.198,-120.605,-33.691,-21.973,-189.941,0.000
1606143411.202,-201.660,-20.996,-24.414,-493.652,0.000
1606143411.206,-59.570,-18.555,-22.949,-200.195,0.000
1606143411.210,129.395,-24.414,-15.625,323.242,0.000
1606143411.214,121.094,-32.715,-17.578,398.438,0.000
1606143411.217,-70.801,-41.016,-27.344,-101.074,0.000
1606143411.221,-195.801,-30.762,-35.156,-486.816,0.000
1606143411.225,-91.309,-29.297,-33.691,-275.391,0.000
1606143411.229,107.910,-26.367,-19.531,266.113,0.000
1606143411.233,131.836,-20.508,-13.672,409.668,0.000
1606143411.237,-52.734,-39.062,-30.273,-36.133,0.000
1606143411.241,-194.824,-37.109,-43.945,-464.844,0.000
1606143411.245,-122.070,8.301,-34.668,-338.379,0.000
1606143411.249,79.590,4.883,-24.902,208.496,0.000
1606143411.253,129.395,-31.250,-26.367,428.711,0.000
1606143411.257,-34.668,-41.504,-31.738,35.156,0.000
1606143411.260,-193.848,-39.062,-41.992,-445.801,0.000
1606143411.264,-154.297,-27.344,-38.086,-390.137,0.000
1606143411.268,49.316,-22.461,-23.926,151.855,0.000
1606143411.272,123.535,-24.902,-24.902,428.711,0.000
1606143411.276,-19.531,-29.297,-27.344,97.656,0.000
1606143411.280,-187.988,-31.738,-29.297,-398.926,0.000
1606143411.284,-185.059,-18.066,-30.762,-424.316,0.000
1606143411.288,14.160,-21.973,-24.902,85.938,0.000
1606143411.292,132.324,-34.180,-19.531,425.781,0.000
1606143411.296,5.371,-36.133,-19.531,164.551,0.000
1606143411.299,-177.734,-43.945,-31.250,-359.863,0.000
1606143411.303,-169.434,-36.133,-33.203,-454.102,0.000
1606143411.307,14.160,-26.855,-25.391,23.926,0.000
1606143411.311,142.090,-22.949,-16.113,420.898,0.000
1606143411.315,47.852,-24.414,-12.695,226.562,0.000
1606143411.319,-156.738,-36.133,-22.949,-312.988,0.000
1606143411.323,-187.500,-36.133,-27.344,-463.379,0.000
1606143411.327,2.441,-22.949,-22.949,-26.855,0.000
1606143411.331,142.578,-25.879,-20.020,397.461,0.000
1606143411.335,65.430,-29.297,-16.602,285.156,0.000
1606143411.339,-132.812,-31.738,-18.555,-251.465,0.000
1606143411.342,-196.777,-21.484,-39.062,-499.023,0.000
1606143411.346,-47.363,-13.184,-45.410,-128.418,0.000
1606143411.350,117.188,-23.438,-28.809,354.980,0.000
1606143411.354,73.730,-29.785,-20.508,322.266,0.000
1606143411.358,-131.348,-39.062,-25.879,-207.031,0.000
1606143411.362,-211.914,-41.992,-35.645,-499.512,0.000
1606143411.366,-75.684,-38.086,-30.762,-180.664,0.000
1606143411.370,110.840,-22.461,-14.648,343.262,0.000
1606143411.374,113.770,-16.113,-11.230,405.762,0.000
1606143411.378,-88.379,-28.320,-22.461,-98.145,0.000
1606143411.382,-214.355,-29.785,-33.691,-479.492,0.000
1606143411.385,-109.863,-19.043,-41.504,-260.254,0.000
1606143411.389,85.449,-8.789,-31.738,282.715,0.000
1606143411.393,107.422,-10.742,-24.414,405.273,0.000
1606143411.397,-83.984,-20.508,-33.691,-66.406,0.000
1606143411.401,-222.168,-27.344,-45.898,-484.863,0.000
1606143411.405,-134.277,-29.785,-40.039,-323.730,0.000
1606143411.409,76.172,-19.531,-31.250,226.562,0.000
1606143411.413,128.418,-13.672,-29.785,423.828,0.000
1606143411.417,-43.945,-13.672,-32.715,13.184,0.000
1606143411.421,-182.617,-13.672,-28.809,-433.594,0.000
1606143411.424,-123.047,-4.395,-33.691,-351.562,0.000
1606143411.428,62.988,-3.418,-36.621,175.781,0.000
1606143411.432,135.742,-8.301,-24.902,425.293,0.000
1606143411.436,-15.137,-11.719,-29.785,73.242,0.000
1606143411.440,-187.012,-18.066,-40.039,-415.039,0.000
1606143411.444,-160.645,-19.531,-44.434,-418.457,0.000
1606143411.448,37.598,-15.137,-37.109,103.516,0.000
1606143411.452,133.301,-13.184,-26.367,434.570,0.000
1606143411.456,3.418,-20.996,-28.809,141.113,0.000
1606143411.460,-180.176,-30.273,-31.250,-380.859,0.000
1606143411.464,-176.270,-23.438,-30.762,-440.918,0.000
1606143411.467,15.625,-11.719,-28.809,58.594,0.000
1606143411.471,127.930,-18.066,-25.879,424.805,0.000
1606143411.475,16.113,-25.879,-28.320,197.754,0.000
1606143411.479,-173.340,-32.227,-24.414,-333.984,0.000
1606143411.483,-196.289,-32.227,-27.832,-467.285,0.000
1606143411.487,-20.020,-24.414,-31.738,-29.785,0.000
1606143411.491,120.605,-20.020,-21.973,390.625,0.000
1606143411.495,41.992,-22.949,-20.996,253.418,0.000
1606143411.499,-152.344,-23.438,-32.227,-292.480,0.000
1606143411.503,-192.871,-20.508,-38.086,-497.070,0.000
1606143411.507,-26.367,-16.113,-33.203,-92.773,0.000
1606143411.510,141.113,-9.766,-21.484,393.066,0.000
1606143411.514,98.633,-4.883,-25.879,338.379,0.000
1606143411.518,-112.793,-19.043,-37.109,-218.750,0.000
1606143411.522,-203.125,-6.348,-39.551,-518.555,0.000
1606143411.526,-62.500,19.531,-30.273,-175.781,0.000
1606143411.530,118.164,0.000,-20.508,345.215,0.000
1606143411.534,99.609,-11.719,-33.203,355.469,0.000
1606143411.538,-89.844,-20.996,-41.504,-161.621,0.000
1606143411.542,-200.195,-15.625,-43.945,-505.859,0.000
1606143411.546,-86.914,-7.324,-38.574,-240.234,0.000
1606143411.549,112.305,-12.207,-23.926,298.340,0.000
1606143411.553,120.605,-8.301,-23.438,392.578,0.000
1606143411.557,-67.383,-18.555,-21.973,-83.984,0.000
1606143411.561,-190.918,-23.926,-26.367,-475.098,0.000
1606143411.565,-101.562,-18.555,-36.133,-295.410,0.000
1606143411.569,98.633,-19.531,-27.832,239.258,0.000
1606143411.573,147.461,-12.695,-26.367,421.875,0.000
1606143411.577,-22.461,-19.043,-27.344,2.930,0.000
1606143411.581,-186.035,-34.668,-27.344,-457.031,0.000
1606143411.585,-131.836,-32.227,-28.809,-355.469,0.000
1606143411.589,70.312,-19.531,-22.461,193.848,0.000
1606143411.592,125.977,-20.996,-16.602,422.852,0.000
1606143411.596,-36.621,-34.668,-24.414,41.504,0.000
1606143411.600,-194.336,-38.086,-31.738,-439.941,0.000
1606143411.604,-154.297,-28.809,-27.832,-406.738,0.000
1606143411.608,56.641,-21.484,-19.531,128.418,0.000
1606143411.612,140.625,-24.414,-18.066,423.340,0.000
1606143411.616,-10.742,-32.715,-17.090,98.145,0.000
1606143411.620,-187.500,-35.645,-22.949,-407.227,0.000
1606143411.624,-182.617,-34.180,-28.320,-444.824,0.000
1606143411.628,6.348,-31.250,-19.531,47.852,0.000
1606143411.632,116.211,-31.738,-19.043,413.086,0.000
1606143411.635,11.719,-29.297,-20.020,184.082,0.000
1606143411.639,-163.086,-27.832,-19.531,-335.449,0.000
1606143411.643,-175.781,-29.785,-27.832,-447.266,0.000
1606143411.647,6.836,-22.949,-19.531,8.301,0.000
1606143411.651,140.625,-14.648,-11.230,415.039,0.000
1606143411.655,54.199,-20.508,-20.508,258.301,0.000
1606143411.659,-143.066,-34.180,-22.461,-290.039,0.000
1606143411.663,-198.242,-31.738,-29.785,-490.723,0.000
1606143411.667,-39.551,-24.902,-33.691,-82.520,0.000
1606143411.671,122.070,-24.902,-23.438,383.301,0.000
1606143411.674,69.336,-28.809,-22.461,304.688,0.000
1606143411.678,-129.395,-35.645,-27.832,-240.234,0.000
1606143411.682,-203.125,-31.738,-30.762,-507.324,0.000
1606143411.686,-54.688,-24.414,-23.926,-156.738,0.000
1606143411.690,121.582,-26.855,-15.625,352.539,0.000
1606143411.694,93.262,-29.297,-20.996,350.098,0.000
1606143411.698,-106.445,-38.574,-27.832,-177.246,0.000
1606143411.702,-202.148,-27.832,-32.227,-488.281,0.000
1606143411.706,-81.543,-5.371,-32.715,-208.008,0.000
1606143411.710,104.492,-15.625,-18.555,305.176,0.000
1606143411.714,104.980,-24.414,-10.742,381.836,0.000
1606143411.717,-80.566,-34.668,-26.367,-104.004,0.000
1606143411.721,-201.660,-39.062,-39.551,-489.258,0.000
1606143411.725,-107.910,-32.227,-31.738,-277.832,0.000
1606143411.729,89.844,-28.809,-22.949,262.695,0.000
1606143411.733,114.258,-32.715,-22.949,406.738,0.000
1606143411.737,-63.965,-34.668,-23.926,-32.715,0.000
1606143411.741,-204.102,-32.715,-35.645,-460.938,0.000
1606143411.745,-125.977,-32.227,-37.109,-323.730,0.000
1606143411.749,80.566,-23.926,-32.715,227.539,0.000
1606143411.753,131.836,-20.508,-32.227,430.664,0.000
1606143411.757,-28.320,-28.809,-32.715,32.227,0.000
1606143411.760,-175.781,-26.855,-36.621,-427.734,0.000
1606143411.764,-127.930,-14.648,-35.156,-369.141,0.000
1606143411.768,69.824,-12.695,-22.949,158.691,0.000
1606143411.772,156.250,-12.695,-13.672,437.012,0.000
1606143411.776,14.648,-13.672,-16.113,104.492,0.000
1606143411.780,-166.992,-19.531,-27.832,-399.902,0.000
1606143411.784,-150.391,-23.926,-35.156,-431.641,0.000
1606143411.788,49.805,-21.484,-26.855,76.660,0.000
1606143411.792,151.367,-23.926,-24.414,424.805,0.000
1606143411.796,29.785,-22.461,-29.785,168.945,0.000
1606143411.799,-155.273,-18.555,-31.250,-360.352,0.000
1606143411.803,-180.664,-22.949,-38.086,-467.773,0.000
1606143411.807,-4.883,-18.555,-31.250,-0.488,0.000
1606143411.811,133.789,-12.695,-13.184,414.062,0.000
1606143411.815,46.875,-15.625,-20.996,214.355,0.000
1606143411.819,-151.855,-29.785,-30.762,-334.473,0.000
1606143411.823,-195.801,-35.645,-32.227,-474.121,0.000
1606143411.827,-24.902,-28.320,-26.855,-51.270,0.000
1606143411.831,126.953,-27.344,-19.531,392.578,0.000
1606143411.835,51.758,-35.156,-26.367,284.668,0.000
1606143411.839,-150.879,-36.621,-32.227,-250.000,0.000
1606143411.842,-207.520,-31.738,-42.969,-488.770,0.000
1606143411.846,-55.176,-25.391,-35.645,-137.207,0.000
1606143411.850,107.422,-21.484,-23.926,345.215,0.000
1606143411.854,67.871,-22.461,-29.297,320.312,0.000
1606143411.858,-128.906,-29.297,-28.809,-205.078,0.000
1606143411.862,-215.820,-34.180,-28.320,-504.883,0.000
1606143411.866,-81.055,-28.809,-23.438,-196.777,0.000
1606143411.870,97.656,-24.414,-13.672,312.988,0.000
1606143411.874,83.008,-27.344,-19.531,361.816,0.000
1606143411.878,-110.840,-31.738,-27.832,-136.230,0.000
1606143411.882,-212.402,-35.156,-29.785,-500.977,0.000
1606143411.885,-96.191,-24.902,-28.320,-271.973,0.000
1606143411.889,93.750,-15.137,-16.113,268.066,0.000
1606143411.893,113.770,-17.090,-11.230,399.902,0.000
1606143411.897,-71.777,-25.391,-20.508,-68.359,0.000
1606143411.901,-211.914,-31.738,-30.273,-492.188,0.000
1606143411.905,-130.859,-32.715,-33.203,-330.566,0.000
1606143411.909,71.777,-26.855,-22.949,219.727,0.000
1606143411.913,124.023,-20.020,-22.461,418.945,0.000
1606143411.917,-42.480,-28.809,-28.320,11.230,0.000
1606143411.921,-196.777,-36.621,-33.691,-445.801,0.000
1606143411.924,-141.602,-38.086,-31.738,-364.746,0.000
1606143411.928,65.430,-31.250,-18.555,178.711,0.000
1606143411.932,153.809,-20.020,-23.438,451.172,0.000
1606143411.936,2.441,-23.926,-31.250,105.957,0.000
1606143411.940,-187.500,-39.062,-25.391,-400.879,0.000
1606143411.944,-175.293,-42.480,-23.926,-427.246,0.000
1606143411.948,19.531,-35.156,-24.414,89.355,0.000
1606143411.952,135.742,-24.414,-13.672,439.453,0.000
1606143411.956,18.555,-24.902,-13.672,165.527,0.000
1606143411.960,-172.363,-29.785,-22.949,-364.746,0.000
1606143411.964,-174.805,-31.738,-22.949,-451.172,0.000
1606143411.967,18.066,-25.879,-13.672,38.086,0.000
1606143411.971,145.996,-16.113,-6.348,440.918,0.000
1606143411.975,39.062,-20.508,-13.184,221.680,0.000
1606143411.979,-165.039,-31.250,-21.973,-331.543,0.000
1606143411.983,-198.242,-28.809,-29.785,-474.121,0.000
1606143411.987,-25.879,-22.461,-24.902,-42.969,0.000
1606143411.991,121.582,-25.879,-15.137,394.043,0.000
1606143411.995,56.641,-28.809,-16.113,279.785,0.000
1606143411.999,-135.254,-26.367,-25.879,-257.812,0.000
1606143412.003,-193.848,-26.855,-30.762,-487.793,0.000
1606143412.007,-42.969,-29.297,-26.855,-106.445,0.000
1606143412.010,115.234,-22.461,-22.949,374.023,0.000
1606143412.014,75.195,-24.414,-21.973,324.219,0.000
1606143412.018,-122.070,-41.504,-30.762,-217.285,0.000
1606143412.022,-205.078,-46.387,-28.809,-507.324,0.000
1606143412.026,-62.988,-35.645,-23.438,-171.387,0.000
1606143412.030,119.629,-26.855,-24.902,343.750,0.000
1606143412.034,100.586,-26.855,-23.926,360.840,0.000
1606143412.038,-91.309,-37.109,-30.762,-153.320,0.000
1606143412.042,-191.895,-39.062,-35.156,-496.094,0.000
1606143412.046,-89.355,-30.273,-25.391,-234.863,0.000
1606143412.049,91.797,-24.414,-16.602,286.621,0.000
1606143412.053,111.328,-28.809,-22.949,372.559,0.000
1606143412.057,-73.242,-38.574,-22.949,-81.055,0.000
1606143412.061,-211.426,-42.480,-23.438,-469.727,0.000
1606143412.065,-122.070,-39.062,-25.391,-303.711,0.000
1606143412.069,75.684,-35.645,-20.996,227.539,0.000
1606143412.073,114.258,-34.668,-23.438,396.484,0.000
1606143412.077,-52.246,-31.738,-26.855,-7.324,0.000
1606143412.081,-202.148,-36.133,-34.180,-455.078,0.000
1606143412.085,-143.066,-34.180,-39.551,-375.000,0.000
1606143412.089,54.688,-30.762,-29.297,177.734,0.000
1606143412.092,128.418,-23.926,-20.508,441.895,0.000
1606143412.096,-19.043,-25.391,-28.320,63.477,0.000
1606143412.100,-184.082,-36.621,-35.645,-426.270,0.000
1606143412.104,-146.973,-30.762,-29.785,-404.785,0.000
1606143412.108,51.270,-25.879,-17.578,141.113,0.000
1606143412.112,143.555,-23.438,-14.648,456.543,0.000
1606143412.116,6.348,-20.508,-20.508,145.020,0.000
1606143412.120,-177.246,-25.879,-33.203,-374.023,0.000
1606143412.124,-172.363,-14.648,-40.039,-428.223,0.000
1606143412.128,19.043,-15.625,-34.180,59.082,0.000
1606143412.132,137.695,-24.414,-31.250,416.992,0.000
1606143412.135,27.832,-27.344,-32.715,198.730,0.000
1606143412.139,-160.645,-37.598,-31.738,-334.961,0.000
1606143412.143,-173.828,-34.180,-27.832,-466.309,0.000
1606143412.147,9.766,-29.297,-23.438,-9.277,0.000
1606143412.151,143.555,-28.809,-17.578,406.738,0.000
1606143412.155,58.594,-28.809,-20.020,260.254,0.000
1606143412.159,-141.113,-39.062,-28.320,-274.902,0.000
1606143412.163,-186.523,-39.551,-28.320,-475.098,0.000
1606143412.167,-11.230,-20.996,-20.508,-68.848,0.000
1606143412.171,146.973,-14.160,-17.578,400.391,0.000
1606143412.174,87.402,-19.531,-17.090,326.172,0.000
1606143412.178,-112.793,-29.297,-20.508,-221.191,0.000
1606143412.182,-194.824,-41.992,-30.273,-502.930,0.000
1606143412.186,-62.012,-42.969,-28.320,-161.621,0.000
1606143412.190,114.746,-24.414,-18.066,337.891,0.000
1606143412.194,93.750,-21.484,-15.625,348.145,0.000
1606143412.198,-102.051,-34.668,-24.902,-166.016,0.000
1606143412.202,-210.449,-38.574,-39.062,-499.023,0.000
1606143412.206,-88.379,-32.227,-34.668,-220.703,0.000
1606143412.210,103.027,-23.926,-24.902,298.828,0.000
1606143412.214,104.004,-25.879,-29.785,372.559,0.000
1606143412.217,-80.078,-35.645,-29.785,-96.680,0.000
1606143412.221,-207.520,-26.855,-31.250,-481.445,0.000
1606143412.225,-105.957,-8.301,-29.785,-287.598,0.000
1606143412.229,91.797,-20.508,-26.855,249.023,0.000
1606143412.233,115.723,-31.250,-23.926,406.738,0.000
1606143412.237,-60.059,-33.691,-33.203,-33.203,0.000
1606143412.241,-208.496,-39.062,-38.574,-478.027,0.000
1606143412.245,-137.695,-34.180,-32.715,-349.609,0.000
1606143412.249,72.266,-22.949,-22.461,202.148,0.000
1606143412.253,125.488,-24.902,-20.996,420.898,0.000
1606143412.257,-36.133,-32.715,-32.227,35.645,0.000
1606143412.260,-186.523,-35.156,-38.574,-435.059,0.000
1606143412.264,-143.066,-34.668,-39.062,-381.348,0.000
1606143412.268,55.664,-29.297,-29.785,147.949,0.000
1606143412.272,140.137,-21.484,-20.508,426.270,0.000
1606143412.276,-2.930,-22.461,-17.090,110.352,0.000
1606143412.280,-176.758,-26.855,-23.438,-395.020,0.000
1606143412.284,-160.156,-30.273,-33.691,-428.711,0.000
1606143412.288,29.297,-31.738,-30.273,78.125,0.000
1606143412.292,143.555,-25.391,-25.391,434.082,0.000
1606143412.296,35.645,-21.484,-30.762,189.453,0.000
1606143412.299,-166.504,-36.621,-40.527,-356.445,0.000
1606143412.303,-184.082,-37.109,-40.527,-473.633,0.000
1606143412.307,6.348,-23.926,-30.273,7.812,0.000
1606143412.311,138.184,-19.043,-20.020,429.688,0.000
1606143412.315,45.410,-20.996,-18.066,251.465,0.000
1606143412.319,-151.367,-28.320,-24.902,-297.363,0.000
1606143412.323,-188.965,-24.414,-37.598,-477.539,0.000
1606143412.327,-15.625,-15.625,-33.203,-53.711,0.000
1606143412.331,139.160,-14.648,-25.879,395.996,0.000
1606143412.335,69.824,-22.461,-27.832,294.922,0.000
1606143412.339,-133.789,-32.715,-32.715,-245.605,0.000
1606143412.342,-194.824,-25.879,-41.504,-490.723,0.000
1606143412.346,-43.945,-19.531,-36.133,-124.512,0.000
1606143412.350,130.859,-14.648,-28.809,372.559,0.000
1606143412.354,104.492,-15.625,-25.391,360.840,0.000
1606143412.358,-100.586,-26.367,-29.785,-170.898,0.000
1606143412.362,-201.660,-18.066,-44.922,-504.395,0.000
1606143412.366,-75.684,-13.184,-35.156,-213.867,0.000
1606143412.370,110.352,-20.020,-19.043,320.801,0.000
1606143412.374,113.770,-19.043,-17.090,391.602,0.000
1606143412.378,-78.613,-34.180,-24.414,-116.211,0.000
1606143412.382,-205.078,-32.715,-42.480,-489.258,0.000
1606143412.385,-93.262,-15.625,-37.109,-246.094,0.000
1606143412.389,102.051,-23.438,-21.484,291.504,0.000
1606143412.393,118.652,-27.832,-15.137,426.270,0.000
1606143412.397,-65.918,-33.203,-24.902,-38.086,0.000
1606143412.401,-209.473,-28.809,-33.203,-464.355,0.000
1606143412.405,-140.137,0.977,-32.227,-305.664,0.000
1606143412.409,55.664,-9.277,-30.762,231.445,0.000
1606143412.413,118.652,-35.156,-26.367,426.270,0.000
1606143412.417,-44.922,-32.715,-27.344,21.973,0.000
1606143412.421,-204.102,-35.645,-32.715,-442.871,0.000
1606143412.424,-153.809,-37.598,-36.621,-371.582,0.000
1606143412.428,46.875,-33.203,-28.320,170.898,0.000
1606143412.432,128.418,-32.227,-17.578,440.430,0.000
1606143412.436,-14.648,-32.227,-20.996,97.656,0.000
1606143412.440,-187.500,-34.668,-32.227,-410.156,0.000
1606143412.444,-156.250,-39.062,-33.691,-422.363,0.000
1606143412.448,40.039,-38.574,-30.273,102.539,0.000
1606143412.452,126.465,-34.668,-28.320,438.965,0.000
1606143412.456,1.953,-36.133,-27.344,164.062,0.000
1606143412.460,-170.898,-49.805,-28.809,-367.188,0.000
1606143412.464,-171.387,-29.297,-30.762,-452.148,0.000
1606143412.467,15.137,-7.324,-31.738,40.527,0.000
1606143412.471,146.973,-29.297,-24.902,428.223,0.000
1606143412.475,52.246,-33.203,-23.926,230.957,0.000
1606143412.479,-149.902,-38.574,-30.273,-312.500,0.000
1606143412.483,-182.129,-41.504,-31.738,-474.121,0.000
1606143412.487,2.930,-27.344,-20.996,-28.809,0.000
1606143412.491,155.762,-16.113,-19.531,414.062,0.000
1606143412.495,78.613,-27.344,-26.367,297.852,0.000
1606143412.499,-135.254,-45.410,-33.203,-257.812,0.000
1606143412.503,-196.289,-32.227,-33.203,-491.699,0.000
1606143412.507,-35.156,-21.973,-20.996,-100.586,0.000
1606143412.510,116.699,-44.434,-19.531,362.305,0.000
1606143412.514,65.430,-41.016,-19.043,318.848,0.000
1606143412.518,-136.719,-44.434,-17.578,-213.379,0.000
1606143412.522,-223.145,-51.270,-28.320,-517.578,0.000
1606143412.526,-77.637,-40.527,-22.949,-192.871,0.000
1606143412.530,104.004,-31.738,-13.672,317.871,0.000
1606143412.534,84.473,-31.250,-20.020,354.004,0.000
1606143412.538,-108.887,-41.504,-33.203,-152.344,0.000
1606143412.542,-218.262,-41.504,-43.457,-501.953,0.000
1606143412.546,-94.238,-29.297,-32.227,-235.352,0.000
1606143412.549,96.191,-32.715,-23.926,286.621,0.000
1606143412.553,100.098,-34.668,-22.461,383.789,0.000
1606143412.557,-81.055,-44.434,-31.250,-84.473,0.000
1606143412.561,-207.520,-40.039,-41.016,-483.887,0.000
1606143412.565,-123.047,-26.367,-39.062,-310.059,0.000
1606143412.569,80.078,-31.738,-27.344,232.422,0.000
1606143412.573,127.930,-30.273,-21.973,414.062,0.000
1606143412.577,-43.945,-41.016,-33.691,-11.230,0.000
1606143412.581,-192.383,-38.574,-41.504,-458.008,0.000
1606143412.585,-131.836,-22.949,-33.203,-350.098,0.000
1606143412.589,68.848,-28.809,-21.973,202.148,0.000
1606143412.592,130.859,-36.621,-25.879,441.406,0.000
1606143412.596,-21.973,-42.969,-29.785,71.289,0.000
1606143412.600,-187.012,-43.945,-29.785,-413.086,0.000
1606143412.604,-155.762,-35.156,-31.738,-387.695,0.000
1606143412.608,44.922,-30.273,-24.414,140.137,0.000
1606143412.612,138.672,-26.855,-19.043,448.242,0.000
1606143412.616,8.789,-36.133,-28.809,145.020,0.000
1606143412.620,-177.734,-45.410,-32.715,-373.047,0.000
1606143412.624,-176.758,-23.438,-31.738,-429.199,0.000
1606143412.628,16.602,-13.672,-20.996,69.824,0.000
1606143412.632,130.859,-27.832,-12.207,438.965,0.000
1606143412.635,27.344,-34.180,-15.137,214.355,0.000
1606143412.639,-159.180,-41.992,-27.344,-318.359,0.000
1606143412.643,-187.500,-31.738,-47.852,-467.773,0.000
1606143412.647,-7.324,-11.230,-46.387,-24.902,0.000
1606143412.651,134.277,-26.855,-28.809,396.973,0.000
1606143412.655,49.805,-36.133,-20.020,252.441,0.000
1606143412.659,-143.066,-43.457,-25.391,-281.250,0.000
1606143412.663,-185.059,-44.922,-26.367,-478.516,0.000
1606143412.667,-21.973,-27.832,-14.648,-71.777,0.000
1606143412.671,133.301,-19.531,-11.719,388.184,0.000
1606143412.674,80.566,-27.344,-15.137,311.035,0.000
1606143412.678,-123.535,-36.621,-24.414,-229.492,0.000
1606143412.682,-205.078,-37.109,-36.133,-497.559,0.000
1606143412.686,-54.199,-31.250,-28.809,-145.020,0.000
1606143412.690,122.070,-28.320,-15.137,347.168,0.000
1606143412.694,92.285,-26.855,-18.555,345.703,0.000
1606143412.698,-115.234,-38.574,-32.227,-172.852,0.000
1606143412.702,-212.402,-31.250,-37.109,-500.488,0.000
1606143412.706,-77.148,-18.555,-25.391,-222.168,0.000
1606143412.710,108.887,-27.832,-22.461,294.922,0.000
1606143412.714,109.375,-30.273,-18.066,386.230,0.000
1606143412.717,-82.031,-39.062,-26.367,-70.312,0.000
1606143412.721,-193.359,-37.109,-42.969,-459.961,0.000
1606143412.725,-82.031,-19.531,-32.227,-281.250,0.000
1606143412.729,103.027,-11.230,-20.996,257.324,0.000
1606143412.733,126.465,-4.395,-31.738,411.133,0.000
1606143412.737,-59.082,-20.508,-39.062,-50.293,0.000
1606143412.741,-210.938,-23.926,-45.898,-501.953,0.000
1606143412.745,-136.230,37.598,-55.664,-378.906,0.000
1606143412.749,59.570,32.715,-38.086,170.898,0.000
1606143412.753,112.793,-20.020,-25.391,407.715,0.000
1606143412.757,-40.039,-30.762,-37.598,22.949,0.000
1606143412.760,-196.289,-33.691,-45.410,-452.637,0.000
1606143412.764,-152.832,-34.668,-44.434,-397.949,0.000
1606143412.768,50.781,-30.273,-36.133,134.277,0.000
1606143412.772,134.766,-14.648,-28.320,425.293,0.000
1606143412.776,-6.836,-23.926,-31.738,113.770,0.000
1606143412.780,-186.035,-41.016,-40.527,-392.578,0.000
1606143412.784,-174.316,-12.207,-45.410,-430.664,0.000
1606143412.788,26.367,-10.742,-36.133,75.684,0.000
1606143412.792,137.207,-31.250,-29.785,421.387,0.000
1606143412.796,22.461,-27.832,-33.203,181.152,0.000
1606143412.799,-166.504,-36.133,-35.645,-354.492,0.000
1606143412.803,-181.152,-35.645,-40.039,-480.469,0.000
1606143412.807,9.766,-29.785,-31.738,8.789,0.000
1606143412.811,144.531,-21.973,-17.090,428.223,0.000
1606143412.815,45.410,-20.020,-29.785,241.699,0.000
1606143412.819,-157.715,-35.645,-46.387,-301.758,0.000
1606143412.823,-190.918,-42.480,-41.504,-473.145,0.000
1606143412.827,-16.113,-29.297,-31.250,-40.527,0.000
1606143412.831,135.742,-24.902,-30.273,406.738,0.000
1606143412.835,76.172,-30.273,-34.668,293.945,0.000
1606143412.839,-119.141,-41.504,-34.668,-243.652,0.000
1606143412.842,-181.152,-20.996,-37.109,-482.910,0.000
1606143412.846,-31.250,4.395,-32.715,-117.188,0.000
1606143412.850,139.160,-21.484,-27.344,375.488,0.000
1606143412.854,101.562,-36.133,-32.227,354.980,0.000
1606143412.858,-99.121,-41.992,-38.086,-169.922,0.000
1606143412.862,-181.152,-41.992,-33.203,-477.539,0.000
1606143412.866,-56.152,-36.133,-29.785,-192.383,0.000
1606143412.870,122.070,-31.738,-27.344,334.961,0.000
1606143412.874,120.117,-28.809,-21.484,388.184,0.000
1606143412.878,-76.660,-40.039,-28.809,-124.512,0.000
1606143412.882,-192.871,-33.203,-39.551,-479.004,0.000
1606143412.885,-86.914,-15.625,-40.527,-267.090,0.000
1606143412.889,112.305,-26.855,-30.273,276.855,0.000
1606143412.893,126.953,-34.668,-28.320,416.504,0.000
1606143412.897,-51.270,-35.645,-28.320,-42.480,0.000
1606143412.901,-184.082,-43.457,-28.320,-466.309,0.000
1606143412.905,-103.027,-39.551,-32.227,-313.477,0.000
1606143412.909,107.910,-22.949,-30.762,233.398,0.000
1606143412.913,165.527,-19.043,-20.508,437.012,0.000
1606143412.917,-5.859,-33.203,-21.484,37.109,0.000
1606143412.921,-160.156,-33.203,-34.180,-411.621,0.000
1606143412.924,-112.793,-9.766,-39.551,-346.680,0.000
1606143412.928,81.055,-10.254,-26.855,183.105,0.000
1606143412.932,162.598,-22.949,-18.555,460.938,0.000
1606143412.936,18.555,-30.273,-29.785,116.699,0.000
1606143412.940,-154.785,-38.574,-33.203,-381.836,0.000
1606143412.944,-128.906,-33.203,-26.367,-388.672,0.000
1606143412.948,69.824,-22.949,-24.414,128.418,0.000
1606143412.952,166.992,-23.438,-18.066,456.055,0.000
1606143412.956,47.363,-26.367,-20.020,177.734,0.000
1606143412.960,-144.531,-27.832,-28.320,-352.539,0.000
1606143412.964,-152.832,-28.320,-24.414,-430.664,0.000
1606143412.967,45.410,-24.902,-15.137,67.871,0.000
1606143412.971,163.574,-21.973,-16.602,445.801,0.000
1606143412.975,56.641,-27.344,-20.020,237.305,0.000
1606143412.979,-133.301,-38.086,-25.879,-299.805,0.000
1606143412.983,-169.922,-31.738,-33.203,-460.938,0.000
1606143412.987,-2.441,-26.855,-24.414,-23.438,0.000
1606143412.991,149.902,-24.414,-17.090,417.969,0.000
1606143412.995,74.219,-26.367,-24.902,293.945,0.000
1606143412.999,-136.230,-37.109,-39.551,-252.441,0.000
1606143413.003,-195.312,-41.016,-45.410,-490.723,0.000
1606143413.007,-27.344,-38.086,-33.691,-97.656,0.000
1606143413.010,126.953,-30.762,-21.973,352.051,0.000
1606143413.014,78.125,-21.973,-14.648,297.852,0.000
1606143413.018,-111.816,-35.156,-21.484,-202.148,0.000
1606143413.022,-212.402,-36.133,-39.551,-510.254,0.000
1606143413.026,-76.660,-8.301,-37.598,-186.523,0.000
1606143413.030,118.652,-14.160,-16.602,340.332,0.000
1606143413.034,109.375,-21.973,-13.672,379.883,0.000
1606143413.038,-91.797,-28.320,-29.297,-142.578,0.000
1606143413.042,-205.566,-40.527,-36.133,-501.465,0.000
1606143413.046,-91.309,-36.133,-32.715,-245.605,0.000
1606143413.049,99.121,-29.785,-24.902,287.109,0.000
1606143413.053,106.934,-26.855,-22.461,388.184,0.000
1606143413.057,-76.660,-34.668,-24.902,-80.566,0.000
1606143413.061,-198.242,-30.762,-35.645,-469.727,0.000
1606143413.065,-106.445,-11.719,-41.992,-298.340,0.000
1606143413.069,92.773,-17.578,-29.785,242.188,0.000
1606143413.073,136.719,-20.508,-25.879,426.270,0.000
1606143413.077,-31.738,-29.785,-32.715,1.465,0.000
1606143413.081,-181.641,-34.668,-32.715,-447.754,0.000
1606143413.085,-120.117,-28.320,-37.598,-348.633,0.000
1606143413.089,76.660,-25.391,-38.574,190.918,0.000
1606143413.092,136.719,-23.926,-34.180,432.129,0.000
1606143413.096,-14.648,-29.785,-32.715,70.801,0.000
1606143413.100,-182.129,-37.109,-42.969,-418.457,0.000
1606143413.104,-149.414,-38.086,-53.223,-408.691,0.000
1606143413.108,58.594,-33.203,-39.551,123.535,0.000
1606143413.112,147.461,-29.297,-31.250,437.012,0.000
1606143413.116,11.230,-27.344,-33.691,136.230,0.000
1606143413.120,-171.387,-41.504,-32.227,-385.254,0.000
1606143413.124,-167.969,-17.090,-35.645,-449.219,0.000
1606143413.128,27.344,1.953,-32.715,57.617,0.000
1606143413.132,142.090,-29.297,-28.320,430.176,0.000
1606143413.135,34.668,-40.039,-34.180,198.242,0.000
1606143413.139,-159.180,-42.480,-32.715,-334.473,0.000
1606143413.143,-185.059,-34.180,-34.668,-463.379,0.000
1606143413.147,-3.906,-26.367,-26.855,-1.465,0.000
1606143413.151,140.625,-25.391,-17.090,426.270,0.000
1606143413.155,62.988,-20.996,-17.090,280.273,0.000
1606143413.159,-144.531,-27.832,-24.902,-273.438,0.000
1606143413.163,-198.730,-27.344,-36.621,-495.117,0.000
1606143413.167,-32.715,-21.484,-30.762,-89.355,0.000
1606143413.171,132.812,-23.926,-14.648,389.648,0.000
1606143413.174,83.984,-20.996,-13.184,323.242,0.000
1606143413.178,-121.094,-26.855,-25.879,-223.145,0.000
1606143413.182,-197.266,-30.762,-31.250,-500.000,0.000
1606143413.186,-46.387,-30.273,-26.367,-152.832,0.000
1606143413.190,131.348,-21.973,-18.066,355.469,0.000
1606143413.194,105.957,-21.973,-11.719,367.676,0.000
1606143413.198,-92.285,-36.621,-23.926,-148.438,0.000
1606143413.202,-188.477,-1.465,-36.133,-478.516,0.000
1606143413.206,-79.590,60.059,-35.645,-214.844,0.000
1606143413.210,95.215,17.090,-28.320,294.922,0.000
1606143413.214,101.562,-27.344,-26.367,373.047,0.000
1606143413.217,-83.984,-33.691,-27.344,-108.887,0.000
1606143413.221,-203.125,-45.410,-33.691,-492.676,0.000
1606143413.225,-104.492,-40.527,-32.227,-286.621,0.000
1606143413.229,92.773,-36.621,-16.602,264.648,0.000
1606143413.233,128.418,-29.297,-15.137,426.758,0.000
1606143413.237,-45.410,-30.273,-23.926,-16.602,0.000
1606143413.241,-187.988,-33.203,-26.367,-458.008,0.000
1606143413.245,-115.723,-25.879,-28.809,-329.590,0.000
1606143413.249,81.055,-23.926,-25.391,216.309,0.000
1606143413.253,132.812,-22.949,-24.902,423.828,0.000
1606143413.257,-23.438,-34.668,-33.203,35.156,0.000
1606143413.260,-179.199,-34.180,-35.156,-432.617,0.000
1606143413.264,-141.113,3.906,-38.574,-388.184,0.000
1606143413.268,55.664,-11.230,-26.855,150.879,0.000
1606143413.272,141.113,-38.086,-22.461,443.359,0.000
1606143413.276,7.812,-33.203,-29.785,121.094,0.000
1606143413.280,-168.945,-36.133,-34.668,-391.113,0.000
1606143413.284,-159.668,-24.902,-38.086,-437.988,0.000
1606143413.288,32.715,-17.090,-30.273,65.918,0.000
1606143413.292,146.484,-21.484,-28.809,419.434,0.000
1606143413.296,41.992,-18.555,-35.156,179.199,0.000
1606143413.299,-145.020,-20.996,-41.992,-347.656,0.000
1606143413.303,-168.457,-24.414,-44.434,-465.820,0.000
1606143413.307,8.789,-15.137,-37.598,-2.441,0.000
1606143413.311,140.625,-20.020,-21.484,405.762,0.000
1606143413.315,47.852,-28.809,-21.484,231.934,0.000
1606143413.319,-152.344,-38.086,-45.410,-319.336,0.000
1606143413.323,-189.941,-39.551,-41.504,-493.164,0.000
1606143413.327,-10.254,-30.273,-27.344,-54.199,0.000
1606143413.331,144.531,-24.414,-30.273,390.625,0.000
1606143413.335,82.520,-24.414,-31.738,281.250,0.000
1606143413.339,-102.051,-25.879,-33.203,-251.953,0.000
1606143413.342,-173.340,-27.344,-37.598,-487.793,0.000
1606143413.346,-34.180,-22.461,-34.180,-129.883,0.000
1606143413.350,139.648,-14.648,-25.391,359.375,0.000
1606143413.354,93.262,-28.809,-25.391,341.309,0.000
1606143413.358,-109.863,-43.457,-33.203,-190.430,0.000
1606143413.362,-197.266,-44.434,-40.039,-500.488,0.000
1606143413.366,-60.059,-40.039,-27.344,-192.383,0.000
1606143413.370,122.559,-32.715,-16.602,329.590,0.000
1606143413.374,112.793,-30.762,-17.090,383.789,0.000
1606143413.378,-84.473,-31.738,-25.879,-122.559,0.000
1606143413.382,-195.801,-32.715,-31.250,-488.281,0.000
1606143413.385,-77.637,-30.273,-22.461,-242.676,0.000
1606143413.389,118.652,-18.555,-18.066,297.363,0.000
1606143413.393,139.648,-13.672,-18.555,417.969,0.000
1606143413.397,-47.363,-26.367,-24.902,-54.688,0.000
1606143413.401,-185.059,-36.621,-33.203,-473.145,0.000
1606143413.405,-100.098,-11.719,-33.203,-314.941,0.000
1606143413.409,94.727,-5.371,-26.367,232.910,0.000
1606143413.413,137.207,-31.250,-24.902,437.012,0.000
1606143413.417,-29.297,-41.992,-28.809,24.414,0.000
1606143413.421,-182.129,-35.645,-28.320,-435.059,0.000
1606143413.424,-131.836,-32.227,-23.438,-356.934,0.000
1606143413.428,62.988,-30.273,-23.926,186.035,0.000
1606143413.432,137.207,-19.531,-26.367,452.148,0.000
1606143413.436,-5.859,-22.949,-29.785,103.516,0.000
1606143413.440,-179.199,-39.062,-32.715,-404.297,0.000
1606143413.444,-159.668,-21.484,-42.969,-419.922,0.000
1606143413.448,38.086,-15.625,-32.227,108.398,0.000
1606143413.452,140.625,-27.832,-17.578,445.801,0.000
1606143413.456,27.344,-22.461,-21.484,176.270,0.000
1606143413.460,-156.250,-32.227,-24.902,-347.168,0.000
1606143413.464,-170.410,-40.039,-27.832,-439.453,0.000
1606143413.467,20.020,-30.273,-25.879,59.082,0.000
1606143413.471,148.926,-25.391,-18.555,451.172,0.000
1606143413.475,40.527,-36.621,-17.090,229.004,0.000
1606143413.479,-162.109,-44.922,-29.785,-312.500,0.000
1606143413.483,-192.383,-28.320,-41.016,-458.496,0.000
1606143413.487,-22.949,-14.160,-39.551,-30.762,0.000
1606143413.491,121.582,-28.320,-25.879,397.949,0.000
1606143413.495,56.152,-31.738,-24.414,274.414,0.000
1606143413.499,-133.789,-39.062,-33.203,-264.648,0.000
1606143413.503,-183.105,-35.645,-33.691,-479.492,0.000
1606143413.507,-17.090,-21.484,-20.508,-84.473,0.000
1606143413.510,144.043,-21.973,-12.695,387.207,0.000
1606143413.514,94.727,-26.367,-22.949,337.402,0.000
1606143413.518,-108.887,-36.133,-35.645,-202.148,0.000
1606143413.522,-197.754,-42.969,-37.598,-497.070,0.000
1606143413.526,-57.617,-39.551,-33.203,-166.016,0.000
1606143413.530,133.789,-26.855,-23.438,364.258,0.000
1606143413.534,117.188,-22.461,-24.414,392.090,0.000
1606143413.538,-83.496,-37.598,-35.645,-136.719,0.000
1606143413.542,-194.336,-26.367,-42.969,-492.676,0.000
1606143413.546,-77.148,-8.789,-34.180,-231.445,0.000
1606143413.549,121.094,-20.996,-18.555,314.941,0.000
1606143413.553,125.488,-24.414,-23.438,420.410,0.000
1606143413.557,-67.383,-35.156,-38.086,-67.383,0.000
1606143413.561,-193.848,-39.062,-42.969,-472.656,0.000
1606143413.565,-92.773,-28.809,-37.598,-285.645,0.000
1606143413.569,102.539,-17.090,-18.555,246.582,0.000
1606143413.573,120.117,-18.555,-19.043,412.598,0.000
1606143413.577,-60.059,-37.598,-38.574,0.488,0.000
1606143413.581,-205.078,-46.875,-37.109,-451.172,0.000
1606143413.585,-137.207,20.508,-32.227,-361.816,0.000
1606143413.589,65.918,28.809,-28.320,186.523,0.000
1606143413.592,122.559,-31.738,-21.973,429.688,0.000
1606143413.596,-35.645,-43.457,-28.809,61.035,0.000
1606143413.600,-197.754,-49.316,-39.551,-429.199,0.000
1606143413.604,-158.691,-47.363,-39.551,-416.504,0.000
1606143413.608,43.457,-40.039,-31.738,118.652,0.000
1606143413.612,138.184,-26.367,-15.137,442.383,0.000
1606143413.616,6.836,-25.879,-11.230,141.602,0.000
1606143413.620,-182.129,-38.086,-31.738,-380.859,0.000
1606143413.624,-174.316,-16.113,-40.527,-435.547,0.000
1606143413.628,23.926,-9.766,-30.273,69.336,0.000
1606143413.632,137.695,-28.809,-24.414,438.477,0.000
1606143413.635,28.809,-34.180,-27.832,202.637,0.000
1606143413.639,-157.715,-41.016,-31.250,-338.867,0.000
1606143413.643,-179.199,-37.109,-35.156,-470.215,0.000
1606143413.647,-1.465,-31.738,-34.180,-14.160,0.000
1606143413.651,137.695,-29.785,-21.973,405.273,0.000
1606143413.655,48.828,-38.086,-14.648,255.371,0.000
1606143413.659,-151.855,-45.410,-18.555,-288.086,0.000
1606143413.663,-193.359,-41.992,-21.973,-485.840,0.000
1606143413.667,-28.809,-40.527,-21.973,-74.219,0.000
1606143413.671,125.000,-35.645,-17.578,396.484,0.000
1606143413.674,71.777,-41.016,-20.020,318.359,0.000
1606143413.678,-127.441,-47.363,-31.738,-230.469,0.000
1606143413.682,-202.148,-46.387,-39.062,-499.023,0.000
1606143413.686,-52.734,-40.527,-32.715,-150.391,0.000
1606143413.690,122.559,-26.367,-23.926,348.633,0.000
1606143413.694,92.773,-31.250,-24.414,353.027,0.000
1606143413.698,-106.934,-41.016,-31.250,-169.922,0.000
1606143413.702,-203.613,-38.086,-29.297,-491.699,0.000
1606143413.706,-75.195,-33.203,-23.438,-202.148,0.000
1606143413.710,104.980,-30.762,-25.879,310.059,0.000
1606143413.714,103.516,-31.738,-25.391,378.906,0.000
1606143413.717,-73.730,-38.574,-33.203,-103.027,0.000
1606143413.721,-192.383,-42.480,-38.086,-483.887,0.000
1606143413.725,-96.191,-40.039,-31.738,-280.273,0.000
1606143413.729,98.633,-29.785,-25.391,256.348,0.000
1606143413.733,132.812,-17.578,-18.066,413.574,0.000
1606143413.737,-52.734,-29.785,-28.809,-37.598,0.000
1606143413.741,-202.637,-33.691,-36.133,-479.980,0.000
1606143413.745,-125.488,-15.625,-29.297,-338.867,0.000
1606143413.749,78.613,-18.555,-20.996,221.191,0.000
1606143413.753,139.160,-20.508,-20.508,437.012,0.000
1606143413.757,-22.949,-20.508,-30.762,45.410,0.000
1606143413.760,-179.688,-28.809,-37.598,-424.805,0.000
1606143413.764,-135.742,-19.043,-35.645,-369.141,0.000
1606143413.768,54.688,-15.137,-25.391,168.945,0.000
1606143413.772,132.324,-28.809,-23.438,429.688,0.000
1606143413.776,-7.324,-39.062,-27.344,93.262,0.000
1606143413.780,-178.223,-44.922,-31.250,-395.508,0.000
1606143413.784,-160.645,-40.527,-35.645,-427.246,0.000
1606143413.788,31.738,-31.250,-29.297,79.102,0.000
1606143413.792,138.672,-24.414,-24.902,426.270,0.000
1606143413.796,27.344,-31.250,-32.227,173.340,0.000
1606143413.799,-169.434,-43.457,-36.133,-359.375,0.000
1606143413.803,-189.453,-43.457,-30.762,-471.680,0.000
1606143413.807,0.488,-27.832,-21.973,7.324,0.000
1606143413.811,126.953,-27.832,-24.414,402.832,0.000
1606143413.815,35.645,-34.668,-25.879,214.844,0.000
1606143413.819,-151.855,-33.691,-19.531,-322.266,0.000
1606143413.823,-193.359,-25.879,-27.832,-498.535,0.000
1606143413.827,-20.508,-24.902,-30.762,-55.664,0.000
1606143413.831,139.160,-34.668,-23.926,390.137,0.000
1606143413.835,77.637,-29.297,-27.832,261.230,0.000
1606143413.839,-129.395,-37.109,-33.203,-268.066,0.000
1606143413.842,-198.242,-46.387,-38.574,-504.883,0.000
1606143413.846,-42.480,-35.645,-32.715,-127.930,0.000
1606143413.850,123.535,-21.484,-18.555,369.141,0.000
1606143413.854,88.379,-24.414,-16.113,345.215,0.000
1606143413.858,-106.934,-39.062,-20.996,-169.434,0.000
1606143413.862,-198.730,-31.738,-24.902,-487.305,0.000
1606143413.866,-73.730,-0.977,-21.973,-202.148,0.000
1606143413.870,113.770,-7.324,-18.555,322.754,0.000
1606143413.874,101.562,-23.438,-26.367,369.141,0.000
1606143413.878,-102.051,-33.203,-30.762,-130.371,0.000
1606143413.882,-209.961,-38.574,-35.645,-485.840,0.000
1606143413.885,-102.539,-32.227,-35.156,-267.578,0.000
1606143413.889,92.773,-27.832,-21.973,271.484,0.000
1606143413.893,113.770,-21.484,-18.555,409.180,0.000
1606143413.897,-78.613,-27.832,-29.785,-58.594,0.000
1606143413.901,-208.496,-27.832,-32.227,-472.168,0.000
1606143413.905,-114.258,-16.113,-27.832,-300.293,0.000
1606143413.909,78.125,-18.066,-23.438,237.305,0.000
1606143413.913,117.188,-21.484,-20.996,421.875,0.000
1606143413.917,-45.898,-29.785,-23.926,12.695,0.000
1606143413.921,-195.801,-37.598,-31.250,-447.266,0.000
1606143413.924,-148.926,-38.574,-37.109,-381.348,0.000
1606143413.928,51.270,-36.133,-29.785,163.086,0.000
1606143413.932,118.164,-31.250,-20.996,414.551,0.000
1606143413.936,-31.738,-27.344,-31.738,59.570,0.000
1606143413.940,-191.406,-31.250,-37.109,-410.156,0.000
1606143413.944,-169.434,-36.621,-32.227,-409.180,0.000
1606143413.948,22.949,-34.180,-31.250,111.328,0.000
1606143413.952,122.070,-29.297,-29.785,438.477,0.000
1606143413.956,-5.371,-31.250,-24.414,152.832,0.000
1606143413.960,-186.035,-42.480,-21.484,-375.488,0.000
1606143413.964,-185.059,-11.719,-32.227,-453.125,0.000
1606143413.967,-1.465,12.695,-37.598,36.133,0.000
1606143413.971,119.141,-20.020,-24.414,419.434,0.000
1606143413.975,20.996,-35.156,-25.879,204.590,0.000
1606143413.979,-170.898,-37.598,-39.551,-342.285,0.000
1606143413.983,-200.684,-38.574,-36.133,-483.398,0.000
1606143413.987,-21.484,-31.738,-31.738,-18.555,0.000
1606143413.991,103.516,-27.344,-28.320,366.699,0.000
1606143413.995,18.066,-34.180,-28.320,210.449,0.000
1606143413.999,-158.203,-49.805,-27.344,-272.949,0.000
1606143414.003,-219.238,-23.438,-33.203,-505.371,0.000
1606143414.007,-61.035,-7.812,-37.109,-128.906,0.000
1606143414.010,106.445,-32.715,-27.344,351.562,0.000
1606143414.014,59.570,-30.762,-27.344,296.387,0.000
1606143414.018,-140.625,-37.109,-29.785,-239.258,0.000
1606143414.022,-225.098,-42.480,-34.668,-515.625,0.000
1606143414.026,-82.031,-40.527,-23.926,-178.711,0.000
1606143414.030,98.633,-32.715,-15.137,327.148,0.000
1606143414.034,73.242,-21.973,-19.043,343.262,0.000
1606143414.038,-131.836,-29.785,-21.973,-187.012,0.000
1606143414.042,-233.398,-18.066,-30.273,-531.250,0.000
1606143414.046,-100.098,5.371,-28.320,-248.047,0.000
1606143414.049,86.426,-15.625,-16.602,277.344,0.000
1606143414.053,86.914,-18.555,-9.277,364.258,0.000
1606143414.057,-91.797,-26.855,-22.461,-98.145,0.000
1606143414.061,-208.496,-35.156,-32.715,-482.910,0.000
1606143414.065,-108.398,-16.113,-35.645,-299.316,0.000
1606143414.069,90.820,-22.461,-33.691,255.371,0.000
1606143414.073,131.348,-29.297,-20.020,437.012,0.000
1606143414.077,-35.156,-30.762,-23.438,-0.977,0.000
1606143414.081,-172.363,-36.621,-34.180,-438.965,0.000
1606143414.085,-91.309,-32.227,-29.785,-313.477,0.000
1606143414.089,106.445,-29.785,-22.461,234.863,0.000
1606143414.092,169.434,-26.367,-19.043,472.168,0.000
1606143414.096,4.395,-38.574,-21.973,90.820,0.000
1606143414.100,-165.039,-52.246,-28.320,-394.531,0.000
1606143414.104,-123.047,-40.039,-35.645,-373.535,0.000
1606143414.108,80.078,-33.691,-28.320,155.273,0.000
1606143414.112,171.875,-32.227,-18.066,464.355,0.000
1606143414.116,35.156,-34.180,-26.855,161.621,0.000
1606143414.120,-140.625,-43.945,-37.109,-348.145,0.000
1606143414.124,-133.301,-45.898,-38.574,-400.879,0.000
1606143414.128,56.152,-43.945,-38.574,101.562,0.000
1606143414.132,168.945,-44.434,-32.227,464.844,0.000
1606143414.135,62.012,-40.527,-30.762,223.633,0.000
1606143414.139,-131.348,-45.410,-34.180,-304.199,0.000
1606143414.143,-156.738,-30.273,-34.180,-420.898,0.000
1606143414.147,21.484,-10.254,-34.668,32.715,0.000
1606143414.151,159.668,-24.902,-21.973,444.824,0.000
1606143414.155,80.078,-35.645,-22.461,286.133,0.000
1606143414.159,-116.699,-41.504,-32.715,-261.230,0.000
1606143414.163,-162.109,-38.086,-29.785,-447.266,0.000
1606143414.167,3.418,-39.062,-30.762,-30.273,0.000
1606143414.171,157.227,-35.645,-26.367,426.270,0.000
1606143414.174,105.469,-38.574,-19.531,342.773,0.000
1606143414.178,-99.609,-52.734,-30.273,-208.984,0.000
1606143414.182,-169.922,-37.109,-38.086,-469.727,0.000
1606143414.186,-12.695,-24.414,-24.902,-101.562,0.000
1606143414.190,152.832,-31.250,-19.043,385.742,0.000
1606143414.194,118.652,-26.367,-16.113,372.559,0.000
1606143414.198,-78.613,-34.180,-15.625,-150.879,0.000
1606143414.202,-169.922,-10.742,-27.344,-472.656,0.000
1606143414.206,-40.039,5.371,-29.297,-187.012,0.000
1606143414.210,134.766,-28.809,-21.484,330.566,0.000
1606143414.214,122.070,-31.738,-23.438,399.414,0.000
1606143414.217,-66.406,-35.156,-30.273,-90.332,0.000
1606143414.221,-185.547,-40.527,-28.809,-471.680,0.000
1606143414.225,-81.543,-35.645,-30.273,-263.184,0.000
1606143414.229,116.211,-28.320,-26.367,277.344,0.000
1606143414.233,144.043,-15.137,-15.625,428.711,0.000
1606143414.237,-42.969,-25.879,-21.484,-27.832,0.000
1606143414.241,-191.406,-40.039,-38.086,-465.332,0.000
1606143414.245,-120.117,26.855,-37.598,-327.148,0.000
1606143414.249,83.008,30.273,-27.832,233.398,0.000
1606143414.253,131.836,-36.621,-24.414,450.684,0.000
1606143414.257,-38.574,-40.039,-28.809,40.527,0.000
1606143414.260,-186.523,-41.016,-33.691,-429.688,0.000
1606143414.264,-128.906,-38.574,-29.297,-355.469,0.000
1606143414.268,76.172,-31.250,-23.438,192.383,0.000
1606143414.272,145.020,-29.785,-16.113,462.891,0.000
1606143414.276,-6.348,-30.762,-15.137,121.582,0.000
1606143414.280,-180.176,-36.621,-25.879,-385.742,0.000
1606143414.284,-162.598,0.977,-33.691,-416.504,0.000
1606143414.288,41.992,4.883,-17.578,107.910,0.000
1606143414.292,144.043,-33.203,-11.719,454.102,0.000
1606143414.296,18.066,-37.109,-27.832,178.711,0.000
1606143414.299,-163.574,-41.992,-35.645,-350.586,0.000
1606143414.303,-166.016,-35.645,-36.621,-441.406,0.000
1606143414.307,22.949,-31.250,-32.227,40.039,0.000
1606143414.311,162.598,-27.344,-21.484,443.848,0.000
1606143414.315,64.941,-28.320,-23.926,249.512,0.000
1606143414.319,-151.855,-44.922,-34.668,-308.594,0.000
1606143414.323,-182.617,-37.598,-33.691,-471.680,0.000
1606143414.327,-3.418,-26.855,-28.809,-23.438,0.000
1606143414.331,136.719,-28.320,-22.461,413.086,0.000
1606143414.335,53.711,-27.344,-24.902,276.367,0.000
1606143414.339,-151.855,-50.781,-33.691,-279.785,0.000
1606143414.342,-200.684,-7.324,-37.109,-501.465,0.000
1606143414.346,-38.086,39.062,-31.738,-110.352,0.000
1606143414.350,120.117,-13.184,-24.902,364.746,0.000
1606143414.354,69.336,-41.504,-28.809,317.871,0.000
1606143414.358,-131.836,-49.805,-39.062,-219.238,0.000
1606143414.362,-208.984,-45.898,-38.574,-503.418,0.000
1606143414.366,-68.848,-43.457,-23.926,-178.711,0.000
1606143414.370,113.281,-40.039,-14.648,332.520,0.000
1606143414.374,111.816,-26.855,-14.648,382.324,0.000
1606143414.378,-89.355,-44.434,-23.926,-132.324,0.000
1606143414.382,-203.613,-27.344,-32.227,-492.676,0.000
1606143414.385,-83.984,11.719,-25.879,-240.234,0.000
1606143414.389,104.980,-12.207,-23.926,292.480,0.000
1606143414.393,114.746,-28.320,-27.344,400.879,0.000
1606143414.397,-72.754,-38.086,-26.367,-73.730,0.000
1606143414.401,-207.031,-41.016,-34.668,-481.445,0.000
1606143414.405,-119.629,-37.598,-37.598,-306.152,0.000
1606143414.409,80.566,-40.039,-19.043,240.723,0.000
1606143414.413,129.883,-39.062,-11.230,423.340,0.000
1606143414.417,-38.574,-44.434,-23.438,-5.371,0.000
1606143414.421,-197.266,-48.828,-42.480,-458.496,0.000
1606143414.424,-152.344,-8.301,-50.293,-375.488,0.000
1606143414.428,47.852,4.883,-35.645,153.320,0.000
1606143414.432,122.559,-26.367,-27.344,407.715,0.000
1606143414.436,-17.578,-33.691,-35.645,60.547,0.000
1606143414.440,-181.641,-49.316,-41.016,-409.668,0.000
1606143414.444,-170.410,-49.805,-29.297,-413.086,0.000
1606143414.448,8.789,-36.133,-7.812,85.938,0.000
1606143414.452,90.820,-34.668,-6.348,394.043,0.000
1606143414.456,-43.457,-46.875,-7.812,97.656,0.000
1606143414.460,-236.816,-54.688,-13.672,-432.129,0.000
1606143414.464,-219.727,-41.504,-19.043,-485.352,0.000
1606143414.467,-25.391,-31.738,-7.812,20.020,0.000
1606143414.471,74.219,-35.645,0.977,389.648,0.000
1606143414.475,-24.902,-45.898,6.836,175.293,0.000
1606143414.479,-204.102,-67.383,0.977,-357.422,0.000
1606143414.483,-223.145,-35.156,-10.742,-489.258,0.000
1606143414.487,-40.039,-17.578,-0.977,-29.785,0.000
1606143414.491,107.422,-43.457,8.301,397.949,0.000
1606143414.495,26.855,-44.922,-1.465,248.047,0.000
1606143414.499,-168.945,-52.734,-11.230,-291.016,0.000
1606143414.503,-210.449,-55.664,-13.184,-484.375,0.000
1606143414.507,-43.945,-47.852,-14.160,-80.078,0.000
1606143414.510,123.047,-41.992,-11.719,395.020,0.000
1606143414.514,69.336,-48.340,-16.602,337.402,0.000
1606143414.518,-138.672,-57.129,-22.461,-207.031,0.000
1606143414.522,-212.402,-34.668,-26.855,-491.211,0.000
1606143414.526,-62.012,5.371,-21.973,-142.578,0.000
1606143414.530,116.211,-15.625,-12.207,365.723,0.000
1606143414.534,90.332,-39.062,-14.160,359.863,0.000
1606143414.538,-104.004,-41.016,-19.043,-161.133,0.000
1606143414.542,-209.961,-48.340,-23.926,-493.652,0.000
1606143414.546,-93.750,-45.410,-19.043,-216.309,0.000
1606143414.549,98.145,-41.016,-9.766,320.312,0.000
1606143414.553,106.934,-35.156,-6.836,403.320,0.000
1606143414.557,-81.055,-45.898,-17.090,-86.426,0.000
1606143414.561,-197.754,-40.039,-23.926,-469.238,0.000
1606143414.565,-97.656,-6.836,-25.391,-269.531,0.000
1606143414.569,94.238,-20.996,-16.602,266.602,0.000
1606143414.573,125.000,-39.551,-10.742,413.574,0.000
1606143414.577,-48.340,-37.598,-22.461,-25.879,0.000
1606143414.581,-187.012,-37.109,-32.227,-453.125,0.000
1606143414.585,-107.422,-29.785,-24.902,-314.453,0.000
1606143414.589,94.727,-24.414,-16.113,230.469,0.000
1606143414.592,151.367,-24.902,-12.207,447.754,0.000
1606143414.596,-8.301,-29.297,-14.160,66.406,0.000
1606143414.600,-171.875,-32.227,-24.414,-416.016,0.000
1606143414.604,-127.441,-30.273,-22.949,-368.652,0.000
1606143414.608,76.660,-25.391,-10.254,177.734,0.000
1606143414.612,156.250,-24.902,-11.719,465.820,0.000
1606143414.616,7.812,-31.250,-24.902,132.324,0.000
1606143414.620,-168.457,-44.922,-25.391,-374.512,0.000
1606143414.624,-159.180,-10.742,-20.508,-407.715,0.000
1606143414.628,18.066,13.184,-26.855,84.473,0.000
1606143414.632,130.371,-29.785,-19.043,427.246,0.000
1606143414.635,26.367,-41.992,-17.090,178.223,0.000
1606143414.639,-164.551,-47.852,-34.668,-351.074,0.000
1606143414.643,-179.688,-43.457,-30.762,-453.125,0.000
1606143414.647,5.371,-34.668,-20.020,21.484,0.000
1606143414.651,132.812,-31.250,-15.625,432.617,0.000
1606143414.655,54.199,-24.902,-7.324,265.625,0.000
1606143414.659,-137.695,-46.387,-12.695,-285.156,0.000
1606143414.663,-192.383,-13.672,-24.902,-464.355,0.000
1606143414.667,-29.785,15.137,-23.926,-47.363,0.000
1606143414.671,123.047,-22.461,-12.207,395.020,0.000
1606143414.674,62.500,-32.715,-12.207,299.316,0.000
1606143414.678,-129.883,-41.504,-22.949,-240.234,0.000
1606143414.682,-198.242,-38.574,-36.621,-492.188,0.000
1606143414.686,-46.875,-31.738,-33.203,-124.512,0.000
1606143414.690,115.723,-32.715,-18.555,368.164,0.000
1606143414.694,72.754,-34.668,-19.531,342.773,0.000
1606143414.698,-120.117,-47.852,-31.250,-184.570,0.000
1606143414.702,-212.402,-41.992,-39.551,-493.652,0.000
1606143414.706,-85.449,-20.020,-39.062,-195.801,0.000
1606143414.710,98.633,-26.367,-24.414,323.730,0.000
1606143414.714,94.238,-33.691,-13.672,379.883,0.000
1606143414.717,-97.168,-42.969,-26.367,-121.582,0.000
1606143414.721,-204.102,-39.551,-31.250,-490.234,0.000
1606143414.725,-98.145,-35.645,-23.438,-259.277,0.000
1606143414.729,90.332,-39.062,-19.043,284.180,0.000
1606143414.733,112.793,-32.715,-16.602,419.922,0.000
1606143414.737,-73.242,-41.504,-22.949,-41.992,0.000
1606143414.741,-213.379,-46.875,-26.855,-464.844,0.000
1606143414.745,-132.324,-37.109,-30.762,-312.500,0.000
1606143414.749,75.195,-28.809,-25.879,235.840,0.000
1606143414.753,127.930,-26.855,-27.832,421.875,0.000
1606143414.757,-38.574,-40.039,-39.551,0.488,0.000
1606143414.760,-208.984,-44.434,-36.621,-459.473,0.000
1606143414.764,-167.480,-17.090,-34.180,-374.023,0.000
1606143414.768,42.969,-25.391,-26.367,162.109,0.000
1606143414.772,122.070,-38.086,-23.438,417.969,0.000
1606143414.776,-24.414,-33.691,-26.367,75.684,0.000
1606143414.780,-199.707,-40.039,-31.250,-417.969,0.000
1606143414.784,-179.688,-36.133,-29.785,-421.875,0.000
1606143414.788,19.531,-31.250,-22.949,97.168,0.000
1606143414.792,127.441,-22.949,-21.484,427.246,0.000
1606143414.796,10.254,-26.367,-27.832,158.691,0.000
1606143414.799,-174.805,-52.734,-37.109,-366.211,0.000
1606143414.803,-186.035,1.953,-44.434,-465.332,0.000
1606143414.807,-5.371,46.387,-37.598,17.090,0.000
1606143414.811,125.977,-19.531,-23.438,417.480,0.000
1606143414.815,34.180,-45.410,-25.879,221.680,0.000
1606143414.819,-160.645,-48.828,-30.762,-323.730,0.000
1606143414.823,-190.918,-44.434,-27.832,-477.539,0.000
1606143414.827,-12.695,-36.621,-23.926,-22.461,0.000
1606143414.831,134.277,-34.668,-20.020,412.109,0.000
1606143414.835,58.594,-32.227,-20.996,274.902,0.000
1606143414.839,-145.020,-57.129,-33.691,-264.160,0.000
1606143414.842,-205.566,-15.137,-45.410,-486.816,0.000
1606143414.846,-47.852,20.020,-40.039,-106.934,0.000
1606143414.850,119.141,-30.273,-19.043,372.070,0.000
1606143414.854,76.172,-41.992,-24.902,315.430,0.000
1606143414.858,-125.488,-46.875,-35.156,-228.027,0.000
1606143414.862,-210.449,-45.410,-27.832,-504.395,0.000
1606143414.866,-66.895,-42.480,-17.090,-173.340,0.000
1606143414.870,104.980,-43.945,-9.766,328.125,0.000
1606143414.874,81.543,-41.016,-21.973,358.398,0.000
1606143414.878,-103.027,-44.434,-31.738,-145.508,0.000
1606143414.882,-199.707,-41.992,-27.344,-481.445,0.000
1606143414.885,-84.961,-35.645,-20.020,-216.309,0.000
1606143414.889,110.840,-27.832,-17.578,322.266,0.000
1606143414.893,121.582,-20.996,-21.484,410.645,0.000
1606143414.897,-71.289,-41.504,-30.762,-83.008,0.000
1606143414.901,-203.125,-40.527,-34.180,-469.727,0.000
1606143414.905,-116.699,29.297,-31.250,-286.133,0.000
1606143414.909,83.496,11.719,-26.367,249.512,0.000
1606143414.913,121.094,-42.480,-24.902,418.457,0.000
1606143414.917,-51.758,-46.387,-27.832,-15.137,0.000
1606143414.921,-185.547,-38.086,-31.250,-449.707,0.000
1606143414.924,-124.512,-28.320,-32.715,-346.680,0.000
1606143414.928,52.734,-39.062,-31.250,180.176,0.000
1606143414.932,113.770,-36.621,-29.297,430.176,0.000
1606143414.936,-28.320,-38.574,-21.973,83.008,0.000
1606143414.940,-190.430,-47.363,-21.484,-408.691,0.000
1606143414.944,-161.621,-12.695,-36.133,-411.133,0.000
1606143414.948,33.203,-14.648,-30.273,120.605,0.000
1606143414.952,126.953,-37.598,-14.648,436.035,0.000
1606143414.956,3.906,-35.645,-9.277,143.066,0.000
1606143414.960,-175.293,-52.246,-20.996,-366.699,0.000
1606143414.964,-163.574,-49.316,-40.527,-434.082,0.000
1606143414.967,39.551,-31.738,-27.344,69.824,0.000
1606143414.971,143.555,-20.020,-16.602,432.129,0.000
1606143414.975,22.461,-19.043,-39.062,171.387,0.000
1606143414.979,-164.062,-40.039,-45.898,-363.281,0.000
1606143414.983,-187.500,0.977,-53.711,-479.004,0.000
1606143414.987,-10.254,48.828,-61.523,-24.902,0.000
1606143414.991,123.047,2.930,-44.434,361.328,0.000
1606143414.995,44.922,-20.508,-50.781,188.477,0.000
1606143414.999,-139.160,-20.508,-67.383,-324.219,0.000
1606143415.003,-193.848,-27.832,-63.477,-516.113,0.000
1606143415.007,-33.203,-26.367,-50.293,-112.793,0.000
1606143415.010,124.023,-15.625,-38.086,359.863,0.000
1606143415.014,67.871,-18.066,-36.133,287.109,0.000
1606143415.018,-125.000,-30.762,-40.039,-250.977,0.000
1606143415.022,-192.383,-30.273,-41.504,-505.859,0.000
1606143415.026,-43.457,-22.949,-44.922,-142.578,0.000
1606143415.030,135.254,-19.531,-46.875,356.934,0.000
1606143415.034,109.863,-17.090,-45.898,349.121,0.000
1606143415.038,-82.520,-33.203,-49.805,-175.293,0.000
1606143415.042,-179.199,-25.391,-57.129,-504.883,0.000
1606143415.046,-54.199,4.395,-50.293,-215.332,0.000
1606143415.049,124.023,-12.695,-37.109,310.059,0.000
1606143415.053,123.047,-25.391,-36.621,385.742,0.000
1606143415.057,-68.848,-27.832,-38.086,-101.074,0.000
1606143415.061,-194.824,-34.180,-42.480,-485.352,0.000
1606143415.065,-95.215,-32.227,-43.457,-270.020,0.000
1606143415.069,96.191,-28.809,-33.203,274.414,0.000
1606143415.073,117.188,-29.297,-37.109,410.645,0.000
1606143415.077,-56.152,-36.621,-43.945,-29.297,0.000
1606143415.081,-191.406,-42.480,-49.805,-458.984,0.000
1606143415.085,-119.629,36.621,-51.758,-337.402,0.000
1606143415.089,87.402,49.805,-41.992,205.078,0.000
1606143415.092,151.367,-23.926,-28.320,434.082,0.000
1606143415.096,-15.137,-39.551,-25.391,44.922,0.000
1606143415.100,-180.176,-42.969,-33.203,-430.664,0.000
1606143415.104,-134.277,-37.598,-38.574,-373.047,0.000
1606143415.108,65.918,-37.598,-31.250,165.039,0.000
1606143415.112,147.949,-36.133,-25.879,450.195,0.000
1606143415.116,8.301,-37.598,-31.738,118.652,0.000
1606143415.120,-158.203,-40.039,-36.621,-379.883,0.000
1606143415.124,-144.043,-4.883,-43.945,-408.691,0.000
1606143415.128,42.969,-5.859,-40.039,92.285,0.000
1606143415.132,150.391,-40.039,-26.855,430.176,0.000
1606143415.135,36.133,-39.551,-23.438,167.969,0.000
1606143415.139,-146.484,-38.574,-35.645,-352.539,0.000
1606143415.143,-164.551,-31.738,-42.480,-450.195,0.000
1606143415.147,23.438,-27.832,-27.832,33.691,0.000
1606143415.151,151.855,-24.414,-20.996,432.129,0.000
1606143415.155,58.594,-26.855,-24.902,233.887,0.000
1606143415.159,-134.766,-39.062,-27.344,-313.965,0.000
1606143415.163,-176.758,-46.387,-35.645,-496.094,0.000
1606143415.167,0.977,-36.621,-30.273,-41.504,0.000
1606143415.171,154.297,-27.344,-23.438,420.410,0.000
1606143415.174,74.219,-28.320,-22.949,286.621,0.000
1606143415.178,-129.883,-44.922,-27.832,-259.766,0.000
1606143415.182,-192.871,-23.438,-45.410,-505.859,0.000
1606143415.186,-38.574,34.180,-45.410,-130.859,0.000
1606143415.190,133.789,3.418,-28.320,359.863,0.000
1606143415.194,95.703,-31.250,-21.973,325.684,0.000
1606143415.198,-111.328,-40.039,-34.668,-209.473,0.000
1606143415.202,-197.266,-44.434,-39.551,-500.977,0.000
1606143415.206,-62.988,-36.133,-32.715,-186.523,0.000
1606143415.210,116.211,-34.668,-29.785,326.172,0.000
1606143415.214,106.445,-30.273,-30.762,368.164,0.000
1606143415.217,-92.773,-44.922,-31.738,-138.672,0.000
1606143415.221,-205.566,-37.109,-34.668,-492.188,0.000
1606143415.225,-88.379,-2.930,-37.598,-248.535,0.000
1606143415.229,101.562,-15.137,-26.367,281.738,0.000
1606143415.233,118.652,-31.738,-17.090,407.227,0.000
1606143415.237,-74.707,-44.922,-24.902,-64.453,0.000
1606143415.241,-217.285,-47.363,-29.297,-492.188,0.000
1606143415.245,-131.348,-45.898,-27.344,-329.102,0.000
1606143415.249,68.359,-42.480,-24.902,218.262,0.000
1606143415.253,116.211,-33.203,-29.297,416.016,0.000
1606143415.257,-51.758,-39.062,-33.691,4.883,0.000
1606143415.260,-195.801,-45.898,-33.691,-445.801,0.000
1606143415.264,-133.789,-12.207,-25.879,-349.121,0.000
1606143415.268,61.523,-2.930,-22.461,188.477,0.000
1606143415.272,126.953,-31.250,-20.508,425.781,0.000
1606143415.276,-28.320,-41.504,-23.438,54.688,0.000
1606143415.280,-199.707,-48.340,-38.574,-430.664,0.000
1606143415.284,-157.227,-26.367,-30.762,-407.227,0.000
1606143415.288,48.340,-16.113,-18.066,124.512,0.000
1606143415.292,142.090,-27.344,-12.695,443.359,0.000
1606143415.296,16.113,-30.762,-19.043,153.809,0.000
1606143415.299,-169.434,-35.156,-23.926,-368.652,0.000
1606143415.303,-163.574,-37.598,-23.438,-437.500,0.000
1606143415.307,35.645,-28.809,-30.273,64.941,0.000
1606143415.311,150.879,-26.367,-19.531,442.871,0.000
1606143415.315,39.551,-35.645,-15.625,213.867,0.000
1606143415.319,-156.250,-48.828,-27.344,-329.590,0.000
1606143415.323,-183.594,-20.996,-30.273,-473.633,0.000
1606143415.327,-6.836,-5.371,-22.949,-13.672,0.000
1606143415.331,129.395,-34.180,-16.113,410.156,0.000
1606143415.335,48.828,-40.527,-18.555,258.301,0.000
1606143415.339,-149.414,-46.387,-20.996,-278.320,0.000
1606143415.342,-194.336,-44.922,-18.066,-479.004,0.000
1606143415.346,-25.391,-35.156,-14.648,-75.195,0.000
1606143415.350,132.812,-24.414,-11.230,392.578,0.000
1606143415.354,82.031,-29.297,-19.043,319.824,0.000
1606143415.358,-114.258,-41.992,-28.320,-214.355,0.000
1606143415.362,-201.172,-26.855,-36.133,-497.070,0.000
1606143415.366,-65.430,6.348,-37.109,-170.410,0.000
1606143415.370,108.398,-7.812,-26.855,333.008,0.000
1606143415.374,91.797,-27.832,-17.578,349.609,0.000
1606143415.378,-93.750,-27.832,-21.973,-161.133,0.000
1606143415.382,-196.777,-34.180,-34.180,-500.000,0.000
1606143415.385,-73.730,-28.320,-25.391,-223.145,0.000
1606143415.389,110.352,-21.973,-19.531,302.246,0.000
1606143415.393,114.746,-24.902,-23.926,381.348,0.000
1606143415.397,-72.266,-36.621,-31.738,-103.027,0.000
1606143415.401,-199.707,-29.785,-37.109,-491.211,0.000
1606143415.405,-109.375,-14.648,-30.762,-294.434,0.000
1606143415.409,82.031,-26.367,-27.832,243.164,0.000
1606143415.413,113.281,-33.203,-34.668,396.484,0.000
1606143415.417,-70.312,-36.621,-42.969,-52.246,0.000
1606143415.421,-208.496,-49.316,-41.992,-479.980,0.000
1606143415.424,-115.234,-46.875,-39.551,-337.402,0.000
1606143415.428,83.008,-31.250,-36.621,204.102,0.000
1606143415.432,128.906,-22.461,-31.738,417.480,0.000
1606143415.436,-18.066,-25.391,-35.156,40.039,0.000
1606143415.440,-166.992,-35.156,-41.992,-425.293,0.000
1606143415.444,-118.652,-39.062,-37.598,-371.094,0.000
1606143415.448,81.055,-31.250,-29.785,172.852,0.000
1606143415.452,166.504,-26.367,-20.996,479.980,0.000
1606143415.456,26.367,-34.180,-22.949,164.551,0.000
1606143415.460,-153.809,-41.504,-26.367,-348.633,0.000
1606143415.464,-146.484,-34.180,-28.809,-392.090,0.000
1606143415.467,50.781,-23.438,-27.832,116.211,0.000
1606143415.471,167.969,-29.785,-19.043,472.168,0.000
1606143415.475,53.711,-34.668,-22.461,216.309,0.000
1606143415.479,-134.766,-41.016,-30.273,-318.848,0.000
1606143415.483,-146.484,-42.969,-29.785,-423.340,0.000
1606143415.487,36.133,-32.715,-27.832,45.898,0.000
1606143415.491,168.945,-24.902,-20.020,450.195,0.000
1606143415.495,84.473,-24.902,-15.625,284.668,0.000
1606143415.499,-113.770,-31.250,-26.367,-251.953,0.000
1606143415.503,-166.992,-30.762,-38.086,-446.289,0.000
1606143415.507,0.488,-17.090,-33.691,-37.109,0.000
1606143415.510,155.273,-18.066,-19.531,412.598,0.000
1606143415.514,87.891,-28.809,-28.320,310.059,0.000
1606143415.518,-117.188,-41.016,-40.039,-233.398,0.000
1606143415.522,-184.082,-45.898,-37.598,-484.375,0.000
1606143415.526,-27.344,-36.133,-30.273,-122.559,0.000
1606143415.530,139.160,-25.391,-29.297,366.211,0.000
1606143415.534,102.051,-26.367,-26.367,346.680,0.000
1606143415.538,-95.703,-40.527,-25.391,-180.176,0.000
1606143415.542,-187.012,-23.438,-32.715,-491.211,0.000
1606143415.546,-58.594,0.000,-30.762,-184.570,0.000
1606143415.549,116.211,-27.832,-26.367,322.754,0.000
1606143415.553,106.934,-36.133,-20.508,376.465,0.000
1606143415.557,-83.008,-44.434,-31.250,-117.676,0.000
1606143415.561,-191.406,-30.762,-41.016,-486.816,0.000
1606143415.565,-88.867,2.930,-32.715,-252.930,0.000
1606143415.569,100.098,-19.531,-20.508,281.738,0.000
1606143415.573,124.023,-34.180,-16.602,415.527,0.000
1606143415.577,-56.641,-37.598,-28.809,-46.387,0.000
1606143415.581,-195.801,-43.945,-34.668,-477.051,0.000
1606143415.585,-112.793,-37.109,-30.762,-305.176,0.000
1606143415.589,88.379,-30.273,-28.809,244.141,0.000
1606143415.592,134.766,-22.461,-24.414,430.176,0.000
1606143415.596,-35.645,-25.391,-23.438,25.879,0.000
1606143415.600,-194.336,-34.668,-25.391,-442.383,0.000
1606143415.604,-146.484,-12.695,-30.273,-377.441,0.000
1606143415.608,53.711,-11.230,-24.902,165.039,0.000
1606143415.612,125.488,-28.809,-21.484,432.129,0.000
1606143415.616,-32.715,-36.621,-28.320,79.590,0.000
1606143415.620,-209.961,-49.316,-32.715,-412.109,0.000
1606143415.624,-176.270,-44.922,-34.180,-415.527,0.000
1606143415.628,27.344,-36.133,-27.344,104.004,0.000
1606143415.632,124.512,-38.086,-18.555,434.570,0.000
1606143415.635,4.395,-34.668,-14.648,163.086,0.000
1606143415.639,-175.781,-48.340,-23.926,-346.680,0.000
1606143415.643,-188.477,-13.184,-27.832,-418.457,0.000
1606143415.647,5.859,26.367,-23.438,61.523,0.000
1606143415.651,145.020,-21.973,-15.137,425.781,0.000
1606143415.655,34.180,-44.922,-14.160,223.633,0.000
1606143415.659,-160.645,-52.246,-27.344,-319.336,0.000
1606143415.663,-185.547,-51.270,-32.227,-473.633,0.000
1606143415.667,-10.742,-36.133,-21.973,-26.367,0.000
1606143415.671,132.324,-31.250,-18.066,408.203,0.000
1606143415.674,60.059,-29.297,-19.531,276.367,0.000
1606143415.678,-133.789,-34.180,-20.508,-265.625,0.000
1606143415.682,-188.477,-24.414,-26.367,-477.051,0.000
1606143415.686,-35.156,-19.043,-27.344,-86.426,0.000
1606143415.690,125.000,-31.250,-18.555,379.883,0.000
1606143415.694,78.125,-31.250,-16.113,320.312,0.000
1606143415.698,-123.535,-43.457,-22.949,-217.285,0.000
1606143415.702,-198.730,-27.832,-27.832,-484.863,0.000
1606143415.706,-60.547,-13.184,-13.672,-146.973,0.000
1606143415.710,110.840,-29.297,-7.812,352.539,0.000
1606143415.714,98.145,-34.668,-19.043,379.883,0.000
1606143415.717,-98.633,-40.527,-30.273,-137.695,0.000
1606143415.721,-220.215,-36.133,-34.180,-502.930,0.000
1606143415.725,-104.980,-34.668,-25.391,-240.234,0.000
1606143415.729,100.098,-36.621,-17.578,311.035,0.000
1606143415.733,107.422,-34.668,-20.020,413.574,0.000
1606143415.737,-79.102,-35.645,-20.020,-62.988,0.000
1606143415.741,-199.219,-41.016,-17.578,-464.844,0.000
1606143415.745,-120.117,1.953,-29.785,-292.480,0.000
1606143415.749,72.266,10.254,-24.902,248.047,0.000
1606143415.753,118.652,-32.227,-17.578,419.922,0.000
1606143415.757,-56.152,-38.574,-28.809,-8.301,0.000
1606143415.760,-203.125,-42.480,-33.691,-451.172,0.000
1606143415.764,-130.859,-36.133,-32.715,-336.426,0.000
1606143415.768,70.312,-31.738,-17.578,211.426,0.000
1606143415.772,133.789,-34.180,-10.742,446.777,0.000
1606143415.776,-16.113,-36.621,-26.855,81.055,0.000
1606143415.780,-176.270,-45.898,-30.762,-387.695,0.000
1606143415.784,-140.625,2.930,-29.785,-368.164,0.000
1606143415.788,61.523,7.812,-28.809,153.320,0.000
1606143415.792,156.738,-37.598,-19.043,458.496,0.000
1606143415.796,19.043,-36.133,-25.879,149.414,0.000
1606143415.799,-161.133,-40.039,-33.203,-361.328,0.000
1606143415.803,-148.438,-36.133,-29.297,-412.109,0.000
1606143415.807,46.875,-33.203,-25.879,88.867,0.000
1606143415.811,155.762,-31.738,-21.484,448.242,0.000
1606143415.815,40.527,-35.156,-21.973,208.496,0.000
1606143415.819,-143.555,-44.922,-23.438,-317.871,0.000
1606143415.823,-158.691,-32.227,-28.809,-437.500,0.000
1606143415.827,22.461,-20.996,-24.414,19.531,0.000
1606143415.831,153.809,-28.809,-18.066,428.223,0.000
1606143415.835,55.176,-38.086,-28.809,250.977,0.000
1606143415.839,-147.461,-60.547,-34.668,-296.387,0.000
1606143415.842,-186.035,-12.207,-30.762,-479.980,0.000
1606143415.846,-30.273,36.133,-29.785,-78.613,0.000
1606143415.850,117.188,-20.996,-20.508,374.023,0.000
1606143415.854,59.082,-47.363,-22.949,281.250,0.000
1606143415.858,-141.113,-51.270,-33.691,-258.789,0.000
1606143415.862,-206.543,-46.387,-33.691,-500.488,0.000
1606143415.866,-54.688,-35.645,-23.926,-145.020,0.000
1606143415.870,114.746,-29.785,-17.578,349.609,0.000
1606143415.874,81.055,-26.367,-18.555,351.074,0.000
1606143415.878,-117.188,-47.852,-26.367,-175.293,0.000
1606143415.882,-212.402,-33.691,-35.156,-494.141,0.000
1606143415.885,-78.125,4.395,-31.250,-205.566,0.000
1606143415.889,100.098,-20.508,-23.438,301.758,0.000
1606143415.893,95.215,-41.016,-18.555,364.258,0.000
1606143415.897,-79.590,-45.410,-28.320,-112.793,0.000
1606143415.901,-208.008,-44.434,-34.180,-492.188,0.000
1606143415.905,-102.051,-39.551,-27.344,-269.531,0.000
1606143415.909,103.027,-34.180,-18.555,279.297,0.000
1606143415.913,125.000,-30.273,-20.020,416.992,0.000
1606143415.917,-46.387,-37.109,-26.367,-26.855,0.000
1606143415.921,-172.852,-38.086,-29.297,-440.918,0.000
1606143415.924,-101.074,24.902,-29.297,-307.129,0.000
1606143415.928,96.680,31.738,-20.996,226.562,0.000
1606143415.932,151.855,-27.344,-16.602,435.059,0.000
1606143415.936,-11.230,-30.762,-23.438,41.016,0.000
1606143415.940,-170.898,-35.645,-36.133,-426.270,0.000
1606143415.944,-129.883,-34.668,-40.527,-375.000,0.000
1606143415.948,70.801,-26.855,-28.809,164.062,0.000
1606143415.952,147.461,-33.691,-26.367,445.312,0.000
1606143415.956,4.883,-40.039,-30.762,106.445,0.000
1606143415.960,-165.039,-39.551,-32.227,-395.020,0.000
1606143415.964,-143.066,-30.273,-31.738,-401.855,0.000
1606143415.967,53.711,-27.832,-18.066,117.676,0.000
1606143415.971,152.832,-27.832,-13.672,443.848,0.000
1606143415.975,28.320,-34.180,-24.902,170.410,0.000
1606143415.979,-154.785,-51.270,-29.785,-355.469,0.000
1606143415.983,-157.227,-39.062,-30.762,-446.289,0.000
1606143415.987,24.902,-30.273,-24.902,33.203,0.000
1606143415.991,140.625,-38.086,-27.344,416.992,0.000
1606143415.995,44.922,-37.109,-30.762,219.727,0.000
1606143415.999,-145.020,-38.086,-28.809,-308.594,0.000
1606143416.003,-183.105,-43.457,-32.715,-467.773,0.000
1606143416.007,-9.766,-40.039,-25.879,-27.344,0.000
1606143416.010,128.418,-29.297,-21.484,391.602,0.000
1606143416.014,60.547,-20.996,-20.020,271.973,0.000
1606143416.018,-138.672,-41.504,-26.855,-263.672,0.000
1606143416.022,-211.914,-35.645,-35.156,-514.160,0.000
1606143416.026,-55.664,3.418,-33.203,-131.836,0.000
1606143416.030,114.258,-8.301,-27.344,355.957,0.000
1606143416.034,78.613,-19.043,-24.414,324.219,0.000
1606143416.038,-120.117,-29.297,-28.809,-205.078,0.000
1606143416.042,-205.078,-29.297,-36.621,-501.465,0.000
1606143416.046,-75.684,-23.438,-35.156,-187.988,0.000
1606143416.049,96.680,-30.762,-18.066,308.594,0.000
1606143416.053,86.914,-31.738,-16.602,353.027,0.000
1606143416.057,-96.680,-45.898,-29.297,-125.488,0.000
1606143416.061,-206.543,-38.574,-34.180,-481.934,0.000
1606143416.065,-99.609,-5.859,-29.785,-252.441,0.000
1606143416.069,91.797,-19.531,-22.461,276.367,0.000
1606143416.073,112.793,-32.715,-23.926,390.625,0.000
1606143416.077,-60.059,-32.715,-36.621,-74.707,0.000
1606143416.081,-186.035,-35.156,-42.969,-476.562,0.000
1606143416.085,-117.676,-27.832,-27.832,-307.129,0.000
1606143416.089,68.848,-29.785,-17.090,232.910,0.000
1606143416.092,118.164,-33.691,-19.531,415.527,0.000
1606143416.096,-50.293,-40.527,-21.973,-0.488,0.000
1606143416.100,-206.055,-50.293,-29.785,-456.055,0.000
1606143416.104,-142.090,-43.945,-31.738,-365.234,0.000
1606143416.108,68.359,-32.227,-18.555,190.430,0.000
1606143416.112,135.742,-28.320,-14.160,447.754,0.000
1606143416.116,-20.508,-41.992,-25.391,74.219,0.000
1606143416.120,-192.383,-56.641,-31.738,-423.828,0.000
1606143416.124,-160.645,-33.203,-34.668,-405.273,0.000
1606143416.128,41.016,-18.555,-21.484,131.836,0.000
1606143416.132,132.324,-35.156,-12.207,445.801,0.000
1606143416.135,-4.395,-39.062,-17.090,138.184,0.000
1606143416.139,-185.547,-41.504,-25.391,-381.836,0.000
1606143416.143,-170.410,-42.480,-34.180,-443.359,0.000
1606143416.147,20.020,-35.645,-23.926,54.688,0.000
1606143416.151,132.812,-26.367,-17.090,434.570,0.000
1606143416.155,33.691,-28.320,-23.438,211.914,0.000
1606143416.159,-159.180,-44.434,-32.715,-333.984,0.000
1606143416.163,-188.477,-36.133,-42.969,-474.121,0.000
1606143416.167,-9.277,-20.508,-34.180,-12.695,0.000
1606143416.171,126.953,-24.414,-21.484,409.668,0.000
1606143416.174,46.387,-29.297,-22.949,259.766,0.000
1606143416.178,-148.926,-38.086,-20.996,-279.785,0.000
1606143416.182,-201.172,-43.457,-23.438,-486.816,0.000
1606143416.186,-35.156,-39.551,-18.555,-80.078,0.000
1606143416.190,125.488,-24.414,-13.184,385.742,0.000
1606143416.194,74.219,-16.113,-18.555,309.082,0.000
1606143416.198,-125.000,-22.461,-22.949,-229.492,0.000
1606143416.202,-200.684,-20.996,-34.180,-486.328,0.000
1606143416.206,-61.523,-4.395,-35.156,-148.926,0.000
1606143416.210,107.910,-12.695,-25.391,338.867,0.000
1606143416.214,82.520,-19.531,-22.461,350.098,0.000
1606143416.217,-117.676,-25.879,-21.484,-168.945,0.000
1606143416.221,-216.309,-37.109,-30.273,-502.441,0.000
1606143416.225,-91.797,-31.250,-37.109,-233.398,0.000
1606143416.229,92.773,-23.438,-25.879,287.109,0.000
1606143416.233,98.633,-22.461,-24.902,375.977,0.000
1606143416.237,-86.426,-33.203,-33.203,-112.793,0.000
1606143416.241,-209.961,-39.551,-38.086,-498.047,0.000
1606143416.245,-101.074,-32.227,-31.250,-283.691,0.000
1606143416.249,100.586,-20.020,-18.066,258.301,0.000
1606143416.253,121.582,-20.508,-23.438,409.180,0.000
1606143416.257,-56.641,-30.762,-33.691,-35.645,0.000
1606143416.260,-193.359,-33.691,-32.227,-468.750,0.000
1606143416.264,-118.652,-2.930,-33.691,-333.496,0.000
1606143416.268,83.008,4.395,-25.879,211.426,0.000
1606143416.272,135.742,-18.555,-14.648,432.129,0.000
1606143416.276,-30.762,-25.879,-22.949,46.875,0.000
1606143416.280,-194.824,-32.715,-31.250,-433.105,0.000
1606143416.284,-151.855,-34.668,-33.691,-390.625,0.000
1606143416.288,48.340,-32.227,-33.203,138.184,0.000
1606143416.292,129.883,-24.414,-23.926,429.688,0.000
1606143416.296,-10.254,-25.879,-24.414,116.211,0.000
1606143416.299,-188.965,-43.945,-41.016,-395.996,0.000
1606143416.303,-174.316,-19.043,-40.527,-444.824,0.000
1606143416.307,14.648,6.348,-29.297,57.129,0.000
1606143416.311,133.789,-14.648,-18.066,423.828,0.000
1606143416.315,28.809,-25.391,-19.531,174.316,0.000
1606143416.319,-163.086,-31.738,-28.809,-362.305,0.000
1606143416.323,-174.805,-37.109,-32.227,-466.309,0.000
1606143416.327,9.277,-30.762,-27.832,7.324,0.000
1606143416.331,140.137,-29.297,-19.531,411.133,0.000
1606143416.335,48.340,-30.762,-24.902,235.352,0.000
1606143416.339,-148.926,-37.598,-31.738,-302.734,0.000
1606143416.342,-198.730,-21.484,-29.297,-476.562,0.000
1606143416.346,-34.668,-4.395,-22.461,-54.199,0.000
1606143416.350,126.465,-26.855,-17.578,390.625,0.000
1606143416.354,65.918,-36.133,-17.090,284.668,0.000
1606143416.358,-137.207,-41.992,-23.926,-264.160,0.000
1606143416.362,-197.754,-47.363,-24.414,-503.418,0.000
1606143416.366,-45.898,-41.016,-22.461,-129.883,0.000
1606143416.370,110.840,-38.086,-16.113,353.516,0.000
1606143416.374,74.219,-41.992,-16.602,334.961,0.000
1606143416.378,-125.488,-45.410,-26.855,-191.895,0.000
1606143416.382,-211.914,-41.504,-26.855,-496.582,0.000
1606143416.385,-75.195,-29.785,-20.996,-186.035,0.000
1606143416.389,107.910,-20.020,-15.137,336.914,0.000
1606143416.393,95.215,-29.297,-23.926,378.418,0.000
1606143416.397,-99.121,-39.551,-26.367,-137.695,0.000
1606143416.401,-205.078,-39.551,-24.414,-497.070,0.000
1606143416.405,-101.562,-20.508,-25.879,-262.207,0.000
1606143416.409,88.379,-9.766,-16.113,279.297,0.000
1606143416.413,106.934,-28.809,-6.836,405.762,0.000
1606143416.417,-83.984,-38.574,-15.137,-62.012,0.000
1606143416.421,-220.215,-41.504,-34.180,-478.516,0.000
1606143416.424,-137.695,-35.156,-32.715,-319.824,0.000
1606143416.428,62.988,-27.344,-15.137,222.168,0.000
1606143416.432,111.328,-26.855,-15.625,410.645,0.000
1606143416.436,-53.711,-31.250,-22.949,0.000,0.000
1606143416.440,-203.125,-36.621,-29.297,-460.938,0.000
1606143416.444,-145.020,-8.301,-35.645,-379.395,0.000
1606143416.448,59.570,-7.324,-28.809,165.527,0.000
1606143416.452,133.789,-35.156,-24.902,425.293,0.000
1606143416.456,-2.441,-34.180,-31.250,80.078,0.000
1606143416.460,-178.711,-41.504,-29.297,-410.156,0.000
1606143416.464,-178.711,-47.852,-32.715,-427.246,0.000
1606143416.467,26.855,-36.621,-32.227,99.121,0.000
1606143416.471,134.277,-27.344,-21.484,432.129,0.000
1606143416.475,-2.930,-34.668,-20.508,130.371,0.000
1606143416.479,-187.500,-43.457,-30.762,-395.020,0.000
1606143416.483,-181.641,-29.785,-39.062,-452.148,0.000
1606143416.487,1.465,-19.531,-37.109,32.715,0.000
1606143416.491,125.977,-27.832,-24.414,408.691,0.000
1606143416.495,38.574,-32.227,-24.414,204.590,0.000
1606143416.499,-147.461,-37.109,-33.203,-326.172,0.000
1606143416.503,-164.551,-33.691,-38.086,-462.402,0.000
1606143416.507,4.883,-30.273,-32.227,-15.137,0.000
1606143416.510,132.812,-22.949,-20.020,405.273,0.000
1606143416.514,55.664,-23.926,-21.973,269.043,0.000
1606143416.518,-144.043,-42.480,-27.344,-266.113,0.000
1606143416.522,-195.312,-41.504,-28.809,-478.027,0.000
1606143416.526,-29.785,-31.250,-26.855,-83.496,0.000
1606143416.530,132.324,-26.367,-21.973,394.043,0.000
1606143416.534,84.961,-26.367,-20.020,334.961,0.000
1606143416.538,-115.234,-32.715,-26.855,-207.520,0.000
1606143416.542,-194.336,-36.133,-33.203,-485.352,0.000
1606143416.546,-53.223,-30.762,-30.762,-147.949,0.000
1606143416.549,125.977,-22.461,-23.926,360.352,0.000
1606143416.553,109.863,-21.484,-20.020,377.441,0.000
1606143416.557,-86.914,-31.738,-27.832,-147.949,0.000
1606143416.561,-189.941,-37.109,-31.738,-486.816,0.000
1606143416.565,-68.848,-34.668,-26.367,-214.355,0.000
1606143416.569,114.746,-27.832,-24.902,299.805,0.000
1606143416.573,119.629,-20.996,-21.484,386.230,0.000
1606143416.577,-65.918,-22.461,-23.926,-80.566,0.000
1606143416.581,-197.266,-32.227,-31.738,-477.539,0.000
1606143416.585,-109.863,-38.574,-34.668,-299.316,0.000
1606143416.589,84.473,-32.715,-32.715,231.934,0.000
1606143416.592,123.047,-27.832,-30.273,395.508,0.000
1606143416.596,-45.410,-29.297,-28.320,-32.715,0.000
1606143416.600,-188.965,-29.785,-35.156,-475.098,0.000
1606143416.604,-118.652,-27.344,-36.133,-365.723,0.000
1606143416.608,79.102,-23.926,-25.391,184.082,0.000
1606143416.612,139.160,-20.020,-19.531,429.688,0.000
1606143416.616,-19.043,-20.020,-21.973,41.016,0.000
1606143416.620,-182.617,-29.785,-34.180,-440.918,0.000
1606143416.624,-150.879,-23.926,-41.504,-397.949,0.000
1606143416.628,41.992,-15.625,-28.320,131.836,0.000
1606143416.632,131.348,-24.414,-22.949,432.129,0.000
1606143416.635,-5.371,-29.785,-27.344,117.188,0.000
1606143416.639,-177.734,-34.180,-27.344,-390.137,0.000
1606143416.643,-161.621,-31.738,-33.203,-430.176,0.000
1606143416.647,30.762,-23.926,-28.320,65.918,0.000
1606143416.651,131.348,-26.855,-21.973,415.039,0.000
1606143416.655,12.207,-31.250,-26.367,172.363,0.000
1606143416.659,-174.805,-31.738,-31.738,-365.234,0.000
1606143416.663,-185.547,-38.086,-32.227,-475.586,0.000
1606143416.667,0.000,-27.344,-22.461,3.906,0.000
1606143416.671,130.859,-18.555,-18.066,418.945,0.000
1606143416.674,41.992,-25.391,-24.902,246.582,0.000
1606143416.678,-156.250,-34.668,-30.273,-298.828,0.000
1606143416.682,-193.848,-29.785,-25.391,-480.957,0.000
1606143416.686,-32.227,-14.160,-20.020,-65.430,0.000
1606143416.690,117.676,-14.160,-18.066,382.324,0.000
1606143416.694,60.547,-23.438,-19.043,291.992,0.000
1606143416.698,-143.555,-34.668,-26.367,-238.770,0.000
1606143416.702,-208.008,-33.203,-25.391,-483.398,0.000
1606143416.706,-56.152,-31.250,-20.996,-125.977,0.000
1606143416.710,106.934,-31.250,-19.043,357.422,0.000
1606143416.714,82.520,-19.043,-20.996,346.191,0.000
1606143416.717,-107.422,-27.344,-31.250,-169.434,0.000
1606143416.721,-216.309,-38.574,-29.297,-498.535,0.000
1606143416.725,-102.539,-34.180,-20.996,-216.309,0.000
1606143416.729,84.961,-30.762,-20.020,307.129,0.000
1606143416.733,84.473,-27.832,-15.625,375.488,0.000
1606143416.737,-106.445,-29.297,-17.090,-124.023,0.000
1606143416.741,-214.844,-35.645,-30.762,-496.094,0.000
1606143416.745,-109.863,-37.109,-23.926,-261.719,0.000
1606143416.749,84.473,-28.809,-13.184,278.809,0.000
1606143416.753,108.887,-22.461,-18.066,406.250,0.000
1606143416.757,-77.148,-29.297,-31.738,-62.988,0.000
1606143416.760,-207.520,-35.645,-37.109,-474.121,0.000
1606143416.764,-124.023,-20.020,-35.156,-316.406,0.000
1606143416.768,72.266,-14.648,-28.809,220.215,0.000
1606143416.772,119.629,-28.320,-24.414,411.621,0.000
1606143416.776,-49.805,-35.645,-27.344,2.441,0.000
1606143416.780,-206.543,-42.480,-36.621,-456.543,0.000
1606143416.784,-152.344,-42.480,-35.645,-379.883,0.000
1606143416.788,49.316,-34.180,-25.879,158.691,0.000
1606143416.792,125.977,-33.203,-17.578,423.828,0.000
1606143416.796,-19.043,-33.691,-25.879,84.473,0.000
1606143416.799,-187.988,-33.203,-36.621,-412.598,0.000
1606143416.803,-161.133,-33.203,-37.109,-425.293,0.000
1606143416.807,34.668,-29.785,-33.203,96.680,0.000
1606143416.811,135.742,-20.020,-20.996,438.965,0.000
1606143416.815,12.695,-25.391,-16.113,153.809,0.000
1606143416.819,-181.152,-46.875,-32.227,-376.465,0.000
1606143416.823,-187.012,-18.555,-35.645,-453.613,0.000
1606143416.827,12.207,3.906,-21.973,30.762,0.000
1606143416.831,142.090,-17.090,-17.578,413.574,0.000
1606143416.835,42.480,-25.391,-27.344,208.984,0.000
1606143416.839,-157.227,-43.945,-41.016,-327.637,0.000
1606143416.842,-181.152,-40.527,-35.156,-470.703,0.000
1606143416.846,-2.441,-31.738,-22.461,-27.832,0.000
1606143416.850,132.324,-33.691,-23.926,403.320,0.000
1606143416.854,62.012,-27.832,-23.438,285.156,0.000
1606143416.858,-132.324,-34.668,-27.832,-250.977,0.000
1606143416.862,-189.453,-34.180,-32.715,-483.887,0.000
1606143416.866,-37.598,-6.836,-31.738,-106.934,0.000
1606143416.870,117.676,-12.207,-31.738,368.164,0.000
1606143416.874,73.730,-26.855,-25.391,326.660,0.000
1606143416.878,-118.652,-26.367,-28.809,-198.730,0.000
1606143416.882,-199.707,-33.203,-28.809,-494.629,0.000
1606143416.885,-67.383,-35.156,-21.484,-180.664,0.000
1606143416.889,115.234,-33.203,-13.672,329.102,0.000
1606143416.893,110.840,-29.785,-18.066,368.164,0.000
1606143416.897,-88.379,-40.039,-29.785,-143.555,0.000
1606143416.901,-210.449,-34.180,-34.668,-501.953,0.000
1606143416.905,-102.539,-4.883,-33.203,-262.695,0.000
1606143416.909,88.379,-11.719,-22.461,265.137,0.000
1606143416.913,107.422,-28.320,-19.531,378.418,0.000
1606143416.917,-81.543,-23.926,-30.762,-104.492,0.000
1606143416.921,-208.496,-24.414,-41.504,-501.465,0.000
1606143416.924,-116.211,-25.879,-38.086,-307.129,0.000
1606143416.928,74.707,-17.578,-27.344,232.422,0.000
1606143416.932,118.652,-16.113,-24.902,403.320,0.000
1606143416.936,-44.434,-28.809,-28.809,-11.230,0.000
1606143416.940,-197.266,-40.039,-37.109,-454.102,0.000
1606143416.944,-132.324,-36.621,-32.715,-355.469,0.000
1606143416.948,66.406,-27.832,-23.926,187.012,0.000
1606143416.952,131.836,-23.926,-26.367,438.965,0.000
1606143416.956,-10.742,-27.832,-25.391,63.477,0.000
1606143416.960,-182.129,-47.852,-31.738,-436.035,0.000
1606143416.964,-153.809,-29.297,-39.551,-412.598,0.000
1606143416.967,48.828,1.953,-29.297,123.047,0.000
1606143416.971,150.879,-23.926,-16.602,438.965,0.000
1606143416.975,17.578,-42.969,-23.438,130.371,0.000
1606143416.979,-168.945,-41.504,-33.691,-382.812,0.000
1606143416.983,-161.133,-35.156,-34.668,-435.059,0.000
1606143416.987,37.109,-28.320,-26.855,76.172,0.000
1606143416.991,144.043,-31.738,-22.461,424.805,0.000
1606143416.995,36.133,-28.809,-25.879,182.129,0.000
1606143416.999,-140.625,-33.203,-28.809,-317.383,0.000
1606143417.003,-172.363,-12.695,-40.039,-458.496,0.000
1606143417.007,6.836,7.812,-39.062,-9.277,0.000
1606143417.010,147.461,-19.043,-23.926,413.086,0.000
1606143417.014,62.988,-24.902,-22.949,256.348,0.000
1606143417.018,-134.277,-38.086,-32.715,-286.133,0.000
1606143417.022,-177.246,-42.480,-34.180,-479.980,0.000
1606143417.026,-14.648,-30.762,-30.273,-68.848,0.000
1606143417.030,135.742,-25.391,-20.020,394.531,0.000
1606143417.034,84.961,-29.785,-20.996,316.406,0.000
1606143417.038,-123.047,-41.504,-33.691,-238.770,0.000
1606143417.042,-191.895,-36.621,-38.574,-497.070,0.000
1606143417.046,-31.250,-30.273,-32.227,-129.883,0.000
1606143417.049,131.836,-29.785,-23.438,361.816,0.000
1606143417.053,100.586,-21.484,-21.484,354.492,0.000
1606143417.057,-94.727,-31.250,-30.762,-170.410,0.000
1606143417.061,-195.801,-39.062,-39.551,-500.000,0.000
1606143417.065,-71.289,12.207,-36.621,-215.820,0.000
1606143417.069,112.305,20.996,-31.738,304.199,0.000
1606143417.073,114.258,-24.902,-20.020,380.371,0.000
1606143417.077,-73.242,-39.062,-22.949,-110.840,0.000
1606143417.081,-199.707,-48.340,-44.434,-494.141,0.000
1606143417.085,-103.516,-38.574,-41.992,-278.809,0.000
1606143417.089,98.145,-24.414,-26.855,264.648,0.000
1606143417.092,128.906,-22.949,-24.902,405.762,0.000
1606143417.096,-51.758,-34.180,-32.715,-50.293,0.000
1606143417.100,-189.941,-40.527,-32.715,-471.191,0.000
1606143417.104,-109.863,-8.301,-23.926,-327.637,0.000
1606143417.108,88.379,-4.883,-22.949,207.031,0.000
1606143417.112,141.113,-25.879,-16.602,416.992,0.000
1606143417.116,-19.531,-28.320,-20.996,27.344,0.000
1606143417.120,-189.941,-39.062,-38.086,-456.055,0.000
1606143417.124,-141.602,-36.133,-30.762,-387.207,0.000
1606143417.128,60.059,-28.320,-22.949,158.691,0.000
1606143417.132,137.207,-28.320,-18.555,432.617,0.000
1606143417.135,-1.465,-25.879,-17.578,100.098,0.000
1606143417.139,-167.480,-36.621,-28.809,-390.625,0.000
1606143417.143,-151.367,-8.301,-38.574,-420.410,0.000
1606143417.147,38.086,26.367,-32.715,79.590,0.000
1606143417.151,145.508,-13.672,-17.090,430.664,0.000
1606143417.155,29.785,-28.320,-16.602,167.480,0.000
1606143417.159,-157.715,-33.691,-24.902,-366.211,0.000
1606143417.163,-170.410,-40.039,-25.879,-456.543,0.000
1606143417.167,17.578,-29.297,-16.602,32.227,0.000
1606143417.171,140.137,-32.715,-17.578,422.363,0.000
