timestamps,TP9,AF7,AF8,TP10,Right AUX
1606134124.914,0.000,0.000,0.000,0.000,0.000
1606134124.918,-0.977,-0.488,-0.488,-1.953,0.000
1606134124.921,0.977,-1.465,-0.977,3.418,0.000
1606134124.925,3.418,2.930,1.953,14.160,0.000
1606134124.929,-16.113,-16.113,-11.230,-61.035,0.000
1606134124.933,63.477,-30.273,-19.531,253.906,0.000
1606134124.937,124.023,-24.902,-14.648,513.672,0.000
1606134124.941,-23.438,-37.598,-26.855,8.789,0.000
1606134124.945,-169.434,-44.922,-35.645,-518.555,0.000
1606134124.949,-125.488,-39.551,-34.668,-390.625,0.000
1606134124.953,54.688,-25.879,-30.762,245.605,0.000
1606134124.957,123.535,-22.949,-30.762,516.602,0.000
1606134124.961,3.906,-31.738,-32.715,65.430,0.000
1606134124.964,-167.480,-41.992,-30.273,-493.652,0.000
1606134124.968,-153.809,-40.039,-31.738,-450.684,0.000
1606134124.972,34.180,-29.785,-28.809,173.828,0.000
1606134124.976,120.605,-24.414,-20.020,526.367,0.000
1606134124.980,6.348,-27.344,-22.949,150.879,0.000
1606134124.984,-162.598,-37.109,-25.879,-444.336,0.000
1606134124.988,-162.109,-41.504,-21.484,-502.930,0.000
1606134124.992,20.020,-31.250,-23.926,89.844,0.000
1606134124.996,130.371,-26.367,-20.508,513.672,0.000
1606134125.000,35.645,-27.344,-17.090,223.633,0.000
1606134125.004,-138.184,-28.809,-33.203,-409.180,0.000
1606134125.007,-164.062,-31.738,-42.480,-550.293,0.000
1606134125.011,7.324,-25.391,-37.598,35.645,0.000
1606134125.015,138.672,-20.996,-25.391,536.621,0.000
1606134125.019,60.059,-27.344,-28.809,311.035,0.000
1606134125.023,-110.840,-37.598,-38.574,-356.934,0.000
1606134125.027,-158.203,-37.109,-36.133,-568.848,0.000
1606134125.031,-20.996,-20.996,-21.484,-20.020,0.000
1606134125.035,122.559,-18.555,-15.137,537.598,0.000
1606134125.039,73.242,-26.855,-28.809,399.902,0.000
1606134125.043,-121.094,-41.504,-37.109,-279.785,0.000
1606134125.046,-196.777,-41.504,-38.574,-594.238,0.000
1606134125.050,-47.852,-27.344,-33.203,-125.488,0.000
1606134125.054,125.000,-17.090,-23.926,493.652,0.000
1606134125.058,108.398,-17.090,-26.855,473.633,0.000
1606134125.062,-80.566,-27.344,-35.156,-193.848,0.000
1606134125.066,-187.988,-36.133,-34.668,-616.211,0.000
1606134125.070,-78.613,-32.227,-26.855,-253.418,0.000
1606134125.074,114.746,-12.695,-13.672,424.316,0.000
1606134125.078,125.977,-20.020,-21.484,510.742,0.000
1606134125.082,-68.848,-41.992,-42.969,-150.391,0.000
1606134125.086,-169.922,-33.203,-37.598,-618.652,0.000
1606134125.089,-84.473,-32.715,-34.668,-306.152,0.000
1606134125.093,73.730,-21.484,-30.273,384.766,0.000
1606134125.097,126.953,-17.090,-19.531,560.059,0.000
1606134125.101,-36.621,-31.738,-26.367,-40.039,0.000
1606134125.105,-175.293,-36.133,-39.062,-581.543,0.000
1606134125.109,-99.609,-34.668,-39.062,-367.676,0.000
1606134125.113,88.867,-21.484,-25.391,337.891,0.000
1606134125.117,148.926,-19.531,-18.066,589.844,0.000
1606134125.121,-12.695,-29.785,-29.785,58.105,0.000
1606134125.125,-167.969,-25.391,-30.762,-516.113,0.000
1606134125.129,-118.164,-22.949,-26.855,-416.016,0.000
1606134125.132,74.707,-19.043,-28.809,270.020,0.000
1606134125.136,163.086,-8.301,-21.973,621.094,0.000
1606134125.140,28.809,-11.230,-17.578,161.621,0.000
1606134125.144,-142.578,-20.020,-31.738,-480.957,0.000
1606134125.148,-134.766,-24.414,-40.039,-488.281,0.000
1606134125.152,48.828,-18.066,-21.973,189.941,0.000
1606134125.156,152.832,-5.371,-11.230,601.562,0.000
1606134125.160,28.320,-14.160,-13.184,213.379,0.000
1606134125.164,-159.180,-31.738,-22.461,-454.590,0.000
1606134125.168,-185.547,-37.598,-32.715,-560.547,0.000
1606134125.171,3.906,-27.344,-28.320,78.125,0.000
1606134125.175,140.625,-15.625,-23.438,561.035,0.000
1606134125.179,34.180,-13.672,-23.438,277.344,0.000
1606134125.183,-150.391,-25.879,-32.227,-404.297,0.000
1606134125.187,-177.246,-29.785,-33.691,-596.680,0.000
1606134125.191,-21.973,-17.578,-27.344,-16.602,0.000
1606134125.195,114.746,-14.648,-24.902,529.785,0.000
1606134125.199,54.688,-19.043,-25.879,341.309,0.000
1606134125.203,-138.184,-25.391,-30.273,-352.051,0.000
1606134125.207,-204.590,-36.133,-34.180,-625.977,0.000
1606134125.211,-50.781,-27.832,-31.250,-96.191,0.000
1606134125.214,100.586,-19.531,-21.484,457.520,0.000
1606134125.218,55.176,-28.809,-25.391,357.910,0.000
1606134125.222,-111.816,-33.691,-40.527,-268.555,0.000
1606134125.226,-191.406,-40.527,-37.109,-624.023,0.000
1606134125.230,-50.781,-4.883,-26.367,-182.129,0.000
1606134125.234,127.441,17.090,-20.508,461.914,0.000
1606134125.238,108.887,-20.508,-19.531,474.121,0.000
1606134125.242,-73.730,-36.133,-30.273,-193.359,0.000
1606134125.246,-180.664,-41.992,-35.156,-626.953,0.000
1606134125.250,-70.801,-37.598,-27.832,-260.254,0.000
1606134125.254,107.910,-24.414,-20.996,421.387,0.000
1606134125.257,122.559,-23.438,-25.879,520.996,0.000
1606134125.261,-48.828,-35.156,-30.762,-118.652,0.000
1606134125.265,-179.688,-40.039,-37.598,-616.211,0.000
1606134125.269,-104.004,-35.156,-32.715,-351.074,0.000
1606134125.273,92.285,-29.297,-25.879,346.191,0.000
1606134125.277,139.160,-10.254,-27.344,557.617,0.000
1606134125.281,-24.414,-2.930,-30.273,-14.160,0.000
1606134125.285,-174.805,-31.738,-36.621,-581.055,0.000
1606134125.289,-109.863,-33.691,-34.180,-408.203,0.000
1606134125.293,89.355,-20.508,-16.602,312.012,0.000
1606134125.296,148.438,-18.066,-14.648,607.910,0.000
1606134125.300,-6.836,-25.879,-33.203,66.895,0.000
1606134125.304,-180.664,-45.410,-36.621,-568.359,0.000
1606134125.308,-152.832,-34.668,-26.855,-479.492,0.000
1606134125.312,55.176,-1.953,-22.949,252.930,0.000
1606134125.316,155.273,1.953,-22.461,627.930,0.000
1606134125.320,11.719,-12.207,-21.973,139.160,0.000
1606134125.324,-191.895,-24.414,-40.527,-567.871,0.000
1606134125.328,-183.105,-24.414,-49.316,-605.469,0.000
1606134125.332,16.113,-13.672,-24.902,111.816,0.000
1606134125.336,133.789,-17.090,-18.555,592.285,0.000
1606134125.339,19.043,-2.441,-36.621,209.473,0.000
1606134125.343,-182.129,-1.465,-41.992,-519.531,0.000
1606134125.347,-204.590,-34.668,-36.133,-661.621,0.000
1606134125.351,-3.906,-27.832,-23.926,12.695,0.000
1606134125.355,151.367,-20.020,-22.949,573.730,0.000
1606134125.359,56.152,-23.438,-37.598,304.199,0.000
1606134125.363,-153.320,-37.109,-49.805,-444.336,0.000
1606134125.367,-194.336,-47.363,-42.969,-686.523,0.000
1606134125.371,-7.812,-39.551,-30.273,-70.312,0.000
1606134125.375,152.344,-23.926,-27.832,540.527,0.000
1606134125.379,94.727,-25.391,-35.645,356.445,0.000
1606134125.382,-123.535,-42.480,-45.898,-391.602,0.000
1606134125.386,-215.820,-45.898,-47.852,-709.961,0.000
1606134125.390,-55.664,-36.133,-33.203,-166.504,0.000
1606134125.394,125.000,-27.344,-25.391,496.582,0.000
1606134125.398,101.074,-30.273,-33.691,439.453,0.000
1606134125.402,-100.586,-42.480,-35.156,-282.715,0.000
1606134125.406,-209.961,-44.922,-37.109,-680.664,0.000
1606134125.410,-79.102,-33.203,-21.484,-230.957,0.000
1606134125.414,115.234,-29.297,-10.742,460.938,0.000
1606134125.418,111.328,-14.648,-25.391,500.000,0.000
1606134125.421,-92.773,13.672,-34.668,-198.730,0.000
1606134125.425,-221.191,-20.508,-37.109,-675.293,0.000
1606134125.429,-109.375,-42.969,-22.461,-312.012,0.000
1606134125.433,90.820,-22.461,-11.230,406.738,0.000
1606134125.437,118.164,-17.578,-13.672,547.852,0.000
1606134125.441,-62.988,-31.250,-20.508,-103.027,0.000
1606134125.445,-206.055,-44.922,-34.180,-647.461,0.000
1606134125.449,-110.352,-36.621,-30.762,-389.160,0.000
1606134125.453,92.773,-23.438,-3.906,341.797,0.000
1606134125.457,124.512,-16.113,-6.836,573.730,0.000
1606134125.461,-44.434,-16.113,-34.668,-21.484,0.000
1606134125.464,-198.242,-39.062,-37.598,-624.023,0.000
1606134125.468,-138.184,-42.969,-30.273,-463.867,0.000
1606134125.472,63.965,-26.367,-17.090,265.625,0.000
1606134125.476,143.555,-21.973,-4.883,582.520,0.000
1606134125.480,-10.254,-35.156,-12.695,64.453,0.000
1606134125.484,-179.199,-45.410,-25.879,-566.895,0.000
1606134125.488,-145.508,-41.504,-20.020,-509.277,0.000
1606134125.492,53.711,-29.785,-8.789,196.777,0.000
1606134125.496,149.902,-20.996,-14.648,601.562,0.000
1606134125.500,21.484,-13.672,-34.180,173.828,0.000
1606134125.504,-157.227,-22.461,-44.434,-522.461,0.000
1606134125.507,-158.691,-36.621,-35.645,-579.590,0.000
1606134125.511,37.109,-21.973,-21.484,124.023,0.000
1606134125.515,161.133,-9.766,-14.648,607.422,0.000
1606134125.519,59.570,-20.020,-20.020,248.047,0.000
1606134125.523,-142.090,-41.504,-21.484,-470.703,0.000
1606134125.527,-195.312,-46.875,-24.902,-624.512,0.000
1606134125.531,-13.672,-28.320,-22.949,20.996,0.000
1606134125.535,137.695,-16.602,-15.137,580.078,0.000
1606134125.539,57.129,-26.367,-25.879,329.102,0.000
1606134125.543,-153.809,-38.086,-35.645,-401.855,0.000
1606134125.546,-209.473,-37.598,-30.762,-646.484,0.000
1606134125.550,-41.992,-22.949,-19.531,-61.523,0.000
1606134125.554,126.953,-7.324,-3.418,552.734,0.000
1606134125.558,69.824,-15.137,-3.418,399.414,0.000
1606134125.562,-144.043,-27.832,-10.254,-340.820,0.000
1606134125.566,-217.773,-33.203,-18.555,-682.617,0.000
1606134125.570,-66.895,-25.391,-21.484,-161.621,0.000
1606134125.574,120.605,-17.090,-6.348,522.461,0.000
1606134125.578,104.004,-20.020,-11.230,489.746,0.000
1606134125.582,-96.680,-32.227,-28.320,-242.676,0.000
1606134125.586,-191.406,-38.086,-24.414,-669.922,0.000
1606134125.589,-76.660,-25.391,-22.461,-231.934,0.000
1606134125.593,117.676,-3.418,-18.066,480.957,0.000
1606134125.597,142.578,0.977,-7.324,549.316,0.000
1606134125.601,-64.453,-14.160,-20.508,-164.551,0.000
1606134125.605,-192.871,-23.438,-34.180,-675.781,0.000
1606134125.609,-72.266,-13.184,-17.578,-312.012,0.000
1606134125.613,127.930,-1.953,-7.324,433.105,0.000
1606134125.617,159.180,-6.836,-10.254,592.773,0.000
1606134125.621,-21.484,-17.090,-21.484,-59.570,0.000
1606134125.625,-173.828,-22.461,-33.691,-625.977,0.000
1606134125.629,-93.750,-20.996,-22.949,-385.254,0.000
1606134125.632,113.281,-9.766,-13.672,367.188,0.000
1606134125.636,168.457,-3.418,-11.230,632.324,0.000
1606134125.640,-9.766,-18.555,-14.648,37.598,0.000
1606134125.644,-175.293,-28.320,-22.461,-595.703,0.000
1606134125.648,-123.047,-24.902,-20.996,-470.703,0.000
1606134125.652,74.707,-18.066,-12.207,265.625,0.000
1606134125.656,153.809,-13.672,-7.324,620.605,0.000
1606134125.660,8.301,-21.484,-10.742,113.770,0.000
1606134125.664,-173.340,-29.297,-25.391,-565.430,0.000
1606134125.668,-156.250,-27.344,-24.414,-548.828,0.000
1606134125.671,38.086,-17.090,-6.348,188.477,0.000
1606134125.675,145.508,-8.789,-6.836,631.348,0.000
1606134125.679,19.531,-15.625,-21.484,201.172,0.000
1606134125.683,-173.340,-34.668,-31.738,-508.789,0.000
1606134125.687,-178.711,-34.668,-25.391,-578.613,0.000
1606134125.691,17.090,-14.160,-18.555,123.535,0.000
1606134125.695,145.996,-15.137,-16.602,621.582,0.000
1606134125.699,47.363,-11.230,-16.113,288.574,0.000
1606134125.703,-137.207,-2.930,-14.648,-409.180,0.000
1606134125.707,-170.898,-27.344,-18.555,-585.449,0.000
1606134125.711,0.977,-32.715,-16.602,29.785,0.000
1606134125.714,142.090,-21.484,-15.625,590.820,0.000
1606134125.718,58.594,-20.508,-17.578,361.816,0.000
1606134125.722,-121.582,-32.715,-22.461,-362.305,0.000
1606134125.726,-178.711,-43.457,-30.273,-627.930,0.000
1606134125.730,-34.668,-28.320,-11.230,-66.406,0.000
1606134125.734,130.859,-21.484,2.930,541.504,0.000
1606134125.738,81.543,-20.508,-6.836,403.809,0.000
1606134125.742,-110.840,-21.973,-14.160,-314.453,0.000
1606134125.746,-169.434,-37.598,-18.066,-637.695,0.000
1606134125.750,-23.438,-18.555,-21.973,-138.184,0.000
1606134125.754,122.559,-5.371,-17.578,481.445,0.000
1606134125.757,100.586,-10.254,-16.113,440.918,0.000
1606134125.761,-64.453,-12.207,-20.996,-219.238,0.000
1606134125.765,-144.043,-19.531,-28.809,-603.027,0.000
1606134125.769,-31.738,-15.625,-25.879,-202.637,0.000
1606134125.773,144.531,-6.348,-15.137,472.656,0.000
1606134125.777,165.039,-1.465,-15.625,562.012,0.000
1606134125.781,-11.719,5.371,-21.973,-78.125,0.000
1606134125.785,-135.742,-5.371,-31.738,-577.148,0.000
1606134125.789,-45.410,-9.766,-26.855,-287.598,0.000
1606134125.793,155.762,2.930,-12.695,411.621,0.000
1606134125.796,194.824,1.465,-22.949,583.496,0.000
1606134125.800,1.465,-11.230,-38.574,-29.297,0.000
1606134125.804,-140.137,-20.020,-38.574,-582.520,0.000
1606134125.808,-69.336,-16.113,-40.039,-364.258,0.000
1606134125.812,130.371,3.418,-21.484,354.980,0.000
1606134125.816,187.988,6.348,0.000,602.539,0.000
1606134125.820,30.273,-11.230,-16.602,49.805,0.000
1606134125.824,-130.371,-22.949,-34.180,-539.551,0.000
1606134125.828,-92.285,-22.949,-35.156,-436.523,0.000
1606134125.832,101.562,-11.230,-17.090,244.141,0.000
1606134125.836,174.316,-4.883,-6.348,574.707,0.000
1606134125.839,29.297,-9.277,-15.137,107.910,0.000
1606134125.843,-141.113,-18.555,-23.438,-526.855,0.000
1606134125.847,-122.559,-20.020,-25.879,-517.578,0.000
1606134125.851,67.383,-9.277,-15.625,163.086,0.000
1606134125.855,175.781,-4.883,-5.371,591.309,0.000
1606134125.859,65.430,-8.789,-10.742,211.914,0.000
1606134125.863,-132.812,-19.043,-23.926,-463.867,0.000
1606134125.867,-143.066,-26.855,-30.273,-545.410,0.000
1606134125.871,56.641,-11.719,-10.742,116.211,0.000
1606134125.875,184.082,-1.953,2.441,611.816,0.000
1606134125.879,83.496,-0.488,-16.113,305.176,0.000
1606134125.882,-110.840,-2.441,-29.785,-400.879,0.000
1606134125.886,-146.484,-21.484,-23.438,-579.590,0.000
1606134125.890,20.508,-12.207,-7.324,15.625,0.000
1606134125.894,153.809,0.977,-3.906,557.129,0.000
1606134125.898,77.148,-11.230,-13.184,355.469,0.000
1606134125.902,-121.582,-22.949,-22.461,-348.145,0.000
1606134125.906,-186.523,-27.832,-26.367,-617.188,0.000
1606134125.910,-28.809,-18.066,-16.602,-76.660,0.000
1606134125.914,138.672,-4.883,-3.906,529.785,0.000
1606134125.918,93.262,-7.324,-11.719,431.641,0.000
1606134125.921,-104.492,-28.320,-27.344,-269.043,0.000
1606134125.925,-190.430,-31.250,-22.461,-622.559,0.000
1606134125.929,-48.340,-13.672,-15.625,-152.344,0.000
1606134125.933,121.582,-8.301,-13.184,478.027,0.000
1606134125.937,104.492,-2.930,-15.625,471.191,0.000
1606134125.941,-83.008,-13.184,-20.020,-209.473,0.000
1606134125.945,-201.172,-28.809,-20.996,-652.832,0.000
1606134125.949,-89.844,-19.043,-17.578,-272.461,0.000
1606134125.953,102.539,-2.441,-5.859,416.504,0.000
1606134125.957,118.652,-5.859,-4.395,507.812,0.000
1606134125.961,-69.336,-23.438,-24.902,-153.809,0.000
1606134125.964,-197.266,-29.297,-24.902,-654.785,0.000
1606134125.968,-92.285,-17.578,-14.160,-360.352,0.000
1606134125.972,83.984,-12.207,-18.555,333.496,0.000
1606134125.976,115.234,-16.602,-18.555,515.137,0.000
1606134125.980,-43.457,-19.531,-26.855,-92.285,0.000
1606134125.984,-191.895,-24.414,-29.297,-637.695,0.000
1606134125.988,-117.676,-23.438,-18.066,-432.617,0.000
1606134125.992,81.543,-11.719,-3.906,277.344,0.000
1606134125.996,141.602,-14.160,-2.930,562.988,0.000
1606134126.000,-7.324,-20.508,-8.789,36.621,0.000
1606134126.004,-173.340,-29.297,-16.602,-586.426,0.000
1606134126.007,-145.508,-35.645,-26.367,-514.160,0.000
1606134126.011,53.711,-14.648,-14.160,210.449,0.000
1606134126.015,143.066,-2.441,-7.812,587.891,0.000
1606134126.019,-5.859,-18.555,-22.461,111.328,0.000
1606134126.023,-185.547,-32.227,-31.250,-561.035,0.000
1606134126.027,-159.668,-31.738,-21.484,-571.777,0.000
1606134126.031,31.738,-19.043,-6.836,134.277,0.000
1606134126.035,138.672,-8.301,-10.742,588.379,0.000
1606134126.039,33.203,-19.531,-20.020,218.262,0.000
1606134126.043,-149.414,-35.156,-21.973,-464.355,0.000
1606134126.046,-159.180,-29.297,-30.273,-564.941,0.000
1606134126.050,31.738,-17.578,-26.855,94.727,0.000
1606134126.054,158.203,-8.789,-18.066,605.957,0.000
1606134126.058,63.477,-19.531,-23.438,327.637,0.000
1606134126.062,-127.930,-33.203,-34.668,-373.047,0.000
1606134126.066,-173.340,-27.832,-39.551,-589.355,0.000
1606134126.070,-0.977,-20.020,-24.414,5.371,0.000
1606134126.074,149.902,-5.859,-6.836,591.797,0.000
1606134126.078,83.984,-10.254,-17.578,418.457,0.000
1606134126.082,-115.723,-33.203,-26.855,-289.062,0.000
1606134126.086,-173.828,-38.086,-21.973,-564.941,0.000
1606134126.089,-12.695,-28.809,-18.555,-16.113,0.000
1606134126.093,156.738,-14.648,-10.742,621.094,0.000
1606134126.097,113.770,-11.719,-26.367,538.574,0.000
1606134126.101,-89.355,-33.203,-41.504,-160.156,0.000
1606134126.105,-173.828,-40.527,-37.109,-510.742,0.000
1606134126.109,-55.664,-30.762,-30.762,-90.332,0.000
1606134126.113,110.352,-20.020,-14.160,532.715,0.000
1606134126.117,104.492,-19.043,-7.324,541.016,0.000
1606134126.121,-89.844,-30.273,-19.043,-142.090,0.000
1606134126.125,-203.613,-38.086,-31.738,-596.191,0.000
1606134126.129,-73.730,-25.879,-21.484,-253.418,0.000
1606134126.132,103.027,-11.719,-9.766,423.828,0.000
1606134126.136,100.586,-21.484,-18.555,532.227,0.000
1606134126.140,-61.035,-30.762,-27.344,-99.609,0.000
1606134126.144,-189.453,-31.738,-31.738,-609.863,0.000
1606134126.148,-112.305,-35.645,-32.715,-372.559,0.000
1606134126.152,83.984,-21.484,-17.578,316.895,0.000
1606134126.156,137.695,-6.836,-8.301,538.086,0.000
1606134126.160,-24.414,-23.926,-21.973,-34.668,0.000
1606134126.164,-171.875,-35.645,-25.391,-604.004,0.000
1606134126.168,-122.559,-29.297,-22.949,-466.797,0.000
1606134126.171,59.570,-22.461,-22.949,216.797,0.000
1606134126.175,127.441,-18.555,-24.414,515.625,0.000
1606134126.179,-20.508,-27.832,-33.691,9.766,0.000
1606134126.183,-182.617,-39.062,-40.527,-601.562,0.000
1606134126.187,-151.855,-30.273,-34.180,-534.668,0.000
1606134126.191,39.062,-14.160,-18.555,145.996,0.000
1606134126.195,134.277,-9.277,-13.184,516.113,0.000
1606134126.199,4.395,-23.926,-22.461,104.980,0.000
1606134126.203,-154.297,-32.227,-29.785,-532.715,0.000
1606134126.207,-153.320,-31.250,-28.320,-572.754,0.000
1606134126.211,4.395,-20.996,-20.508,90.820,0.000
1606134126.214,126.465,-10.742,-20.996,548.340,0.000
1606134126.218,33.203,-19.043,-27.832,216.309,0.000
1606134126.222,-161.133,-33.691,-32.715,-454.102,0.000
1606134126.226,-181.152,-36.621,-28.809,-591.797,0.000
1606134126.230,-6.836,-20.996,-20.508,24.414,0.000
1606134126.234,119.629,-11.230,-13.672,546.387,0.000
1606134126.238,41.016,-21.973,-16.602,300.781,0.000
1606134126.242,-154.785,-37.109,-31.738,-393.066,0.000
1606134126.246,-208.008,-40.527,-35.645,-620.117,0.000
1606134126.250,-48.828,-30.762,-20.508,-55.176,0.000
1606134126.254,104.492,-19.043,-9.766,515.137,0.000
1606134126.257,59.570,-24.902,-17.090,352.539,0.000
1606134126.261,-128.418,-41.504,-31.250,-339.844,0.000
1606134126.265,-204.102,-41.504,-36.133,-634.277,0.000
1606134126.269,-58.105,-37.109,-29.297,-148.438,0.000
1606134126.273,112.305,-28.320,-21.973,464.355,0.000
1606134126.277,89.844,-24.414,-22.949,422.852,0.000
1606134126.281,-98.145,-43.945,-30.273,-249.023,0.000
1606134126.285,-186.523,-52.734,-37.598,-626.465,0.000
1606134126.289,-67.383,-39.062,-28.809,-217.285,0.000
1606134126.293,112.305,-21.973,-9.277,430.176,0.000
1606134126.296,120.605,-18.066,-3.418,476.562,0.000
1606134126.300,-87.891,-31.738,-25.391,-194.336,0.000
1606134126.304,-211.426,-47.852,-39.062,-651.855,0.000
1606134126.308,-102.051,-49.805,-29.297,-313.477,0.000
1606134126.312,83.984,-35.156,-23.438,374.023,0.000
1606134126.316,110.352,-22.461,-25.391,521.484,0.000
1606134126.320,-58.105,-30.273,-30.762,-93.262,0.000
1606134126.324,-204.102,-44.922,-38.086,-622.559,0.000
1606134126.328,-137.207,-38.086,-32.227,-389.648,0.000
1606134126.332,50.781,-28.320,-22.461,303.223,0.000
1606134126.336,100.586,-28.809,-21.973,542.969,0.000
1606134126.339,-59.570,-39.062,-30.762,-11.719,0.000
1606134126.343,-211.426,-52.246,-35.645,-596.680,0.000
1606134126.347,-164.551,-50.781,-35.156,-463.867,0.000
1606134126.351,27.344,-35.645,-33.203,237.305,0.000
1606134126.355,108.887,-21.484,-20.508,557.129,0.000
1606134126.359,-31.738,-31.738,-27.832,59.570,0.000
1606134126.363,-200.684,-49.805,-40.527,-572.266,0.000
1606134126.367,-175.781,-46.387,-31.250,-530.273,0.000
1606134126.371,25.391,-29.297,-28.320,166.992,0.000
1606134126.375,123.535,-25.391,-30.273,568.848,0.000
1606134126.379,-1.953,-29.297,-31.250,158.203,0.000
1606134126.382,-172.363,-34.180,-37.598,-507.324,0.000
1606134126.386,-167.969,-35.156,-39.551,-569.336,0.000
1606134126.390,21.973,-17.090,-24.902,96.191,0.000
1606134126.394,137.207,-13.184,-18.555,563.477,0.000
1606134126.398,41.992,-11.230,-27.832,243.652,0.000
1606134126.402,-145.020,-18.066,-41.016,-451.172,0.000
1606134126.406,-173.340,-29.785,-41.016,-611.328,0.000
1606134126.410,3.906,-19.043,-24.414,17.578,0.000
1606134126.414,143.066,-15.137,-8.301,558.105,0.000
1606134126.418,67.383,-27.832,-20.020,324.707,0.000
1606134126.421,-134.766,-42.480,-38.574,-384.766,0.000
1606134126.425,-192.871,-43.457,-33.691,-629.883,0.000
1606134126.429,-25.879,-34.180,-27.832,-67.871,0.000
1606134126.433,133.789,-25.879,-22.461,528.320,0.000
1606134126.437,83.984,-20.020,-26.855,410.645,0.000
1606134126.441,-109.375,-24.414,-39.062,-289.062,0.000
1606134126.445,-196.289,-41.504,-44.922,-630.859,0.000
1606134126.449,-60.059,-37.598,-36.621,-154.297,0.000
1606134126.453,113.281,-17.578,-21.484,491.211,0.000
1606134126.457,89.355,-20.508,-27.832,467.285,0.000
1606134126.461,-107.422,-38.574,-39.062,-226.074,0.000
1606134126.464,-202.148,-45.410,-32.715,-635.254,0.000
1606134126.468,-83.496,-41.016,-28.320,-227.539,0.000
1606134126.472,95.215,-28.809,-23.926,433.594,0.000
1606134126.476,102.051,-26.855,-37.109,466.309,0.000
1606134126.480,-111.328,-41.992,-54.688,-205.566,0.000
1606134126.484,-236.816,-54.199,-48.340,-653.809,0.000
1606134126.488,-116.699,-46.387,-45.898,-335.938,0.000
1606134126.492,81.055,-30.273,-41.504,352.539,0.000
1606134126.496,106.445,-25.879,-32.227,520.020,0.000
1606134126.500,-66.406,-39.551,-37.598,-74.707,0.000
1606134126.504,-199.707,-49.805,-41.504,-606.445,0.000
1606134126.507,-125.977,-41.992,-36.621,-397.949,0.000
1606134126.511,69.336,-27.832,-30.762,302.246,0.000
1606134126.515,128.906,-24.414,-21.973,558.594,0.000
1606134126.519,-31.738,-37.598,-30.273,20.020,0.000
1606134126.523,-186.035,-48.340,-41.504,-574.219,0.000
1606134126.527,-137.207,-38.574,-32.715,-451.660,0.000
1606134126.531,48.828,-26.367,-26.367,241.699,0.000
1606134126.535,126.465,-20.020,-25.391,564.453,0.000
1606134126.539,-9.766,-35.645,-35.156,95.215,0.000
1606134126.543,-182.129,-54.688,-43.945,-539.062,0.000
1606134126.546,-163.574,-43.457,-40.039,-519.531,0.000
1606134126.550,25.391,-26.367,-24.414,160.156,0.000
1606134126.554,125.488,-20.508,-16.602,572.754,0.000
1606134126.558,13.672,-29.785,-24.902,191.895,0.000
1606134126.562,-161.133,-42.969,-34.180,-462.402,0.000
1606134126.566,-171.387,-45.410,-49.316,-551.270,0.000
1606134126.570,-0.488,-35.156,-44.434,76.172,0.000
1606134126.574,114.258,-26.367,-34.668,556.641,0.000
1606134126.578,22.949,-34.180,-39.062,288.574,0.000
1606134126.582,-159.180,-44.922,-41.016,-394.531,0.000
1606134126.586,-191.895,-37.109,-36.621,-596.680,0.000
1606134126.589,-26.367,-28.809,-32.715,-18.066,0.000
1606134126.593,120.117,-16.602,-22.949,526.855,0.000
1606134126.597,58.105,-20.508,-20.508,338.379,0.000
1606134126.601,-136.719,-40.039,-32.227,-353.516,0.000
1606134126.605,-196.289,-38.574,-35.645,-627.441,0.000
1606134126.609,-37.109,-25.391,-24.902,-101.562,0.000
1606134126.613,115.723,-21.973,-26.367,490.234,0.000
1606134126.617,66.895,-28.320,-33.203,383.301,0.000
1606134126.621,-104.492,-33.203,-39.062,-293.945,0.000
1606134126.625,-194.336,-37.598,-43.457,-627.930,0.000
1606134126.629,-72.266,-32.227,-41.504,-189.941,0.000
1606134126.632,109.863,-20.508,-35.645,435.547,0.000
1606134126.636,100.098,-26.367,-34.668,445.801,0.000
1606134126.640,-85.938,-25.879,-42.480,-218.750,0.000
1606134126.644,-187.988,-25.391,-45.898,-641.113,0.000
1606134126.648,-83.496,-32.715,-35.645,-275.391,0.000
1606134126.652,90.820,-22.461,-29.785,391.113,0.000
1606134126.656,103.027,-22.461,-25.879,487.793,0.000
1606134126.660,-71.777,-33.691,-30.273,-145.020,0.000
1606134126.664,-188.477,-42.969,-43.945,-634.277,0.000
1606134126.668,-108.887,-41.504,-38.574,-354.004,0.000
1606134126.671,72.754,-30.762,-30.762,331.543,0.000
1606134126.675,109.375,-30.273,-30.273,508.301,0.000
1606134126.679,-59.570,-34.180,-39.062,-80.566,0.000
1606134126.683,-198.730,-39.062,-47.363,-628.418,0.000
1606134126.687,-132.324,-37.109,-39.062,-420.898,0.000
1606134126.691,56.641,-21.973,-20.508,283.691,0.000
1606134126.695,116.699,-17.090,-18.555,544.922,0.000
1606134126.699,-29.297,-28.809,-33.203,30.762,0.000
1606134126.703,-192.871,-44.922,-41.504,-559.570,0.000
1606134126.707,-153.320,-42.969,-39.551,-477.051,0.000
1606134126.711,34.668,-28.809,-31.250,187.500,0.000
1606134126.714,108.398,-32.227,-27.344,527.832,0.000
1606134126.718,-8.789,-21.973,-33.691,120.605,0.000
1606134126.722,-168.945,-6.836,-43.945,-499.023,0.000
1606134126.726,-168.945,-29.297,-44.922,-534.668,0.000
1606134126.730,8.789,-34.180,-32.227,106.445,0.000
1606134126.734,127.441,-21.973,-23.438,538.574,0.000
1606134126.738,20.020,-32.227,-29.297,202.637,0.000
1606134126.742,-160.645,-50.293,-33.203,-454.102,0.000
1606134126.746,-172.852,-49.805,-38.574,-573.730,0.000
1606134126.750,0.977,-39.062,-41.016,55.176,0.000
1606134126.754,129.395,-33.203,-34.180,553.223,0.000
1606134126.757,48.340,-29.785,-27.832,289.551,0.000
1606134126.761,-138.672,-37.598,-34.668,-374.512,0.000
1606134126.765,-180.176,-45.898,-45.898,-575.195,0.000
1606134126.769,-23.438,-42.480,-37.598,-25.879,0.000
1606134126.773,117.188,-34.180,-19.531,519.043,0.000
1606134126.777,62.500,-33.691,-13.184,354.492,0.000
1606134126.781,-124.512,-39.551,-30.762,-329.590,0.000
1606134126.785,-187.012,-42.480,-34.180,-612.305,0.000
1606134126.789,-39.551,-33.691,-23.926,-108.398,0.000
1606134126.793,114.746,-24.414,-17.090,491.699,0.000
1606134126.796,72.754,-33.691,-22.949,428.711,0.000
1606134126.800,-117.188,-47.852,-39.062,-249.512,0.000
1606134126.804,-207.520,-51.758,-41.504,-621.582,0.000
1606134126.808,-87.891,-42.480,-37.598,-204.590,0.000
1606134126.812,88.867,-28.320,-26.367,439.453,0.000
1606134126.816,90.820,-33.691,-25.391,478.516,0.000
1606134126.820,-98.145,-31.250,-38.574,-186.035,0.000
1606134126.824,-216.309,-36.133,-37.598,-647.949,0.000
1606134126.828,-106.445,-51.270,-26.367,-310.059,0.000
1606134126.832,81.055,-34.668,-19.043,373.535,0.000
1606134126.836,103.027,-36.133,-22.461,503.906,0.000
1606134126.839,-71.289,-49.805,-34.668,-112.793,0.000
1606134126.843,-204.590,-49.316,-40.527,-616.699,0.000
1606134126.847,-125.977,-46.387,-39.062,-382.812,0.000
1606134126.851,59.082,-41.016,-32.715,307.617,0.000
1606134126.855,115.234,-36.133,-27.832,549.316,0.000
1606134126.859,-40.039,-37.598,-33.691,-8.789,0.000
1606134126.863,-194.336,-49.805,-41.504,-594.727,0.000
1606134126.867,-136.719,-51.758,-33.203,-445.312,0.000
1606134126.871,58.105,-38.086,-20.508,254.883,0.000
1606134126.875,125.000,-37.109,-17.090,560.059,0.000
1606134126.879,-22.949,-46.387,-26.367,74.219,0.000
1606134126.882,-185.547,-58.105,-36.133,-555.176,0.000
1606134126.886,-161.133,-57.129,-37.109,-527.832,0.000
1606134126.890,19.043,-44.922,-29.785,157.227,0.000
1606134126.894,107.910,-41.504,-26.367,546.387,0.000
1606134126.898,-10.742,-46.387,-26.855,134.766,0.000
1606134126.902,-187.012,-51.758,-32.227,-517.578,0.000
1606134126.906,-197.266,-53.711,-43.457,-578.613,0.000
1606134126.910,-21.484,-50.293,-37.598,77.637,0.000
1606134126.914,98.145,-45.898,-23.438,534.668,0.000
1606134126.918,8.789,-44.434,-26.367,213.379,0.000
1606134126.921,-177.246,-50.293,-41.016,-466.797,0.000
1606134126.925,-209.961,-54.688,-48.828,-620.117,0.000
1606134126.929,-32.227,-45.410,-41.016,-5.859,0.000
1606134126.933,110.840,-34.180,-37.598,519.531,0.000
1606134126.937,37.598,-34.668,-42.969,299.805,0.000
1606134126.941,-150.391,-47.852,-47.852,-391.602,0.000
1606134126.945,-199.219,-50.293,-39.551,-641.602,0.000
1606134126.949,-38.086,-37.109,-32.715,-84.473,0.000
1606134126.953,113.770,-28.809,-35.645,505.859,0.000
1606134126.957,61.523,-31.250,-41.016,369.141,0.000
1606134126.961,-118.652,-36.621,-50.293,-322.754,0.000
1606134126.964,-189.941,-47.363,-46.875,-653.320,0.000
1606134126.968,-69.336,-43.945,-36.621,-181.641,0.000
1606134126.972,98.633,-33.203,-28.320,460.449,0.000
1606134126.976,83.008,-32.715,-21.484,446.777,0.000
1606134126.980,-118.164,-47.852,-33.691,-237.305,0.000
1606134126.984,-221.680,-58.105,-43.945,-651.855,0.000
1606134126.988,-95.703,-48.340,-35.156,-249.512,0.000
1606134126.992,88.867,-38.574,-20.508,423.828,0.000
1606134126.996,98.145,-34.668,-20.508,506.836,0.000
1606134127.000,-87.891,-31.738,-32.227,-145.508,0.000
1606134127.004,-215.820,-42.969,-39.551,-641.602,0.000
1606134127.007,-112.305,-42.480,-32.715,-334.961,0.000
1606134127.011,81.543,-29.785,-22.949,368.164,0.000
1606134127.015,118.164,-29.297,-20.020,546.875,0.000
1606134127.019,-51.758,-40.527,-29.297,-58.105,0.000
1606134127.023,-202.637,-53.223,-44.922,-603.516,0.000
1606134127.027,-136.230,-53.711,-48.828,-394.531,0.000
1606134127.031,62.500,-44.434,-34.668,306.641,0.000
1606134127.035,126.953,-33.691,-30.762,565.430,0.000
1606134127.039,-28.320,-36.133,-41.992,17.578,0.000
1606134127.043,-180.664,-42.480,-43.457,-580.078,0.000
1606134127.046,-133.301,-40.527,-35.645,-461.426,0.000
1606134127.050,50.781,-32.227,-26.855,232.422,0.000
1606134127.054,138.184,-28.320,-28.320,568.359,0.000
1606134127.058,3.906,-37.598,-41.992,95.215,0.000
1606134127.062,-182.617,-50.781,-49.316,-557.617,0.000
1606134127.066,-151.367,-51.270,-42.969,-550.781,0.000
1606134127.070,38.574,-40.527,-33.691,140.625,0.000
1606134127.074,128.906,-36.133,-34.180,566.406,0.000
1606134127.078,19.531,-33.203,-38.574,187.012,0.000
1606134127.082,-166.992,-45.410,-39.062,-492.676,0.000
1606134127.086,-182.617,-55.176,-41.016,-597.656,0.000
1606134127.089,4.883,-38.086,-39.062,68.359,0.000
1606134127.093,142.090,-26.855,-26.367,587.891,0.000
1606134127.097,46.875,-34.180,-28.809,279.785,0.000
1606134127.101,-153.809,-35.645,-41.504,-436.035,0.000
1606134127.105,-193.359,-40.039,-43.945,-625.488,0.000
1606134127.109,-17.090,-35.156,-39.062,-19.531,0.000
1606134127.113,131.836,-24.902,-24.902,551.758,0.000
1606134127.117,62.500,-28.809,-22.461,355.957,0.000
1606134127.121,-140.625,-41.504,-34.668,-368.164,0.000
1606134127.125,-205.078,-45.410,-38.574,-652.344,0.000
1606134127.129,-52.734,-35.645,-32.715,-111.816,0.000
1606134127.132,108.398,-26.855,-20.508,508.789,0.000
1606134127.136,72.266,-34.180,-23.926,415.527,0.000
1606134127.140,-131.836,-51.758,-47.363,-305.176,0.000
1606134127.144,-220.215,-58.105,-42.480,-679.199,0.000
1606134127.148,-72.266,-42.969,-27.832,-210.449,0.000
1606134127.152,113.770,-22.461,-25.391,455.078,0.000
1606134127.156,105.469,-22.461,-17.090,462.891,0.000
1606134127.160,-91.797,-38.574,-32.227,-234.863,0.000
1606134127.164,-220.215,-48.340,-45.898,-702.148,0.000
1606134127.168,-106.445,-39.551,-28.320,-337.402,0.000
1606134127.171,89.355,-20.020,-10.254,367.676,0.000
1606134127.175,92.773,-17.090,-10.254,466.797,0.000
1606134127.179,-106.445,-35.645,-19.531,-210.938,0.000
1606134127.183,-248.047,-41.016,-31.738,-737.793,0.000
1606134127.187,-170.898,-25.391,-24.902,-458.008,0.000
1606134127.191,8.301,-9.766,-5.859,246.582,0.000
1606134127.195,16.113,-9.277,-2.441,416.992,0.000
1606134127.199,-179.199,-29.297,-4.395,-204.590,0.000
1606134127.203,-349.121,-40.039,-11.719,-793.457,0.000
1606134127.207,-307.129,-23.438,-14.160,-632.812,0.000
1606134127.211,-104.980,-5.371,8.301,94.727,0.000
1606134127.214,-44.922,-5.859,15.137,389.160,0.000
1606134127.218,-212.402,-11.719,0.977,-157.715,0.000
1606134127.222,-390.625,-16.602,-15.137,-793.945,0.000
1606134127.226,-369.629,-21.973,-15.137,-732.422,0.000
1606134127.230,-181.641,-18.555,1.465,-24.902,0.000
1606134127.234,-94.238,-8.301,0.000,364.746,0.000
1606134127.238,-204.102,-7.324,-19.531,-90.332,0.000
1606134127.242,-383.789,-20.020,-25.879,-765.137,0.000
1606134127.246,-400.879,-19.531,-23.926,-788.574,0.000
1606134127.250,-189.941,1.953,-21.484,-77.148,0.000
1606134127.254,-56.641,11.719,-13.672,395.020,0.000
1606134127.257,-166.016,1.465,-20.020,20.996,0.000
1606134127.261,-351.074,-12.695,-29.785,-670.898,0.000
1606134127.265,-365.723,-20.508,-40.039,-791.504,0.000
1606134127.269,-169.434,-4.883,-28.809,-136.719,0.000
1606134127.273,-15.625,10.742,-11.719,406.250,0.000
1606134127.277,-99.121,-4.883,-23.926,146.973,0.000
1606134127.281,-291.016,-24.902,-33.203,-551.758,0.000
1606134127.285,-321.777,-14.648,-41.992,-765.625,0.000
1606134127.289,-133.789,-5.371,-41.504,-181.152,0.000
1606134127.293,38.574,-4.395,-29.785,412.598,0.000
1606134127.296,-13.184,-12.207,-36.133,269.043,0.000
1606134127.300,-199.707,-26.367,-51.758,-415.527,0.000
1606134127.304,-260.254,-30.273,-60.059,-703.613,0.000
1606134127.308,-95.215,-24.414,-52.734,-181.641,0.000
1606134127.312,93.750,-12.695,-40.527,451.660,0.000
1606134127.316,75.195,-16.113,-41.992,403.320,0.000
1606134127.320,-106.934,-38.086,-48.340,-255.371,0.000
1606134127.324,-188.477,-53.223,-50.293,-604.980,0.000
1606134127.328,-54.199,-45.898,-42.969,-169.922,0.000
1606134127.332,122.559,-36.621,-36.621,465.332,0.000
1606134127.336,122.070,-41.016,-36.133,495.117,0.000
1606134127.339,-58.594,-62.988,-47.363,-159.180,0.000
1606134127.343,-161.133,-69.336,-57.129,-595.215,0.000
1606134127.347,-47.852,-55.664,-48.340,-244.629,0.000
1606134127.351,141.602,-47.363,-36.133,447.754,0.000
1606134127.355,170.410,-46.387,-33.203,595.703,0.000
1606134127.359,-10.254,-58.594,-44.434,-22.949,0.000
1606134127.363,-124.512,-64.453,-54.688,-532.715,0.000
1606134127.367,-45.410,-60.059,-51.270,-288.574,0.000
1606134127.371,123.047,-51.758,-41.016,407.227,0.000
1606134127.375,193.848,-41.504,-40.039,652.832,0.000
1606134127.379,38.086,-44.434,-48.828,82.031,0.000
1606134127.382,-129.883,-61.523,-56.641,-520.996,0.000
1606134127.386,-79.102,-62.012,-52.246,-381.348,0.000
1606134127.390,128.906,-47.363,-44.434,333.008,0.000
1606134127.394,204.590,-43.457,-49.805,648.438,0.000
1606134127.398,53.711,-54.688,-60.059,138.184,0.000
1606134127.402,-111.328,-66.406,-61.523,-500.977,0.000
1606134127.406,-86.914,-57.617,-56.152,-454.590,0.000
1606134127.410,103.516,-47.363,-47.363,244.629,0.000
1606134127.414,203.613,-45.410,-41.992,645.508,0.000
1606134127.418,69.336,-52.734,-46.875,226.074,0.000
1606134127.421,-111.328,-63.477,-61.035,-442.383,0.000
1606134127.425,-112.305,-61.523,-60.547,-502.441,0.000
1606134127.429,76.660,-48.828,-51.758,168.457,0.000
1606134127.433,200.684,-41.016,-46.875,639.648,0.000
1606134127.437,94.238,-47.363,-42.969,309.082,0.000
1606134127.441,-93.262,-61.523,-51.270,-379.395,0.000
1606134127.445,-132.812,-66.406,-62.500,-544.922,0.000
1606134127.449,37.109,-53.711,-50.293,78.125,0.000
1606134127.453,187.012,-40.527,-42.969,624.512,0.000
1606134127.457,109.375,-44.434,-50.293,385.254,0.000
1606134127.461,-84.961,-57.617,-58.105,-331.055,0.000
1606134127.464,-133.301,-58.594,-56.641,-577.637,0.000
1606134127.468,30.273,-42.969,-41.504,-3.418,0.000
1606134127.472,189.453,-36.133,-37.109,589.355,0.000
1606134127.476,135.254,-43.945,-37.109,448.730,0.000
1606134127.480,-69.336,-49.805,-47.363,-264.160,0.000
1606134127.484,-149.414,-48.828,-60.059,-597.168,0.000
1606134127.488,-1.465,-42.969,-45.410,-101.074,0.000
1606134127.492,169.434,-38.574,-36.621,537.109,0.000
1606134127.496,135.254,-44.434,-35.156,499.512,0.000
1606134127.500,-54.688,-52.246,-41.016,-196.777,0.000
1606134127.504,-150.879,-57.617,-45.898,-610.352,0.000
1606134127.507,-46.875,-48.340,-37.109,-198.242,0.000
1606134127.511,129.883,-37.598,-36.133,479.492,0.000
1606134127.515,138.672,-33.203,-41.016,552.246,0.000
1606134127.519,-48.828,-38.574,-51.270,-126.953,0.000
1606134127.523,-179.688,-56.152,-55.176,-625.977,0.000
1606134127.527,-82.520,-57.617,-45.410,-303.223,0.000
1606134127.531,110.840,-39.062,-37.109,397.461,0.000
1606134127.535,147.949,-31.738,-33.203,555.664,0.000
1606134127.539,-31.738,-40.039,-35.156,-66.406,0.000
1606134127.543,-181.152,-53.711,-37.598,-611.816,0.000
1606134127.546,-109.863,-51.758,-37.109,-389.648,0.000
1606134127.550,77.148,-37.109,-25.391,316.406,0.000
1606134127.554,123.047,-34.668,-24.902,560.059,0.000
1606134127.558,-37.109,-43.457,-41.992,8.301,0.000
1606134127.562,-190.430,-50.293,-52.246,-571.289,0.000
1606134127.566,-146.973,-51.758,-50.293,-458.496,0.000
1606134127.570,48.340,-42.480,-45.898,221.191,0.000
1606134127.574,141.602,-36.133,-44.922,552.734,0.000
1606134127.578,11.230,-47.852,-48.340,94.238,0.000
1606134127.582,-157.227,-54.199,-47.363,-523.438,0.000
1606134127.586,-132.812,-45.898,-40.527,-501.465,0.000
1606134127.589,66.406,-32.227,-32.227,177.246,0.000
1606134127.593,170.898,-23.926,-28.320,584.473,0.000
1606134127.597,44.922,-36.133,-41.504,186.523,0.000
1606134127.601,-145.996,-50.781,-52.246,-477.051,0.000
1606134127.605,-151.367,-43.457,-41.016,-549.316,0.000
1606134127.609,35.156,-33.203,-32.227,104.004,0.000
1606134127.613,150.391,-31.250,-31.738,575.684,0.000
1606134127.617,60.547,-33.691,-36.133,270.996,0.000
1606134127.621,-125.977,-45.410,-47.363,-403.320,0.000
1606134127.625,-167.480,-54.199,-45.410,-570.801,0.000
1606134127.629,3.906,-46.387,-33.203,28.320,0.000
1606134127.632,156.738,-32.227,-29.297,569.336,0.000
1606134127.636,81.543,-31.738,-36.621,353.027,0.000
1606134127.640,-140.137,-41.992,-43.945,-355.957,0.000
1606134127.644,-201.660,-47.852,-46.387,-624.023,0.000
1606134127.648,-42.969,-39.062,-37.598,-83.008,0.000
1606134127.652,115.234,-25.391,-25.879,525.879,0.000
1606134127.656,73.242,-27.832,-33.203,427.734,0.000
1606134127.660,-128.418,-43.457,-47.363,-284.668,0.000
1606134127.664,-217.285,-53.223,-50.293,-647.461,0.000
1606134127.668,-63.965,-40.039,-39.062,-171.875,0.000
1606134127.671,116.699,-27.832,-31.250,480.469,0.000
1606134127.675,101.562,-31.738,-32.715,476.562,0.000
1606134127.679,-88.379,-40.039,-38.086,-205.078,0.000
1606134127.683,-193.848,-41.992,-39.062,-634.766,0.000
1606134127.687,-73.242,-34.668,-30.273,-242.188,0.000
1606134127.691,111.328,-27.832,-21.973,442.871,0.000
1606134127.695,115.723,-31.250,-21.484,525.391,0.000
1606134127.699,-71.777,-42.969,-28.320,-130.859,0.000
1606134127.703,-196.777,-50.293,-35.156,-628.906,0.000
1606134127.707,-105.469,-45.898,-40.039,-350.098,0.000
1606134127.711,86.426,-32.715,-42.969,348.145,0.000
1606134127.714,134.277,-29.297,-32.715,547.852,0.000
1606134127.718,-35.156,-32.715,-33.691,-50.293,0.000
1606134127.722,-192.871,-41.016,-49.805,-616.699,0.000
1606134127.726,-126.953,-43.945,-42.480,-423.340,0.000
1606134127.730,80.078,-25.391,-17.578,299.805,0.000
1606134127.734,143.555,-25.879,-20.020,586.426,0.000
1606134127.738,-17.578,-42.480,-35.156,40.039,0.000
1606134127.742,-179.199,-47.363,-43.457,-579.102,0.000
1606134127.746,-136.230,-42.969,-46.875,-485.840,0.000
1606134127.750,58.594,-28.809,-33.203,218.262,0.000
1606134127.754,147.949,-25.879,-26.855,586.914,0.000
1606134127.757,13.184,-33.691,-38.574,131.348,0.000
1606134127.761,-174.805,-30.762,-48.340,-544.922,0.000
1606134127.765,-175.781,-34.180,-41.992,-567.383,0.000
1606134127.769,20.020,-30.762,-29.297,129.395,0.000
1606134127.773,128.418,-23.926,-27.344,576.660,0.000
1606134127.777,24.902,-33.203,-39.551,196.777,0.000
1606134127.781,-166.016,-43.457,-42.480,-494.629,0.000
1606134127.785,-206.055,-47.363,-38.086,-607.422,0.000
1606134127.789,-8.301,-32.715,-34.180,47.363,0.000
1606134127.793,133.789,-18.555,-22.949,572.754,0.000
1606134127.796,42.969,-26.855,-28.320,295.410,0.000
1606134127.800,-154.785,-39.551,-43.945,-426.758,0.000
1606134127.804,-197.754,-49.316,-44.434,-641.113,0.000
1606134127.808,-18.555,-36.621,-31.738,-31.738,0.000
1606134127.812,133.301,-23.926,-20.996,558.594,0.000
1606134127.816,60.547,-34.668,-28.809,366.699,0.000
1606134127.820,-144.043,-46.875,-42.480,-360.840,0.000
1606134127.824,-209.961,-49.316,-50.293,-660.156,0.000
1606134127.828,-48.340,-37.598,-40.039,-125.000,0.000
1606134127.832,125.000,-28.809,-31.250,516.602,0.000
1606134127.836,94.727,-35.645,-32.715,443.359,0.000
1606134127.839,-104.980,-34.668,-34.668,-268.555,0.000
1606134127.843,-199.707,-32.715,-39.551,-646.973,0.000
1606134127.847,-61.523,-40.527,-38.574,-197.754,0.000
1606134127.851,115.723,-30.762,-24.902,464.355,0.000
1606134127.855,100.098,-26.367,-23.926,483.398,0.000
1606134127.859,-99.609,-37.598,-43.457,-211.914,0.000
1606134127.863,-210.449,-45.898,-55.664,-668.457,0.000
1606134127.867,-83.496,-41.504,-45.898,-290.527,0.000
1606134127.871,99.609,-27.832,-28.320,406.250,0.000
1606134127.875,109.375,-25.879,-20.020,530.273,0.000
1606134127.879,-83.984,-40.039,-31.738,-120.605,0.000
1606134127.882,-220.215,-51.758,-43.457,-663.574,0.000
1606134127.886,-128.418,-43.945,-41.504,-396.973,0.000
1606134127.890,60.547,-28.809,-26.855,330.566,0.000
1606134127.894,113.281,-27.832,-21.973,550.293,0.000
1606134127.898,-58.105,-37.109,-37.598,-41.016,0.000
1606134127.902,-222.168,-48.340,-50.293,-627.441,0.000
1606134127.906,-158.203,-50.293,-39.062,-457.520,0.000
1606134127.910,49.805,-33.691,-24.414,268.066,0.000
1606134127.914,122.559,-30.273,-26.367,573.730,0.000
1606134127.918,-33.203,-43.945,-37.109,48.828,0.000
1606134127.921,-198.242,-54.199,-44.434,-579.102,0.000
1606134127.925,-159.180,-43.945,-40.039,-505.371,0.000
1606134127.929,39.062,-39.551,-29.785,206.543,0.000
1606134127.933,136.719,-42.480,-24.902,597.168,0.000
1606134127.937,11.230,-37.598,-32.715,166.016,0.000
1606134127.941,-178.711,-39.551,-50.781,-516.602,0.000
1606134127.945,-182.617,-42.969,-50.293,-569.824,0.000
1606134127.949,15.137,-34.180,-33.691,117.676,0.000
1606134127.953,141.113,-21.973,-23.926,581.055,0.000
1606134127.957,25.879,-32.227,-34.668,213.867,0.000
1606134127.961,-171.875,-45.898,-49.316,-494.141,0.000
1606134127.964,-187.988,-42.969,-45.410,-630.859,0.000
1606134127.968,6.348,-32.715,-32.715,8.789,0.000
1606134127.972,148.438,-22.949,-26.855,538.574,0.000
1606134127.976,55.176,-27.832,-31.250,289.062,0.000
1606134127.980,-138.672,-35.645,-37.109,-397.461,0.000
1606134127.984,-171.875,-38.574,-41.992,-606.445,0.000
1606134127.988,-20.020,-32.227,-38.086,-53.711,0.000
1606134127.992,114.746,-26.855,-32.227,495.605,0.000
1606134127.996,62.500,-35.645,-29.297,351.074,0.000
1606134128.000,-128.906,-37.598,-34.668,-326.172,0.000
1606134128.004,-202.148,-40.039,-40.039,-633.789,0.000
1606134128.007,-55.176,-36.133,-31.738,-157.227,0.000
1606134128.011,110.352,-25.391,-19.531,452.637,0.000
1606134128.015,85.449,-26.367,-20.508,421.387,0.000
1606134128.019,-105.957,-41.016,-34.180,-248.535,0.000
1606134128.023,-201.660,-45.898,-39.062,-633.789,0.000
1606134128.027,-67.871,-30.762,-32.715,-214.844,0.000
1606134128.031,113.281,-21.973,-27.832,456.055,0.000
1606134128.035,107.422,-28.809,-28.320,507.812,0.000
1606134128.039,-87.891,-35.645,-33.203,-163.574,0.000
1606134128.043,-205.566,-37.109,-41.504,-624.512,0.000
1606134128.046,-96.191,-34.668,-30.273,-291.016,0.000
1606134128.050,89.844,-25.391,-16.602,388.672,0.000
1606134128.054,110.840,-30.762,-20.996,537.109,0.000
1606134128.058,-75.195,-45.410,-30.273,-86.426,0.000
1606134128.062,-214.844,-50.293,-39.062,-620.117,0.000
1606134128.066,-131.836,-46.387,-35.156,-390.625,0.000
1606134128.070,59.570,-29.297,-23.926,311.523,0.000
1606134128.074,121.094,-25.391,-25.879,567.871,0.000
1606134128.078,-40.527,-35.645,-38.086,6.836,0.000
1606134128.082,-202.148,-43.945,-47.852,-604.980,0.000
1606134128.086,-133.789,-43.945,-37.598,-470.703,0.000
1606134128.089,50.293,-28.809,-22.949,246.582,0.000
1606134128.093,120.605,-25.879,-21.484,579.102,0.000
1606134128.097,-9.766,-34.180,-28.320,92.773,0.000
1606134128.101,-183.105,-40.039,-42.969,-547.852,0.000
1606134128.105,-164.062,-38.086,-40.527,-528.320,0.000
1606134128.109,37.109,-23.438,-31.250,159.668,0.000
1606134128.113,137.695,-17.090,-30.762,570.312,0.000
1606134128.117,13.184,-25.879,-34.668,166.992,0.000
1606134128.121,-150.879,-33.203,-39.551,-487.305,0.000
1606134128.125,-152.344,-33.691,-31.738,-555.664,0.000
1606134128.129,-2.441,-26.855,-22.949,67.871,0.000
1606134128.132,100.098,-20.020,-19.531,520.996,0.000
1606134128.136,-9.766,-27.832,-21.973,196.289,0.000
1606134128.140,-228.027,-31.250,-29.297,-514.160,0.000
1606134128.144,-269.043,-33.203,-27.344,-692.383,0.000
1606134128.148,-91.797,-39.551,-12.207,-78.613,0.000
1606134128.152,37.109,-32.715,-5.859,461.914,0.000
1606134128.156,-24.902,-35.645,-10.742,241.699,0.000
1606134128.160,-221.680,-45.898,-24.414,-453.125,0.000
1606134128.164,-311.523,-54.199,-31.738,-733.398,0.000
1606134128.168,-142.090,-47.363,-19.043,-189.453,0.000
1606134128.171,38.574,-36.133,-12.695,438.477,0.000
1606134128.175,1.465,-39.551,-23.438,333.008,0.000
1606134128.179,-190.918,-52.246,-31.738,-364.746,0.000
1606134128.183,-269.531,-56.152,-34.668,-710.449,0.000
1606134128.187,-110.352,-40.527,-25.879,-219.727,0.000
1606134128.191,71.289,-33.203,-25.391,438.477,0.000
1606134128.195,61.035,-36.621,-29.785,431.152,0.000
1606134128.199,-116.699,-44.434,-35.645,-253.418,0.000
1606134128.203,-214.355,-50.293,-38.574,-676.758,0.000
1606134128.207,-83.496,-41.992,-31.738,-279.785,0.000
1606134128.211,105.469,-30.762,-24.902,405.762,0.000
1606134128.214,119.141,-26.367,-20.508,505.859,0.000
1606134128.218,-62.988,-43.945,-27.832,-134.766,0.000
1606134128.222,-198.730,-62.500,-40.039,-638.184,0.000
1606134128.226,-101.074,-53.711,-33.203,-351.074,0.000
1606134128.230,93.262,-42.969,-27.344,349.121,0.000
1606134128.234,129.395,-38.574,-26.855,535.645,0.000
1606134128.238,-50.293,-48.340,-33.203,-68.848,0.000
1606134128.242,-201.660,-63.965,-41.992,-622.070,0.000
1606134128.246,-129.883,-50.293,-37.109,-415.039,0.000
1606134128.250,67.871,-28.320,-25.879,298.828,0.000
1606134128.254,133.301,-26.367,-19.043,578.125,0.000
1606134128.257,-21.484,-36.133,-25.879,39.062,0.000
1606134128.261,-178.711,-47.363,-36.621,-569.824,0.000
1606134128.265,-141.113,-51.270,-44.922,-482.910,0.000
1606134128.269,48.828,-37.109,-35.156,224.121,0.000
1606134128.273,150.879,-28.320,-31.738,585.449,0.000
1606134128.277,8.301,-41.504,-38.574,119.629,0.000
1606134128.281,-191.406,-51.270,-39.551,-530.273,0.000
1606134128.285,-174.316,-53.711,-42.480,-542.969,0.000
1606134128.289,22.949,-44.434,-30.273,148.438,0.000
1606134128.293,140.625,-34.180,-10.254,596.191,0.000
1606134128.296,24.414,-41.504,-15.137,217.773,0.000
1606134128.300,-163.086,-52.246,-33.203,-466.797,0.000
1606134128.304,-171.387,-54.199,-32.227,-569.824,0.000
1606134128.308,13.672,-39.551,-25.391,79.590,0.000
1606134128.312,139.648,-23.438,-20.996,596.680,0.000
1606134128.316,41.016,-36.621,-20.996,309.082,0.000
1606134128.320,-163.086,-45.410,-33.691,-416.016,0.000
1606134128.324,-201.172,-43.457,-33.203,-620.117,0.000
1606134128.328,-16.113,-41.504,-21.484,-8.789,0.000
1606134128.332,139.160,-30.762,-15.625,562.012,0.000
1606134128.336,78.613,-32.227,-18.066,374.512,0.000
1606134128.339,-125.000,-38.574,-31.738,-334.961,0.000
1606134128.343,-198.242,-45.410,-33.203,-631.348,0.000
1606134128.347,-40.039,-41.016,-26.855,-100.586,0.000
1606134128.351,133.789,-21.973,-19.531,528.809,0.000
1606134128.355,100.586,-17.578,-19.531,448.242,0.000
1606134128.359,-103.516,-40.039,-27.832,-263.184,0.000
1606134128.363,-195.801,-49.316,-32.227,-646.973,0.000
1606134128.367,-53.223,-27.344,-24.414,-199.219,0.000
1606134128.371,131.348,-15.137,-16.113,473.633,0.000
1606134128.375,122.559,-18.066,-17.578,501.465,0.000
1606134128.379,-80.566,-31.738,-29.785,-200.195,0.000
1606134128.382,-205.566,-46.387,-37.598,-659.668,0.000
1606134128.386,-89.844,-41.992,-33.691,-291.016,0.000
1606134128.390,104.980,-23.438,-20.996,410.156,0.000
1606134128.394,120.605,-21.973,-19.043,538.086,0.000
1606134128.398,-63.965,-32.715,-37.598,-106.934,0.000
1606134128.402,-188.477,-40.039,-36.621,-617.188,0.000
1606134128.406,-118.164,-37.598,-33.203,-342.773,0.000
1606134128.410,63.965,-27.832,-31.738,349.121,0.000
1606134128.414,115.723,-30.762,-23.926,546.875,0.000
1606134128.418,-63.965,-44.434,-35.645,-45.898,0.000
1606134128.421,-217.773,-56.152,-41.504,-615.234,0.000
1606134128.425,-149.414,-49.316,-29.297,-438.965,0.000
1606134128.429,51.758,-27.832,-17.090,272.461,0.000
1606134128.433,121.094,-25.879,-19.043,564.941,0.000
1606134128.437,-34.180,-35.645,-34.180,42.969,0.000
1606134128.441,-201.172,-44.434,-41.992,-576.660,0.000
1606134128.445,-166.504,-48.340,-42.480,-518.066,0.000
1606134128.449,36.621,-34.180,-32.227,177.246,0.000
1606134128.453,135.254,-24.902,-20.508,557.129,0.000
1606134128.457,0.488,-33.203,-31.250,122.559,0.000
1606134128.461,-159.180,-50.781,-41.016,-506.836,0.000
1606134128.464,-150.879,-43.945,-34.180,-543.945,0.000
1606134128.468,-1.953,-18.555,-25.391,72.754,0.000
1606134128.472,98.145,-8.301,-22.949,495.117,0.000
1606134128.476,-6.836,-13.184,-24.902,166.016,0.000
1606134128.480,-185.547,-33.203,-33.691,-500.000,0.000
1606134128.484,-219.238,-46.387,-38.086,-635.742,0.000
1606134128.488,-59.082,-30.273,-26.367,-14.160,0.000
1606134128.492,88.867,-14.648,-18.066,503.906,0.000
1606134128.496,21.973,-12.207,-17.090,278.809,0.000
1606134128.500,-159.180,-23.926,-18.555,-388.672,0.000
1606134128.504,-203.125,-33.691,-26.855,-620.117,0.000
1606134128.507,-46.387,-24.902,-29.297,-64.941,0.000
1606134128.511,102.051,-22.461,-24.902,505.371,0.000
1606134128.515,59.570,-23.438,-21.484,372.559,0.000
1606134128.519,-130.371,-39.062,-25.391,-309.570,0.000
1606134128.523,-204.590,-44.434,-33.203,-629.395,0.000
1606134128.527,-58.594,-31.738,-33.203,-136.230,0.000
1606134128.531,108.887,-24.414,-27.832,496.582,0.000
1606134128.535,84.961,-33.203,-26.367,453.613,0.000
1606134128.539,-105.957,-47.363,-28.320,-245.605,0.000
1606134128.543,-195.312,-45.410,-28.809,-629.395,0.000
1606134128.546,-74.219,-38.086,-25.879,-204.102,0.000
1606134128.550,111.328,-32.227,-20.996,447.266,0.000
1606134128.554,121.094,-30.273,-26.855,495.605,0.000
1606134128.558,-90.332,-44.922,-34.668,-172.363,0.000
1606134128.562,-209.473,-62.988,-37.598,-641.602,0.000
1606134128.566,-99.609,-54.688,-32.715,-310.059,0.000
1606134128.570,93.262,-37.109,-19.531,376.953,0.000
1606134128.574,121.094,-28.809,-17.578,527.832,0.000
1606134128.578,-60.059,-36.621,-26.855,-93.262,0.000
1606134128.582,-198.242,-48.340,-32.715,-632.324,0.000
1606134128.586,-116.699,-42.480,-30.762,-395.020,0.000
1606134128.589,80.566,-29.297,-32.715,316.406,0.000
1606134128.593,140.625,-19.531,-33.203,570.801,0.000
1606134128.597,-25.391,-27.344,-36.133,5.371,0.000
1606134128.601,-193.359,-25.391,-42.969,-598.145,0.000
1606134128.605,-145.020,-29.297,-39.551,-467.285,0.000
1606134128.609,56.152,-37.109,-24.902,238.281,0.000
1606134128.613,138.672,-23.438,-22.461,562.012,0.000
1606134128.617,1.953,-20.996,-31.250,87.402,0.000
1606134128.621,-166.016,-37.109,-35.156,-530.273,0.000
1606134128.625,-143.555,-45.898,-33.691,-501.465,0.000
1606134128.629,55.176,-32.227,-22.949,180.176,0.000
1606134128.632,146.484,-21.973,-20.020,572.754,0.000
1606134128.636,14.160,-33.691,-34.180,163.086,0.000
1606134128.640,-168.457,-33.203,-44.922,-490.723,0.000
1606134128.644,-156.738,-34.668,-36.621,-556.641,0.000
1606134128.648,23.926,-32.715,-23.926,83.008,0.000
1606134128.652,117.188,-26.367,-26.367,539.551,0.000
1606134128.656,32.715,-31.738,-23.926,236.328,0.000
1606134128.660,-145.508,-46.387,-21.973,-419.922,0.000
1606134128.664,-183.105,-57.129,-35.156,-573.730,0.000
1606134128.668,-15.137,-41.992,-34.180,16.113,0.000
1606134128.671,126.953,-27.344,-27.832,536.621,0.000
1606134128.675,55.176,-27.832,-25.391,323.242,0.000
1606134128.679,-135.254,-39.062,-30.762,-355.957,0.000
1606134128.683,-183.105,-35.645,-31.738,-595.703,0.000
1606134128.687,-20.508,-20.996,-18.066,-48.340,0.000
1606134128.691,130.371,-16.602,-17.578,538.574,0.000
1606134128.695,86.426,-24.902,-24.414,421.387,0.000
1606134128.699,-109.375,-29.297,-36.621,-283.691,0.000
1606134128.703,-190.918,-24.414,-38.086,-630.859,0.000
1606134128.707,-45.898,-27.344,-25.391,-147.461,0.000
1606134128.711,124.512,-30.762,-21.973,492.188,0.000
1606134128.714,101.562,-32.715,-20.508,467.773,0.000
1606134128.718,-95.703,-36.621,-24.902,-215.332,0.000
1606134128.722,-194.336,-45.410,-31.250,-638.672,0.000
1606134128.726,-83.496,-35.156,-20.508,-248.047,0.000
1606134128.730,101.074,-17.090,-12.695,440.430,0.000
1606134128.734,120.605,-13.184,-20.020,536.133,0.000
1606134128.738,-69.824,-30.762,-29.297,-128.418,0.000
1606134128.742,-202.148,-43.945,-37.109,-631.348,0.000
1606134128.746,-105.469,-33.203,-36.133,-328.125,0.000
1606134128.750,97.656,-24.414,-25.391,380.859,0.000
1606134128.754,141.113,-20.020,-24.902,557.129,0.000
1606134128.757,-30.273,-23.438,-29.785,-57.617,0.000
1606134128.761,-193.848,-36.621,-35.645,-613.281,0.000
1606134128.765,-145.996,-37.598,-30.273,-424.316,0.000
1606134128.769,53.223,-23.438,-19.043,284.180,0.000
1606134128.773,111.328,-20.020,-23.926,556.641,0.000
1606134128.777,-57.129,-31.738,-27.344,7.812,0.000
1606134128.781,-225.098,-38.086,-34.180,-591.797,0.000
1606134128.785,-181.152,-41.504,-39.062,-489.746,0.000
1606134128.789,21.973,-37.598,-26.367,212.891,0.000
1606134128.793,113.281,-32.227,-17.090,566.895,0.000
1606134128.796,-23.926,-37.598,-27.344,103.027,0.000
1606134128.800,-206.055,-53.711,-38.574,-544.922,0.000
1606134128.804,-180.664,-59.082,-33.203,-546.875,0.000
1606134128.808,31.738,-37.109,-21.973,150.391,0.000
1606134128.812,127.441,-24.902,-17.090,590.820,0.000
1606134128.816,6.836,-34.180,-25.879,202.148,0.000
1606134128.820,-175.293,-49.805,-37.598,-481.445,0.000
1606134128.824,-185.547,-51.270,-38.574,-580.566,0.000
1606134128.828,7.324,-31.738,-30.273,74.707,0.000
1606134128.832,146.973,-19.043,-22.461,577.637,0.000
1606134128.836,59.082,-32.227,-26.855,289.062,0.000
1606134128.839,-144.043,-49.805,-37.109,-420.410,0.000
1606134128.843,-187.012,-43.457,-35.645,-620.605,0.000
1606134128.847,-6.836,-29.297,-31.250,-10.254,0.000
1606134128.851,137.695,-19.043,-27.832,554.688,0.000
1606134128.855,68.359,-23.438,-20.996,357.910,0.000
1606134128.859,-130.371,-37.598,-31.738,-357.422,0.000
1606134128.863,-196.289,-37.109,-41.016,-650.879,0.000
1606134128.867,-34.668,-26.855,-31.250,-111.816,0.000
1606134128.871,133.301,-20.996,-21.973,516.602,0.000
1606134128.875,96.680,-25.879,-27.832,427.734,0.000
1606134128.879,-104.004,-38.086,-35.156,-282.227,0.000
1606134128.882,-198.242,-46.875,-34.180,-660.645,0.000
1606134128.886,-59.082,-35.156,-26.367,-204.590,0.000
1606134128.890,122.559,-13.672,-15.625,462.402,0.000
1606134128.894,117.676,-14.648,-17.090,479.492,0.000
1606134128.898,-83.496,-39.551,-20.996,-208.984,0.000
1606134128.902,-205.078,-48.828,-24.414,-661.621,0.000
1606134128.906,-87.402,-35.156,-35.645,-297.363,0.000
1606134128.910,96.680,-23.926,-33.203,385.254,0.000
1606134128.914,119.141,-18.555,-27.832,495.605,0.000
1606134128.918,-57.617,-30.762,-37.598,-149.414,0.000
1606134128.921,-209.961,-44.434,-46.875,-664.062,0.000
1606134128.925,-115.723,-41.992,-39.551,-384.766,0.000
1606134128.929,92.285,-24.902,-23.438,322.754,0.000
1606134128.933,125.977,-20.020,-20.020,522.461,0.000
1606134128.937,-39.551,-31.250,-31.250,-55.176,0.000
1606134128.941,-184.570,-38.574,-37.109,-604.004,0.000
1606134128.945,-125.000,-38.574,-30.762,-425.293,0.000
1606134128.949,66.406,-29.297,-23.926,260.742,0.000
1606134128.953,125.488,-22.461,-26.367,541.992,0.000
1606134128.957,-24.414,-32.715,-31.250,46.875,0.000
1606134128.961,-187.012,-43.457,-38.574,-542.969,0.000
1606134128.964,-154.785,-49.805,-34.180,-476.562,0.000
1606134128.968,38.086,-36.621,-22.949,197.754,0.000
1606134128.972,127.930,-15.137,-23.438,558.105,0.000
1606134128.976,0.000,-21.973,-28.809,126.953,0.000
1606134128.980,-181.152,-42.480,-39.551,-518.555,0.000
1606134128.984,-172.363,-40.039,-32.227,-531.250,0.000
1606134128.988,25.391,-25.391,-22.461,130.371,0.000
1606134128.992,133.789,-20.996,-20.020,556.152,0.000
1606134128.996,12.695,-28.320,-22.949,221.680,0.000
1606134129.000,-162.109,-48.828,-33.691,-436.035,0.000
1606134129.004,-178.223,-57.129,-42.969,-563.477,0.000
1606134129.007,3.906,-41.992,-43.945,66.406,0.000
1606134129.011,153.320,-18.555,-33.691,588.379,0.000
1606134129.015,69.336,-19.043,-37.598,324.707,0.000
1606134129.019,-139.160,-37.109,-58.105,-402.344,0.000
1606134129.023,-185.547,-36.133,-54.688,-639.648,0.000
1606134129.027,-10.742,-24.414,-40.527,-58.594,0.000
1606134129.031,141.113,-15.137,-38.086,532.715,0.000
1606134129.035,83.496,-19.531,-30.273,383.301,0.000
1606134129.039,-118.652,-38.574,-33.203,-328.125,0.000
1606134129.043,-198.242,-43.457,-45.410,-652.832,0.000
1606134129.046,-44.922,-25.879,-36.621,-145.508,0.000
1606134129.050,130.859,-15.625,-24.902,496.582,0.000
1606134129.054,104.492,-21.484,-28.320,442.871,0.000
1606134129.058,-83.984,-39.551,-39.062,-252.441,0.000
1606134129.062,-175.781,-41.504,-44.434,-638.672,0.000
1606134129.066,-51.270,-30.273,-40.039,-218.262,0.000
1606134129.070,136.230,-20.020,-33.691,451.660,0.000
1606134129.074,132.812,-20.508,-26.367,505.859,0.000
1606134129.078,-58.105,-37.598,-35.156,-167.969,0.000
1606134129.082,-186.035,-44.922,-44.922,-643.555,0.000
1606134129.086,-96.680,-32.227,-30.762,-308.105,0.000
1606134129.089,101.074,-18.555,-21.484,393.066,0.000
1606134129.093,130.859,-13.184,-24.902,540.039,0.000
1606134129.097,-52.734,-21.973,-33.691,-90.820,0.000
1606134129.101,-188.477,-29.297,-38.086,-621.094,0.000
1606134129.105,-109.863,-28.320,-36.133,-378.906,0.000
1606134129.109,80.566,-20.020,-23.926,337.402,0.000
1606134129.113,130.859,-18.066,-18.066,572.754,0.000
1606134129.117,-38.574,-30.762,-26.367,-3.418,0.000
1606134129.121,-192.871,-39.062,-33.203,-594.727,0.000
1606134129.125,-132.812,-32.715,-32.715,-460.938,0.000
1606134129.129,64.453,-17.578,-24.902,255.371,0.000
1606134129.132,138.184,-15.625,-20.508,594.238,0.000
1606134129.136,-6.836,-29.785,-27.344,97.168,0.000
1606134129.140,-181.152,-40.527,-41.992,-553.711,0.000
1606134129.144,-152.832,-33.691,-39.062,-520.508,0.000
1606134129.148,50.781,-18.066,-20.508,187.988,0.000
1606134129.152,153.809,-11.230,-19.043,602.051,0.000
1606134129.156,25.391,-22.949,-30.273,188.965,0.000
1606134129.160,-161.621,-22.949,-38.574,-495.605,0.000
1606134129.164,-166.016,-22.949,-38.086,-578.125,0.000
1606134129.168,29.297,-23.438,-27.832,94.238,0.000
1606134129.171,147.949,-15.625,-26.855,584.961,0.000
1606134129.175,42.969,-23.438,-32.715,264.160,0.000
1606134129.179,-154.297,-38.574,-40.039,-438.477,0.000
1606134129.183,-181.641,-36.621,-38.086,-617.188,0.000
1606134129.187,-2.930,-18.555,-27.832,14.648,0.000
1606134129.191,128.418,-7.324,-20.996,576.172,0.000
1606134129.195,60.547,-19.043,-27.344,337.891,0.000
1606134129.199,-138.184,-37.598,-35.645,-388.184,0.000
1606134129.203,-192.871,-41.016,-36.621,-638.184,0.000
1606134129.207,-25.391,-35.645,-29.785,-77.637,0.000
1606134129.211,134.277,-22.949,-22.461,523.438,0.000
1606134129.214,89.844,-19.531,-25.391,395.508,0.000
1606134129.218,-103.027,-28.809,-28.320,-317.871,0.000
1606134129.222,-192.871,-35.645,-31.250,-666.504,0.000
1606134129.226,-58.105,-30.762,-30.273,-188.965,0.000
1606134129.230,118.652,-16.602,-23.926,464.355,0.000
1606134129.234,99.609,-20.508,-21.973,448.242,0.000
1606134129.238,-94.727,-34.180,-23.926,-240.723,0.000
1606134129.242,-195.312,-37.598,-30.273,-646.484,0.000
1606134129.246,-78.613,-27.832,-25.879,-244.629,0.000
1606134129.250,100.586,-12.207,-19.531,424.316,0.000
1606134129.254,114.258,-10.742,-19.531,502.930,0.000
1606134129.257,-57.617,-27.344,-26.367,-128.906,0.000
1606134129.261,-169.922,-33.691,-32.227,-584.961,0.000
1606134129.265,-91.797,-20.996,-32.715,-305.176,0.000
1606134129.269,85.938,-7.812,-20.508,352.539,0.000
1606134129.273,126.953,-12.207,-19.043,527.344,0.000
1606134129.277,-21.973,-30.762,-29.297,-43.945,0.000
1606134129.281,-153.320,-34.180,-38.086,-552.734,0.000
1606134129.285,-94.238,-23.438,-41.992,-360.352,0.000
1606134129.289,110.352,-7.324,-29.785,314.453,0.000
1606134129.293,178.223,-2.441,-25.391,603.027,0.000
1606134129.296,26.855,-15.625,-33.203,93.262,0.000
1606134129.300,-138.672,-40.039,-40.039,-506.836,0.000
1606134129.304,-99.121,-35.645,-32.715,-412.109,0.000
1606134129.308,96.680,-11.719,-22.949,277.832,0.000
1606134129.312,182.617,-10.254,-20.020,630.859,0.000
1606134129.316,47.363,-29.297,-29.297,171.875,0.000
1606134129.320,-123.535,-45.898,-35.156,-465.332,0.000
1606134129.324,-108.887,-38.086,-35.156,-465.332,0.000
1606134129.328,85.938,-15.137,-22.949,217.285,0.000
1606134129.332,192.871,-9.277,-19.043,642.578,0.000
1606134129.336,71.289,-17.090,-28.809,256.836,0.000
1606134129.339,-116.211,-25.391,-33.203,-414.062,0.000
1606134129.343,-131.836,-31.250,-40.527,-524.902,0.000
1606134129.347,48.828,-26.855,-36.133,112.305,0.000
1606134129.351,169.922,-23.438,-28.809,603.516,0.000
1606134129.355,81.055,-29.297,-24.414,309.082,0.000
1606134129.359,-114.258,-34.668,-30.762,-387.207,0.000
1606134129.363,-165.039,-39.551,-37.598,-587.891,0.000
1606134129.367,3.418,-31.738,-26.367,14.648,0.000
1606134129.371,162.598,-14.160,-16.113,585.449,0.000
1606134129.375,96.680,-21.973,-17.090,395.996,0.000
1606134129.379,-134.766,-46.387,-34.180,-326.660,0.000
1606134129.382,-202.637,-45.410,-42.969,-616.211,0.000
1606134129.386,-41.992,-30.273,-25.391,-78.613,0.000
1606134129.390,119.629,-26.855,-11.719,530.762,0.000
1606134129.394,84.961,-26.367,-11.719,440.430,0.000
1606134129.398,-117.676,-38.574,-20.508,-262.207,0.000
1606134129.402,-211.914,-48.828,-26.855,-643.555,0.000
1606134129.406,-75.684,-37.598,-32.227,-196.289,0.000
1606134129.410,111.816,-22.461,-26.855,472.656,0.000
1606134129.414,108.398,-18.555,-24.414,485.840,0.000
1606134129.418,-83.496,-38.086,-32.227,-199.219,0.000
1606134129.421,-190.430,-50.781,-35.156,-635.254,0.000
1606134129.425,-68.848,-33.203,-23.438,-267.578,0.000
1606134129.429,113.770,-20.996,-15.137,405.273,0.000
1606134129.433,124.023,-20.020,-20.996,511.719,0.000
1606134129.437,-59.570,-27.832,-35.156,-119.629,0.000
1606134129.441,-201.660,-48.828,-51.758,-639.160,0.000
1606134129.445,-111.328,-41.992,-36.621,-375.977,0.000
1606134129.449,92.285,-19.531,-18.066,335.449,0.000
1606134129.453,140.137,-16.602,-20.020,559.570,0.000
1606134129.457,-32.715,-25.391,-26.367,-21.484,0.000
1606134129.461,-196.289,-39.551,-31.738,-601.074,0.000
1606134129.464,-133.789,-37.598,-33.203,-432.129,0.000
1606134129.468,71.777,-23.926,-31.250,285.156,0.000
1606134129.472,160.645,-20.996,-30.762,592.285,0.000
1606134129.476,10.742,-29.297,-35.645,71.777,0.000
1606134129.480,-178.223,-37.109,-41.016,-548.340,0.000
1606134129.484,-137.695,-29.785,-30.273,-472.656,0.000
1606134129.488,68.848,-19.531,-16.113,219.238,0.000
1606134129.492,156.738,-18.555,-23.438,586.914,0.000
1606134129.496,18.555,-27.344,-33.203,140.625,0.000
1606134129.500,-158.691,-29.785,-33.203,-516.602,0.000
1606134129.504,-158.691,-25.879,-38.086,-546.875,0.000
1606134129.507,28.809,-20.508,-38.086,126.465,0.000
1606134129.511,140.137,-18.066,-26.855,588.867,0.000
1606134129.515,22.949,-27.832,-32.715,240.234,0.000
1606134129.519,-171.387,-35.156,-45.898,-462.402,0.000
1606134129.523,-192.871,-35.645,-36.621,-608.887,0.000
1606134129.527,2.441,-23.438,-26.855,41.504,0.000
1606134129.531,152.344,-8.789,-20.508,580.566,0.000
1606134129.535,57.129,-22.949,-14.160,312.012,0.000
1606134129.539,-146.973,-36.133,-27.832,-399.414,0.000
1606134129.543,-195.312,-29.785,-40.039,-637.207,0.000
1606134129.546,-27.832,-23.438,-31.738,-60.059,0.000
1606134129.550,126.953,-17.578,-24.902,528.320,0.000
1606134129.554,73.730,-22.949,-26.855,370.605,0.000
1606134129.558,-125.488,-27.832,-29.297,-340.332,0.000
1606134129.562,-199.707,-36.133,-35.645,-642.090,0.000
1606134129.566,-42.480,-33.691,-38.574,-128.906,0.000
1606134129.570,125.000,-18.066,-28.320,491.699,0.000
1606134129.574,81.055,-20.508,-26.855,429.688,0.000
1606134129.578,-102.539,-20.508,-36.621,-259.277,0.000
1606134129.582,-187.500,-17.578,-40.039,-644.531,0.000
1606134129.586,-73.730,-21.484,-33.203,-219.727,0.000
1606134129.589,113.281,-14.648,-20.020,454.590,0.000
1606134129.593,118.652,-17.090,-16.113,505.371,0.000
1606134129.597,-85.449,-37.598,-31.738,-174.316,0.000
1606134129.601,-199.707,-46.875,-32.227,-637.207,0.000
1606134129.605,-80.566,-38.574,-22.461,-293.945,0.000
1606134129.609,110.840,-22.461,-18.066,409.668,0.000
1606134129.613,135.254,-17.578,-18.555,562.012,0.000
1606134129.617,-53.223,-28.320,-22.949,-82.031,0.000
1606134129.621,-202.148,-41.016,-31.738,-626.953,0.000
1606134129.625,-127.930,-42.480,-41.016,-389.648,0.000
1606134129.629,72.266,-31.250,-32.715,318.848,0.000
1606134129.632,124.512,-27.344,-23.438,565.918,0.000
1606134129.636,-46.387,-35.645,-28.320,-7.324,0.000
1606134129.640,-208.984,-48.828,-41.992,-607.910,0.000
1606134129.644,-161.621,-49.316,-40.527,-467.773,0.000
1606134129.648,43.457,-33.203,-28.809,252.930,0.000
1606134129.652,126.465,-28.320,-24.414,582.031,0.000
1606134129.656,-20.020,-36.133,-24.414,85.449,0.000
1606134129.660,-185.059,-41.504,-29.785,-555.664,0.000
1606134129.664,-154.297,-41.016,-32.715,-525.879,0.000
1606134129.668,48.340,-26.367,-24.414,188.965,0.000
1606134129.671,152.344,-16.602,-18.555,610.840,0.000
1606134129.675,23.926,-25.391,-28.320,183.594,0.000
1606134129.679,-167.480,-17.578,-39.062,-509.766,0.000
1606134129.683,-171.875,-12.695,-37.598,-585.449,0.000
1606134129.687,29.785,-20.996,-28.320,98.633,0.000
1606134129.691,148.926,-14.648,-22.461,594.727,0.000
1606134129.695,48.340,-22.461,-22.461,274.414,0.000
1606134129.699,-144.531,-38.574,-35.645,-432.129,0.000
1606134129.703,-183.594,-42.969,-36.621,-608.887,0.000
1606134129.707,-0.977,-29.297,-15.137,21.484,0.000
1606134129.711,138.184,-20.996,-11.719,571.289,0.000
1606134129.714,59.082,-28.320,-23.438,339.844,0.000
1606134129.718,-139.648,-31.250,-36.133,-373.047,0.000
1606134129.722,-208.984,-35.156,-44.434,-649.902,0.000
1606134129.726,-42.969,-34.180,-27.344,-93.262,0.000
1606134129.730,121.094,-23.438,-7.812,519.531,0.000
1606134129.734,68.848,-26.855,-8.301,399.414,0.000
1606134129.738,-130.859,-44.922,-21.484,-316.406,0.000
1606134129.742,-210.449,-49.805,-24.414,-662.598,0.000
1606134129.746,-66.895,-34.180,-18.555,-178.711,0.000
1606134129.750,108.887,-19.043,-20.020,479.004,0.000
1606134129.754,93.262,-18.555,-26.367,454.102,0.000
1606134129.757,-105.469,-27.832,-30.273,-246.094,0.000
1606134129.761,-210.938,-35.156,-33.691,-662.109,0.000
1606134129.765,-87.402,-28.320,-28.320,-272.949,0.000
1606134129.769,88.379,-25.879,-18.066,395.020,0.000
1606134129.773,90.332,-31.250,-11.230,483.398,0.000
1606134129.777,-91.797,-39.062,-16.113,-163.086,0.000
1606134129.781,-209.961,-34.180,-21.484,-635.254,0.000
1606134129.785,-110.352,-25.879,-16.602,-331.055,0.000
1606134129.789,78.125,-21.484,-10.742,345.703,0.000
1606134129.793,110.352,-20.020,-10.254,520.508,0.000
1606134129.796,-59.082,-35.645,-23.438,-71.289,0.000
1606134129.800,-197.266,-45.410,-31.738,-601.562,0.000
1606134129.804,-133.301,-39.062,-35.645,-401.855,0.000
1606134129.808,62.500,-22.949,-21.484,285.645,0.000
1606134129.812,131.836,-13.672,-6.348,555.176,0.000
1606134129.816,-23.438,-24.414,-27.832,23.926,0.000
1606134129.820,-181.152,-34.668,-42.969,-568.359,0.000
1606134129.824,-137.207,-31.250,-32.227,-473.633,0.000
1606134129.828,57.129,-21.973,-17.578,221.191,0.000
1606134129.832,138.672,-16.602,-19.531,580.078,0.000
1606134129.836,-5.371,-28.809,-26.367,123.047,0.000
1606134129.839,-182.129,-44.434,-36.133,-520.020,0.000
1606134129.843,-165.527,-40.527,-36.621,-519.043,0.000
1606134129.847,27.344,-26.367,-21.484,162.109,0.000
1606134129.851,133.301,-23.438,-20.020,579.590,0.000
1606134129.855,20.508,-26.367,-29.297,201.172,0.000
1606134129.859,-165.039,-36.621,-43.457,-472.656,0.000
1606134129.863,-183.105,-38.574,-40.527,-592.285,0.000
1606134129.867,0.977,-23.926,-23.926,57.129,0.000
1606134129.871,126.953,-20.508,-18.555,568.848,0.000
1606134129.875,28.809,-28.320,-23.438,281.250,0.000
1606134129.879,-161.133,-42.480,-32.227,-416.992,0.000
1606134129.882,-196.289,-47.363,-36.621,-617.188,0.000
1606134129.886,-27.344,-33.203,-27.344,-27.344,0.000
1606134129.890,127.441,-14.648,-17.578,548.828,0.000
1606134129.894,58.594,-17.090,-22.949,367.676,0.000
1606134129.898,-148.926,-38.086,-34.668,-352.051,0.000
1606134129.902,-217.773,-41.504,-38.086,-645.020,0.000
1606134129.906,-61.035,-27.832,-22.461,-108.887,0.000
1606134129.910,113.770,-19.531,-12.207,517.578,0.000
1606134129.914,74.707,-26.855,-16.602,424.316,0.000
1606134129.918,-120.605,-34.180,-26.855,-284.180,0.000
1606134129.921,-207.031,-45.898,-30.762,-650.391,0.000
1606134129.925,-70.312,-39.551,-19.531,-195.801,0.000
1606134129.929,110.840,-19.531,-20.996,458.008,0.000
1606134129.933,98.633,-20.996,-28.320,461.914,0.000
1606134129.937,-98.633,-31.738,-28.809,-217.285,0.000
1606134129.941,-208.496,-41.504,-35.156,-649.902,0.000
1606134129.945,-93.750,-40.527,-37.109,-285.645,0.000
1606134129.949,87.891,-25.391,-23.438,384.766,0.000
1606134129.953,110.352,-20.996,-17.090,500.488,0.000
1606134129.957,-59.570,-36.133,-26.855,-122.559,0.000
1606134129.961,-200.195,-42.969,-40.527,-616.699,0.000
1606134129.964,-102.051,-36.133,-37.109,-353.027,0.000
1606134129.968,97.168,-22.461,-15.137,330.566,0.000
1606134129.972,117.676,-15.137,-19.043,526.367,0.000
1606134129.976,-42.969,-26.855,-38.086,-46.875,0.000
1606134129.980,-188.965,-38.574,-39.062,-592.773,0.000
1606134129.984,-124.512,-28.320,-35.645,-422.852,0.000
1606134129.988,74.707,-14.160,-25.879,254.883,0.000
1606134129.992,133.789,-17.090,-23.438,533.691,0.000
1606134129.996,-14.160,-31.738,-30.273,42.969,0.000
1606134130.000,-166.992,-17.578,-34.668,-535.156,0.000
1606134130.004,-139.160,0.000,-35.156,-478.516,0.000
1606134130.007,39.551,-12.695,-35.156,171.875,0.000
1606134130.011,123.047,-15.137,-34.668,536.133,0.000
1606134130.015,1.465,-23.438,-32.715,121.582,0.000
1606134130.019,-172.363,-41.992,-39.062,-517.090,0.000
1606134130.023,-180.664,-47.363,-40.039,-558.594,0.000
1606134130.027,20.996,-33.203,-29.297,106.445,0.000
1606134130.031,146.484,-20.020,-20.996,573.242,0.000
1606134130.035,30.762,-30.273,-28.320,232.910,0.000
1606134130.039,-157.227,-42.480,-39.551,-458.984,0.000
1606134130.043,-179.199,-42.480,-39.062,-594.727,0.000
1606134130.046,4.883,-28.809,-29.785,44.922,0.000
1606134130.050,143.066,-19.531,-20.508,563.477,0.000
1606134130.054,62.988,-25.879,-18.555,306.641,0.000
1606134130.058,-132.324,-36.621,-32.715,-395.020,0.000
1606134130.062,-182.129,-35.156,-38.574,-620.117,0.000
1606134130.066,-4.395,-23.926,-20.508,-38.574,0.000
1606134130.070,156.738,-11.719,-13.672,549.316,0.000
1606134130.074,97.168,-21.484,-20.996,399.902,0.000
1606134130.078,-105.957,-35.645,-30.762,-310.547,0.000
1606134130.082,-182.617,-33.203,-31.738,-628.906,0.000
1606134130.086,-39.551,-24.902,-16.602,-131.836,0.000
1606134130.089,125.000,-20.996,-7.812,497.559,0.000
1606134130.093,98.145,-23.926,-5.859,463.867,0.000
1606134130.097,-104.492,-41.504,-26.367,-250.000,0.000
1606134130.101,-211.426,-29.785,-42.480,-658.203,0.000
1606134130.105,-75.684,-15.137,-26.367,-224.609,0.000
1606134130.109,113.281,-26.855,-13.184,444.336,0.000
1606134130.113,122.559,-29.297,-16.113,498.047,0.000
1606134130.117,-65.918,-39.062,-28.809,-168.945,0.000
1606134130.121,-198.242,-43.457,-37.109,-639.648,0.000
1606134130.125,-88.867,-34.180,-29.785,-306.641,0.000
1606134130.129,112.305,-17.090,-17.090,386.230,0.000
1606134130.132,136.230,-16.113,-15.137,535.645,0.000
1606134130.136,-51.758,-29.297,-29.297,-81.543,0.000
1606134130.140,-191.895,-12.695,-33.203,-606.934,0.000
1606134130.144,-125.977,-17.578,-23.926,-386.230,0.000
1606134130.148,70.801,-30.762,-18.066,320.312,0.000
1606134130.152,128.906,-29.785,-18.555,574.707,0.000
1606134130.156,-36.621,-40.527,-26.855,-3.418,0.000
1606134130.160,-194.336,-47.852,-37.109,-604.492,0.000
1606134130.164,-144.043,-45.898,-38.574,-470.703,0.000
1606134130.168,59.570,-35.156,-31.738,235.840,0.000
1606134130.171,146.973,-23.438,-24.902,579.590,0.000
1606134130.175,-3.418,-28.809,-33.691,93.262,0.000
1606134130.179,-181.641,-42.480,-44.434,-556.641,0.000
1606134130.183,-156.250,-43.457,-43.457,-527.344,0.000
1606134130.187,45.410,-26.367,-29.297,191.895,0.000
1606134130.191,146.484,-17.090,-17.578,604.492,0.000
1606134130.195,18.066,-30.762,-26.855,178.223,0.000
1606134130.199,-176.270,-42.480,-35.645,-502.930,0.000
1606134130.203,-187.988,-34.180,-32.715,-583.496,0.000
1606134130.207,11.719,-22.949,-13.672,90.332,0.000
1606134130.211,145.020,-18.066,-3.418,588.379,0.000
1606134130.214,51.270,-13.184,-7.324,276.367,0.000
1606134130.218,-143.066,-21.973,-28.320,-416.504,0.000
1606134130.222,-181.641,-34.668,-42.969,-592.773,0.000
1606134130.226,-3.906,-27.832,-30.762,12.207,0.000
1606134130.230,145.996,-17.578,-24.902,566.895,0.000
1606134130.234,69.336,-21.973,-24.414,357.422,0.000
1606134130.238,-138.184,-35.645,-29.297,-365.234,0.000
1606134130.242,-193.359,-35.156,-34.668,-637.207,0.000
1606134130.246,-26.367,-24.902,-26.855,-86.426,0.000
1606134130.250,139.160,-14.160,-13.184,525.879,0.000
1606134130.254,99.121,-15.625,-12.207,424.805,0.000
1606134130.257,-110.352,-35.645,-28.320,-294.922,0.000
1606134130.261,-204.590,-42.969,-36.133,-660.156,0.000
1606134130.265,-56.152,-29.297,-24.414,-178.223,0.000
1606134130.269,116.211,-19.043,-16.602,470.703,0.000
1606134130.273,91.797,-20.020,-22.461,455.078,0.000
1606134130.277,-95.703,-28.809,-31.738,-223.145,0.000
1606134130.281,-198.242,-35.156,-40.039,-632.812,0.000
1606134130.285,-74.707,-28.809,-32.227,-247.559,0.000
1606134130.289,109.375,-24.414,-23.438,406.250,0.000
1606134130.293,111.328,-24.414,-26.855,483.398,0.000
1606134130.296,-62.988,-27.344,-32.227,-138.184,0.000
1606134130.300,-184.082,-32.227,-27.832,-596.191,0.000
1606134130.304,-104.980,-30.762,-12.695,-309.082,0.000
1606134130.308,77.637,-24.902,-13.184,337.891,0.000
1606134130.312,114.746,-17.578,-17.578,502.930,0.000
1606134130.316,-52.734,-26.855,-25.879,-71.777,0.000
1606134130.320,-187.988,-34.668,-31.738,-602.539,0.000
1606134130.324,-125.977,-31.738,-26.367,-419.434,0.000
1606134130.328,62.012,-26.855,-23.926,261.230,0.000
1606134130.332,129.395,-26.367,-27.832,527.832,0.000
1606134130.336,-17.578,-34.668,-35.645,18.555,0.000
1606134130.339,-177.734,-30.762,-40.527,-557.129,0.000
1606134130.343,-143.066,-23.438,-36.133,-470.215,0.000
1606134130.347,56.641,-25.879,-21.973,213.379,0.000
1606134130.351,145.996,-26.367,-12.207,575.684,0.000
1606134130.355,4.883,-34.180,-23.438,125.977,0.000
1606134130.359,-164.062,-40.039,-39.551,-521.973,0.000
1606134130.363,-148.438,-31.738,-38.086,-534.668,0.000
1606134130.367,38.086,-17.578,-23.926,143.555,0.000
1606134130.371,152.344,-11.719,-17.578,583.008,0.000
1606134130.375,39.062,-19.531,-22.461,223.633,0.000
1606134130.379,-152.344,-32.715,-32.227,-453.613,0.000
1606134130.382,-169.922,-37.109,-34.180,-580.078,0.000
1606134130.386,15.137,-24.902,-22.461,49.805,0.000
1606134130.390,144.043,-13.184,-20.020,561.035,0.000
1606134130.394,47.852,-18.555,-33.691,285.156,0.000
1606134130.398,-146.484,-32.715,-41.992,-411.621,0.000
1606134130.402,-185.547,-33.691,-35.645,-613.770,0.000
1606134130.406,-16.113,-21.484,-24.902,-30.762,0.000
1606134130.410,128.418,-19.043,-23.438,527.832,0.000
1606134130.414,62.500,-26.855,-23.926,351.074,0.000
1606134130.418,-134.766,-39.062,-30.762,-344.238,0.000
1606134130.421,-199.219,-42.480,-33.203,-637.207,0.000
1606134130.425,-41.504,-34.668,-23.438,-120.605,0.000
1606134130.429,125.488,-22.949,-18.066,500.488,0.000
1606134130.433,89.355,-23.926,-21.484,426.758,0.000
1606134130.437,-104.980,-31.738,-28.320,-266.602,0.000
1606134130.441,-199.707,-34.668,-34.668,-640.137,0.000
1606134130.445,-68.848,-31.250,-26.855,-195.312,0.000
1606134130.449,115.723,-17.578,-19.531,450.195,0.000
1606134130.453,114.746,-11.719,-22.949,488.281,0.000
1606134130.457,-82.031,-27.344,-34.668,-171.875,0.000
1606134130.461,-195.801,-40.527,-38.574,-641.602,0.000
1606134130.464,-82.031,-30.273,-34.180,-281.738,0.000
1606134130.468,105.957,-15.625,-28.809,424.805,0.000
1606134130.472,121.094,-13.184,-25.391,548.828,0.000
1606134130.476,-71.289,-25.879,-30.273,-108.887,0.000
1606134130.480,-213.867,-32.715,-34.180,-639.648,0.000
1606134130.484,-130.859,-26.855,-31.250,-377.441,0.000
1606134130.488,72.754,-21.973,-17.578,340.820,0.000
1606134130.492,119.629,-22.461,-17.578,564.941,0.000
1606134130.496,-54.199,-32.227,-27.344,-12.207,0.000
1606134130.500,-211.426,-40.527,-37.109,-596.680,0.000
1606134130.504,-142.090,-33.691,-35.156,-442.871,0.000
1606134130.507,56.152,-22.949,-23.438,252.930,0.000
1606134130.511,124.512,-23.438,-18.555,563.965,0.000
1606134130.515,-17.090,-32.715,-21.484,83.008,0.000
1606134130.519,-192.383,-32.227,-28.809,-561.035,0.000
1606134130.523,-166.016,-28.809,-27.832,-524.902,0.000
1606134130.527,35.156,-24.414,-17.090,179.688,0.000
1606134130.531,143.555,-18.066,-10.742,583.008,0.000
1606134130.535,12.695,-30.762,-16.113,155.762,0.000
1606134130.539,-175.781,-38.086,-33.203,-517.090,0.000
1606134130.543,-175.293,-34.180,-40.527,-566.895,0.000
1606134130.546,22.949,-21.973,-25.879,123.535,0.000
1606134130.550,142.090,-9.277,-15.137,596.680,0.000
1606134130.554,34.668,-13.184,-22.949,251.953,0.000
1606134130.558,-152.344,-23.438,-31.250,-438.965,0.000
1606134130.562,-177.734,-28.320,-26.367,-582.031,0.000
1606134130.566,0.488,-26.367,-17.090,34.180,0.000
1606134130.570,134.766,-20.020,-9.766,550.293,0.000
1606134130.574,48.340,-27.832,-16.113,309.082,0.000
1606134130.578,-150.391,-42.969,-23.926,-396.484,0.000
1606134130.582,-204.590,-41.504,-22.461,-645.020,0.000
1606134130.586,-36.621,-27.344,-14.160,-83.984,0.000
1606134130.589,124.512,-19.043,-13.184,504.395,0.000
1606134130.593,64.941,-25.879,-21.484,371.582,0.000
1606134130.597,-136.230,-38.086,-23.926,-320.312,0.000
1606134130.601,-206.543,-41.016,-20.996,-637.695,0.000
1606134130.605,-43.945,-27.344,-18.555,-146.484,0.000
1606134130.609,125.977,-22.461,-11.230,472.656,0.000
1606134130.613,86.426,-33.203,-10.742,426.758,0.000
1606134130.617,-95.215,-38.574,-20.508,-226.562,0.000
1606134130.621,-188.477,-41.504,-24.902,-606.445,0.000
1606134130.625,-72.754,-32.715,-19.531,-213.867,0.000
1606134130.629,108.398,-21.484,-7.812,433.594,0.000
1606134130.632,118.164,-23.438,-12.695,492.188,0.000
1606134130.636,-67.383,-39.062,-26.855,-154.297,0.000
1606134130.640,-187.500,-48.828,-30.762,-609.863,0.000
1606134130.644,-88.867,-39.551,-31.738,-295.898,0.000
1606134130.648,97.656,-26.367,-24.414,372.070,0.000
1606134130.652,129.395,-19.531,-22.949,535.645,0.000
1606134130.656,-39.062,-24.902,-34.180,-46.387,0.000
1606134130.660,-187.988,-30.762,-40.039,-579.590,0.000
1606134130.664,-123.535,-27.832,-39.551,-384.766,0.000
1606134130.668,74.707,-26.855,-27.832,304.688,0.000
1606134130.671,140.625,-22.461,-22.461,569.336,0.000
1606134130.675,-20.020,-26.367,-25.879,30.762,0.000
1606134130.679,-190.430,-39.062,-33.691,-563.965,0.000
1606134130.683,-140.625,-37.109,-29.297,-453.613,0.000
1606134130.687,65.430,-21.973,-18.066,249.023,0.000
1606134130.691,145.020,-18.555,-20.020,584.961,0.000
1606134130.695,4.395,-29.785,-20.508,105.957,0.000
1606134130.699,-167.969,-27.832,-29.297,-519.531,0.000
1606134130.703,-156.250,-23.438,-35.645,-511.230,0.000
1606134130.707,37.109,-24.902,-22.461,153.809,0.000
1606134130.711,137.695,-22.949,-20.020,571.777,0.000
1606134130.714,16.602,-34.180,-30.273,184.082,0.000
1606134130.718,-166.016,-41.016,-34.668,-484.863,0.000
1606134130.722,-178.223,-36.621,-36.621,-580.078,0.000
1606134130.726,20.020,-22.461,-27.344,71.289,0.000
1606134130.730,152.344,-16.113,-18.066,567.383,0.000
1606134130.734,54.199,-23.926,-26.855,269.043,0.000
1606134130.738,-136.719,-36.133,-33.691,-413.574,0.000
1606134130.742,-172.363,-41.016,-29.297,-596.680,0.000
1606134130.746,2.441,-31.250,-24.902,-0.977,0.000
1606134130.750,145.996,-15.137,-14.160,555.664,0.000
1606134130.754,64.453,-23.438,-17.090,352.539,0.000
1606134130.757,-134.277,-45.898,-37.109,-354.980,0.000
1606134130.761,-195.312,-25.879,-38.574,-631.836,0.000
1606134130.765,-30.762,-3.906,-21.973,-95.703,0.000
1606134130.769,133.789,-8.301,-5.371,503.418,0.000
1606134130.773,84.961,-15.137,-11.719,399.902,0.000
1606134130.777,-109.863,-31.738,-32.227,-286.133,0.000
1606134130.781,-199.707,-39.551,-35.156,-638.672,0.000
1606134130.785,-65.918,-30.273,-24.414,-187.988,0.000
1606134130.789,118.164,-13.184,-17.090,450.195,0.000
1606134130.793,107.910,-8.789,-15.625,458.008,0.000
1606134130.796,-83.984,-22.461,-20.508,-189.941,0.000
1606134130.800,-193.848,-25.391,-30.273,-619.629,0.000
1606134130.804,-87.891,-25.879,-26.367,-272.461,0.000
1606134130.808,97.656,-26.367,-15.137,400.879,0.000
1606134130.812,115.723,-25.391,-14.648,510.254,0.000
1606134130.816,-69.824,-39.062,-30.273,-127.930,0.000
1606134130.820,-197.266,-45.898,-41.504,-625.000,0.000
1606134130.824,-99.609,-37.598,-37.598,-351.074,0.000
1606134130.828,94.238,-26.367,-28.320,347.168,0.000
1606134130.832,129.883,-28.809,-23.926,541.992,0.000
1606134130.836,-48.828,-39.062,-29.297,-45.898,0.000
1606134130.839,-202.148,-43.945,-34.180,-593.262,0.000
1606134130.843,-139.160,-41.992,-34.180,-411.621,0.000
1606134130.847,57.129,-28.809,-26.367,272.949,0.000
1606134130.851,124.512,-18.555,-21.973,551.270,0.000
1606134130.855,-29.785,-29.297,-26.367,39.062,0.000
1606134130.859,-197.754,-45.410,-32.715,-567.383,0.000
1606134130.863,-164.551,-42.480,-32.227,-493.652,0.000
1606134130.867,36.133,-33.203,-20.020,203.125,0.000
1606134130.871,127.441,-24.902,-11.230,572.754,0.000
1606134130.875,-8.301,-27.344,-20.020,136.719,0.000
1606134130.879,-178.223,-36.133,-31.250,-507.812,0.000
1606134130.882,-165.527,-34.668,-33.203,-539.551,0.000
1606134130.886,33.691,-24.414,-24.414,133.301,0.000
1606134130.890,151.855,-16.602,-15.625,589.844,0.000
1606134130.894,40.039,-26.855,-20.508,229.492,0.000
1606134130.898,-153.809,-41.992,-27.832,-464.355,0.000
1606134130.902,-190.918,-44.922,-30.762,-593.750,0.000
1606134130.906,-14.648,-36.621,-30.273,42.480,0.000
1606134130.910,125.977,-27.832,-26.855,564.453,0.000
1606134130.914,54.199,-27.832,-26.367,302.734,0.000
1606134130.918,-137.695,-37.109,-27.344,-393.555,0.000
1606134130.921,-191.406,-43.945,-31.250,-613.770,0.000
1606134130.925,-15.625,-28.809,-22.949,-30.273,0.000
1606134130.929,149.902,-15.625,-9.766,553.711,0.000
1606134130.933,86.914,-20.508,-11.230,389.160,0.000
1606134130.937,-122.070,-29.297,-24.414,-317.871,0.000
1606134130.941,-195.312,-37.109,-36.133,-637.207,0.000
1606134130.945,-39.551,-26.367,-25.879,-138.184,0.000
1606134130.949,126.953,-8.789,-18.555,487.305,0.000
1606134130.953,94.238,-6.348,-24.414,431.641,0.000
1606134130.957,-110.352,-21.484,-32.227,-260.254,0.000
1606134130.961,-216.309,-34.180,-38.086,-655.273,0.000
1606134130.964,-84.961,-28.320,-33.691,-229.004,0.000
1606134130.968,103.516,-11.230,-25.879,449.707,0.000
1606134130.972,98.145,-12.695,-24.902,490.234,0.000
1606134130.976,-96.680,-28.320,-24.902,-187.988,0.000
1606134130.980,-208.008,-31.738,-22.949,-637.207,0.000
1606134130.984,-88.867,-23.438,-18.555,-283.203,0.000
1606134130.988,101.074,-15.625,-20.508,401.855,0.000
1606134130.992,125.977,-17.578,-11.230,539.551,0.000
1606134130.996,-58.105,-29.297,-13.184,-87.891,0.000
1606134131.000,-199.707,-30.762,-36.621,-620.605,0.000
1606134131.004,-107.910,-24.414,-37.598,-379.395,0.000
1606134131.007,82.031,-16.602,-25.391,332.520,0.000
1606134131.011,137.207,-11.230,-18.555,575.684,0.000
1606134131.015,-15.625,-16.602,-23.926,8.301,0.000
1606134131.019,-174.316,-22.461,-31.738,-574.707,0.000
1606134131.023,-121.094,-22.949,-31.738,-434.570,0.000
1606134131.027,78.613,-17.578,-24.902,270.996,0.000
1606134131.031,155.762,-11.719,-17.578,601.562,0.000
1606134131.035,3.906,-23.926,-19.043,107.422,0.000
1606134131.039,-177.246,-41.016,-31.738,-538.086,0.000
1606134131.043,-164.062,-39.062,-39.062,-522.461,0.000
1606134131.046,38.574,-29.297,-30.273,167.480,0.000
1606134131.050,145.020,-29.785,-23.438,578.613,0.000
1606134131.054,9.277,-33.691,-24.902,167.480,0.000
1606134131.058,-175.293,-37.598,-25.879,-496.582,0.000
1606134131.062,-171.387,-37.109,-22.949,-553.711,0.000
1606134131.066,20.996,-24.902,-20.996,112.305,0.000
1606134131.070,142.578,-20.020,-18.066,583.984,0.000
1606134131.074,41.504,-24.902,-22.461,262.207,0.000
1606134131.078,-151.855,-34.668,-34.668,-423.340,0.000
1606134131.082,-191.406,-48.340,-43.457,-606.934,0.000
1606134131.086,-11.230,-38.086,-27.832,4.395,0.000
1606134131.089,144.043,-23.438,-12.695,559.082,0.000
1606134131.093,62.500,-25.879,-29.297,334.473,0.000
1606134131.097,-143.555,-38.086,-45.410,-373.535,0.000
1606134131.101,-197.754,-41.992,-38.574,-622.070,0.000
1606134131.105,-29.297,-24.414,-25.879,-62.500,0.000
1606134131.109,133.301,-12.695,-21.973,530.273,0.000
1606134131.113,83.984,-23.438,-22.949,411.133,0.000
1606134131.117,-113.281,-35.156,-32.227,-287.109,0.000
1606134131.121,-192.383,-32.227,-32.715,-619.629,0.000
1606134131.125,-41.016,-21.973,-30.762,-139.160,0.000
1606134131.129,133.789,-18.555,-30.273,488.770,0.000
1606134131.132,102.539,-24.902,-25.391,457.520,0.000
1606134131.136,-93.262,-40.527,-29.785,-215.820,0.000
1606134131.140,-187.988,-21.484,-36.133,-623.047,0.000
1606134131.144,-70.312,-3.906,-28.809,-240.723,0.000
1606134131.148,100.098,-22.461,-19.043,403.320,0.000
1606134131.152,101.562,-27.832,-20.996,465.332,0.000
1606134131.156,-78.613,-38.086,-31.738,-148.926,0.000
1606134131.160,-193.359,-40.039,-36.133,-585.449,0.000
1606134131.164,-101.562,-32.715,-26.367,-297.852,0.000
1606134131.168,84.473,-23.926,-15.625,349.121,0.000
1606134131.171,123.047,-22.949,-19.531,515.137,0.000
1606134131.175,-45.410,-35.156,-30.273,-63.965,0.000
1606134131.179,-187.500,-33.203,-36.621,-584.473,0.000
1606134131.183,-125.977,-24.414,-34.668,-390.625,0.000
1606134131.187,62.012,-20.996,-19.531,281.738,0.000
1606134131.191,121.094,-18.555,-14.648,541.504,0.000
1606134131.195,-27.832,-28.320,-26.855,32.715,0.000
1606134131.199,-179.688,-33.203,-38.086,-536.133,0.000
1606134131.203,-125.488,-23.926,-40.039,-429.199,0.000
1606134131.207,68.848,-14.160,-25.391,254.883,0.000
1606134131.211,139.648,-12.207,-18.555,591.309,0.000
1606134131.214,1.953,-29.297,-31.738,134.766,0.000
1606134131.218,-160.156,-24.902,-41.504,-487.793,0.000
1606134131.222,-145.996,6.836,-40.527,-492.188,0.000
1606134131.226,45.410,-6.348,-27.832,169.434,0.000
1606134131.230,152.832,-26.367,-14.648,591.797,0.000
1606134131.234,33.691,-34.180,-24.414,219.727,0.000
1606134131.238,-152.832,-40.527,-33.691,-447.266,0.000
1606134131.242,-169.434,-39.551,-30.273,-553.711,0.000
1606134131.246,12.695,-33.691,-21.973,76.172,0.000
1606134131.250,147.949,-21.973,-15.625,573.242,0.000
1606134131.254,59.082,-30.273,-23.438,288.086,0.000
1606134131.257,-129.883,-41.504,-37.598,-408.203,0.000
1606134131.261,-166.016,-41.992,-35.645,-603.027,0.000
1606134131.265,-1.953,-37.598,-25.391,-15.625,0.000
1606134131.269,141.113,-25.879,-18.555,532.715,0.000
1606134131.273,70.312,-25.391,-15.625,338.867,0.000
1606134131.277,-128.906,-40.039,-26.855,-352.051,0.000
1606134131.281,-196.777,-39.062,-34.668,-625.000,0.000
1606134131.285,-48.828,-26.367,-28.809,-114.746,0.000
1606134131.289,108.398,-20.508,-19.043,472.168,0.000
1606134131.293,70.801,-27.344,-22.949,375.000,0.000
1606134131.296,-121.582,-41.504,-34.180,-291.992,0.000
1606134131.300,-210.449,-43.945,-34.180,-625.000,0.000
1606134131.304,-80.566,-33.691,-25.391,-190.918,0.000
1606134131.308,89.355,-21.973,-17.090,427.246,0.000
1606134131.312,78.613,-21.484,-14.160,451.172,0.000
1606134131.316,-107.422,-41.016,-23.926,-198.242,0.000
1606134131.320,-211.914,-30.762,-37.109,-627.441,0.000
1606134131.324,-93.750,-6.836,-36.133,-275.391,0.000
1606134131.328,94.727,-15.625,-23.438,373.535,0.000
1606134131.332,111.328,-20.020,-21.484,482.422,0.000
1606134131.336,-60.059,-31.738,-22.461,-113.770,0.000
1606134131.339,-180.664,-38.574,-24.414,-590.332,0.000
1606134131.343,-103.516,-35.156,-27.344,-345.703,0.000
1606134131.347,76.172,-27.832,-21.973,311.035,0.000
1606134131.351,119.629,-22.949,-18.555,508.789,0.000
1606134131.355,-37.109,-34.180,-25.391,-46.387,0.000
1606134131.359,-186.035,-45.410,-38.086,-581.055,0.000
1606134131.363,-137.695,-42.969,-35.156,-422.852,0.000
1606134131.367,54.199,-32.715,-23.438,247.559,0.000
1606134131.371,123.047,-25.391,-19.531,539.551,0.000
1606134131.375,-21.973,-25.879,-23.926,53.711,0.000
1606134131.379,-180.664,-32.227,-34.180,-545.410,0.000
1606134131.382,-144.043,-32.715,-34.180,-488.770,0.000
1606134131.386,52.734,-17.578,-25.391,191.895,0.000
1606134131.390,147.461,-6.836,-22.461,567.383,0.000
1606134131.394,17.090,-17.090,-20.508,148.926,0.000
1606134131.398,-162.109,-29.297,-35.645,-495.117,0.000
1606134131.402,-156.250,-31.250,-41.016,-543.457,0.000
1606134131.406,31.250,-14.648,-26.367,120.117,0.000
1606134131.410,140.625,-10.742,-24.902,566.406,0.000
1606134131.414,29.297,-26.855,-32.227,213.379,0.000
1606134131.418,-159.668,-36.621,-35.645,-467.285,0.000
1606134131.421,-189.453,-25.391,-36.133,-603.027,0.000
1606134131.425,-13.672,-20.020,-26.367,22.461,0.000
1606134131.429,136.719,-20.996,-10.742,552.734,0.000
1606134131.433,57.617,-16.602,-11.230,315.918,0.000
1606134131.437,-151.367,-30.762,-30.273,-378.906,0.000
1606134131.441,-203.613,-40.039,-36.133,-618.652,0.000
1606134131.445,-31.738,-29.785,-22.461,-45.410,0.000
1606134131.449,127.441,-12.207,-22.461,545.410,0.000
1606134131.453,75.195,-16.602,-28.320,395.508,0.000
1606134131.457,-120.605,-33.691,-33.691,-309.570,0.000
1606134131.461,-204.102,-18.066,-38.574,-636.230,0.000
1606134131.464,-62.500,-13.672,-30.273,-147.949,0.000
1606134131.468,116.211,-19.043,-24.414,491.699,0.000
1606134131.472,96.191,-16.113,-30.273,458.008,0.000
1606134131.476,-96.191,-29.785,-33.203,-232.910,0.000
1606134131.480,-195.312,-36.133,-37.109,-634.766,0.000
1606134131.484,-68.848,-30.762,-32.227,-224.609,0.000
1606134131.488,130.859,-16.113,-17.578,450.195,0.000
1606134131.492,118.652,-12.207,-23.438,506.836,0.000
1606134131.496,-92.285,-34.668,-32.227,-160.645,0.000
1606134131.500,-208.496,-9.277,-35.156,-627.930,0.000
1606134131.504,-104.004,24.902,-35.645,-308.594,0.000
1606134131.507,82.031,-7.812,-31.250,355.469,0.000
1606134131.511,108.887,-24.902,-27.832,512.207,0.000
1606134131.515,-66.406,-32.715,-30.273,-81.543,0.000
1606134131.519,-208.984,-39.551,-34.668,-624.512,0.000
1606134131.523,-137.207,-38.086,-36.133,-400.879,0.000
1606134131.527,62.988,-24.902,-21.484,306.641,0.000
1606134131.531,121.582,-24.414,-16.602,558.594,0.000
1606134131.535,-43.457,-38.086,-27.832,3.418,0.000
1606134131.539,-201.172,-43.457,-38.086,-593.750,0.000
1606134131.543,-142.578,-34.180,-41.504,-466.797,0.000
1606134131.546,61.523,-21.973,-29.785,252.930,0.000
1606134131.550,131.348,-20.996,-24.414,591.309,0.000
1606134131.554,-10.254,-35.645,-32.227,101.074,0.000
1606134131.558,-183.594,-39.551,-43.457,-547.852,0.000
1606134131.562,-158.203,-23.438,-38.574,-525.391,0.000
1606134131.566,50.293,-18.555,-25.391,176.758,0.000
1606134131.570,157.227,-19.043,-20.996,593.750,0.000
1606134131.574,39.551,-31.738,-24.902,197.754,0.000
1606134131.578,-146.484,-40.527,-36.133,-476.074,0.000
1606134131.582,-157.715,-39.062,-27.344,-560.059,0.000
1606134131.586,43.457,-31.738,-19.043,108.887,0.000
1606134131.589,179.688,-13.672,-24.414,603.027,0.000
1606134131.593,71.289,-5.371,-25.879,290.527,0.000
1606134131.597,-136.719,-15.625,-38.086,-417.480,0.000
1606134131.601,-163.574,-14.160,-41.504,-604.492,0.000
1606134131.605,17.090,-9.277,-29.297,5.859,0.000
1606134131.609,154.297,-4.395,-24.902,566.895,0.000
1606134131.613,79.590,-8.789,-30.273,358.398,0.000
1606134131.617,-115.723,-23.438,-37.598,-348.633,0.000
1606134131.621,-181.641,4.883,-45.410,-619.629,0.000
1606134131.625,-13.672,17.090,-43.945,-81.055,0.000
1606134131.629,149.414,-1.465,-27.344,527.832,0.000
1606134131.632,94.727,-6.836,-21.973,422.852,0.000
1606134131.636,-100.098,-25.391,-43.457,-269.043,0.000
1606134131.640,-186.035,-8.301,-55.176,-605.469,0.000
1606134131.644,-56.152,-5.371,-43.945,-156.250,0.000
1606134131.648,110.352,-18.066,-32.715,457.031,0.000
1606134131.652,95.215,-15.625,-29.297,446.289,0.000
1606134131.656,-87.402,-30.762,-33.691,-198.730,0.000
1606134131.660,-186.035,-37.109,-34.668,-597.656,0.000
1606134131.664,-71.289,-27.832,-28.320,-231.934,0.000
1606134131.668,103.027,-17.090,-20.020,400.391,0.000
1606134131.671,112.305,-16.113,-15.137,484.375,0.000
1606134131.675,-64.941,-26.855,-29.297,-127.930,0.000
1606134131.679,-195.801,-37.109,-39.062,-627.441,0.000
1606134131.683,-98.633,-32.227,-32.715,-303.223,0.000
1606134131.687,94.238,-18.066,-28.809,404.297,0.000
1606134131.691,122.559,-14.160,-32.227,529.297,0.000
1606134131.695,-45.898,-33.203,-41.016,-48.828,0.000
1606134131.699,-193.848,-29.297,-46.387,-597.656,0.000
1606134131.703,-122.070,0.000,-40.527,-414.551,0.000
1606134131.707,85.938,-11.230,-27.344,285.645,0.000
1606134131.711,156.250,-23.438,-20.508,562.500,0.000
1606134131.714,-5.371,-30.762,-22.949,41.504,0.000
1606134131.718,-172.363,-34.180,-31.738,-554.199,0.000
1606134131.722,-141.113,-34.180,-37.598,-474.121,0.000
1606134131.726,51.758,-26.855,-31.738,210.938,0.000
1606134131.730,145.996,-12.695,-20.508,583.984,0.000
1606134131.734,15.625,-26.367,-28.320,137.207,0.000
1606134131.738,-169.922,-40.039,-43.945,-527.344,0.000
1606134131.742,-169.434,-27.832,-39.062,-546.875,0.000
1606134131.746,39.551,-22.461,-30.273,139.160,0.000
1606134131.750,146.484,-20.020,-31.250,588.379,0.000
1606134131.754,32.227,-24.902,-30.273,228.516,0.000
1606134131.757,-147.461,-32.715,-33.691,-452.148,0.000
1606134131.761,-169.434,-35.156,-38.574,-577.148,0.000
1606134131.765,12.695,-27.832,-29.785,56.152,0.000
1606134131.769,147.461,-17.090,-25.879,567.383,0.000
1606134131.773,60.547,-18.066,-24.902,302.734,0.000
1606134131.777,-140.137,-26.855,-27.344,-393.066,0.000
1606134131.781,-189.453,-7.812,-36.133,-606.934,0.000
1606134131.785,-23.438,-4.395,-29.785,-33.691,0.000
1606134131.789,127.930,-18.066,-24.414,528.320,0.000
1606134131.793,74.219,-20.508,-25.391,364.746,0.000
1606134131.796,-116.699,-31.250,-29.297,-322.754,0.000
1606134131.800,-185.547,-34.668,-31.250,-621.582,0.000
1606134131.804,-28.320,-27.832,-27.344,-113.770,0.000
1606134131.808,138.184,-19.043,-18.555,509.766,0.000
1606134131.812,94.727,-20.508,-19.043,440.430,0.000
1606134131.816,-110.352,-36.621,-27.344,-262.207,0.000
1606134131.820,-203.125,-42.480,-28.320,-643.555,0.000
1606134131.824,-62.500,-27.832,-24.902,-196.777,0.000
1606134131.828,135.742,-10.254,-20.996,474.121,0.000
1606134131.832,130.859,-8.301,-20.996,494.141,0.000
1606134131.836,-79.590,-34.180,-23.438,-189.941,0.000
1606134131.839,-194.824,-34.180,-30.762,-640.137,0.000
1606134131.843,-84.473,-14.160,-28.320,-286.133,0.000
1606134131.847,104.980,-15.625,-15.137,408.691,0.000
1606134131.851,134.277,-15.625,-18.555,548.828,0.000
1606134131.855,-44.922,-26.367,-26.367,-86.426,0.000
1606134131.859,-183.105,-32.227,-23.438,-614.746,0.000
1606134131.863,-90.332,-20.508,-25.879,-365.723,0.000
1606134131.867,106.934,-15.625,-17.090,341.797,0.000
1606134131.871,127.930,-23.926,-10.254,578.125,0.000
1606134131.875,-50.781,-37.598,-29.785,3.906,0.000
1606134131.879,-209.961,-37.598,-42.969,-594.727,0.000
1606134131.882,-156.738,-8.301,-34.668,-457.520,0.000
1606134131.886,49.316,-7.812,-21.484,256.836,0.000
1606134131.890,134.277,-18.555,-13.672,584.473,0.000
1606134131.894,-15.625,-27.344,-26.367,80.078,0.000
1606134131.898,-187.012,-44.922,-37.598,-565.918,0.000
1606134131.902,-155.273,-44.922,-32.227,-526.367,0.000
1606134131.906,40.527,-32.227,-25.879,175.781,0.000
1606134131.910,138.672,-24.414,-15.137,577.637,0.000
1606134131.914,9.766,-35.645,-15.625,156.738,0.000
1606134131.918,-172.852,-36.133,-34.668,-507.812,0.000
1606134131.921,-173.828,-22.461,-40.039,-567.871,0.000
1606134131.925,20.020,-20.508,-23.438,105.957,0.000
1606134131.929,142.090,-18.066,-17.090,580.566,0.000
1606134131.933,36.621,-27.344,-21.973,247.070,0.000
1606134131.937,-148.926,-39.551,-28.320,-436.035,0.000
1606134131.941,-176.270,-37.109,-37.109,-592.773,0.000
1606134131.945,0.000,-27.832,-36.133,19.043,0.000
1606134131.949,144.043,-23.438,-23.926,554.199,0.000
1606134131.953,68.848,-22.461,-25.391,331.055,0.000
1606134131.957,-114.746,-29.297,-35.645,-354.980,0.000
1606134131.961,-171.387,-38.086,-33.203,-584.473,0.000
1606134131.964,-25.391,-26.367,-26.855,-39.062,0.000
1606134131.968,131.348,-5.859,-20.996,533.691,0.000
1606134131.972,90.820,-14.648,-24.414,400.391,0.000
1606134131.976,-115.723,-34.180,-34.668,-290.039,0.000
1606134131.980,-205.078,-23.926,-37.109,-609.863,0.000
1606134131.984,-50.781,-0.488,-29.297,-134.766,0.000
1606134131.988,116.699,-12.207,-23.438,472.656,0.000
1606134131.992,87.891,-23.438,-23.926,436.523,0.000
1606134131.996,-103.516,-32.715,-29.785,-229.004,0.000
1606134132.000,-199.219,-39.062,-33.691,-617.676,0.000
1606134132.004,-76.660,-31.738,-31.738,-231.445,0.000
1606134132.007,101.562,-24.902,-26.855,405.762,0.000
1606134132.011,112.305,-25.879,-21.973,480.469,0.000
1606134132.015,-64.453,-38.574,-26.367,-141.113,0.000
1606134132.019,-190.918,-41.016,-35.645,-604.492,0.000
1606134132.023,-95.703,-23.926,-32.227,-302.734,0.000
1606134132.027,95.703,-18.066,-22.461,377.930,0.000
1606134132.031,135.742,-15.137,-20.996,555.664,0.000
1606134132.035,-33.203,-24.414,-33.691,-38.574,0.000
1606134132.039,-165.527,-35.156,-39.551,-578.125,0.000
1606134132.043,-85.449,-35.156,-36.621,-360.352,0.000
1606134132.046,109.375,-20.020,-31.738,341.797,0.000
1606134132.050,146.484,-10.742,-28.320,571.777,0.000
1606134132.054,-34.668,-26.367,-34.180,20.996,0.000
1606134132.058,-181.641,-32.227,-43.457,-568.359,0.000
1606134132.062,-139.648,-23.926,-38.086,-462.891,0.000
1606134132.066,31.250,-22.949,-19.043,236.328,0.000
1606134132.070,126.465,-21.484,-9.277,573.242,0.000
1606134132.074,-8.301,-33.203,-19.043,107.422,0.000
1606134132.078,-184.082,-38.086,-25.391,-518.555,0.000
1606134132.082,-164.551,-17.578,-23.438,-512.695,0.000
1606134132.086,28.320,-13.672,-20.020,160.156,0.000
1606134132.089,139.648,-17.578,-16.113,578.613,0.000
1606134132.093,18.555,-20.996,-19.531,202.637,0.000
1606134132.097,-171.875,-31.738,-32.715,-471.680,0.000
1606134132.101,-189.453,-32.715,-37.598,-573.242,0.000
1606134132.105,0.000,-20.996,-25.879,87.402,0.000
1606134132.109,132.812,-17.578,-22.461,576.172,0.000
1606134132.113,40.527,-25.391,-22.949,277.832,0.000
1606134132.117,-147.461,-34.668,-34.180,-412.598,0.000
1606134132.121,-191.895,-18.555,-48.828,-613.281,0.000
1606134132.125,-15.625,-14.648,-36.133,-7.812,0.000
1606134132.129,136.230,-20.508,-23.438,558.105,0.000
1606134132.132,68.359,-21.484,-26.367,360.840,0.000
1606134132.136,-134.277,-35.156,-39.551,-348.633,0.000
1606134132.140,-209.961,-40.527,-43.457,-629.883,0.000
1606134132.144,-53.223,-35.645,-39.551,-106.445,0.000
1606134132.148,118.652,-25.391,-35.156,498.047,0.000
1606134132.152,91.309,-20.020,-27.832,418.457,0.000
1606134132.156,-99.121,-30.273,-34.668,-269.043,0.000
1606134132.160,-193.848,-24.414,-47.852,-640.137,0.000
1606134132.164,-56.152,-13.184,-41.992,-199.707,0.000
1606134132.168,125.977,-16.113,-23.438,454.590,0.000
1606134132.171,112.793,-17.578,-21.973,480.957,0.000
1606134132.175,-81.543,-30.762,-33.691,-191.895,0.000
1606134132.179,-195.801,-38.086,-34.668,-636.719,0.000
1606134132.183,-84.961,-30.273,-28.320,-279.297,0.000
1606134132.187,104.980,-16.113,-22.949,409.180,0.000
1606134132.191,122.070,-20.020,-20.020,532.227,0.000
1606134132.195,-65.918,-35.156,-27.344,-117.188,0.000
1606134132.199,-191.895,-27.832,-32.715,-632.812,0.000
1606134132.203,-105.469,-16.602,-28.320,-354.004,0.000
1606134132.207,86.426,-13.184,-22.949,346.191,0.000
1606134132.211,141.113,-11.230,-18.066,559.570,0.000
1606134132.214,-32.715,-30.762,-27.344,-29.785,0.000
1606134132.218,-193.848,-39.551,-38.574,-597.656,0.000
1606134132.222,-133.789,-31.738,-34.668,-424.805,0.000
1606134132.226,62.988,-31.250,-16.113,278.320,0.000
1606134132.230,135.254,-26.855,-10.742,578.125,0.000
1606134132.234,-12.695,-28.809,-22.461,67.383,0.000
1606134132.238,-176.270,-38.086,-27.344,-547.363,0.000
1606134132.242,-143.066,-30.273,-22.949,-486.328,0.000
1606134132.246,59.082,-10.254,-13.672,216.797,0.000
1606134132.250,152.344,-1.953,-12.695,601.562,0.000
1606134132.254,14.160,-20.020,-21.973,156.738,0.000
1606134132.257,-167.480,-37.109,-30.762,-512.207,0.000
1606134132.261,-159.180,-6.836,-32.227,-557.129,0.000
1606134132.265,36.621,5.859,-24.414,120.605,0.000
1606134132.269,154.297,-15.137,-18.555,589.844,0.000
1606134132.273,39.062,-28.320,-22.461,250.000,0.000
1606134132.277,-150.879,-35.156,-28.809,-432.129,0.000
1606134132.281,-173.828,-35.156,-34.180,-574.707,0.000
1606134132.285,3.906,-25.391,-23.926,55.176,0.000
1606134132.289,141.602,-18.555,-15.137,583.496,0.000
1606134132.293,62.988,-22.461,-20.020,338.867,0.000
1606134132.296,-131.348,-37.109,-26.855,-365.234,0.000
1606134132.300,-181.641,-30.273,-30.762,-614.258,0.000
1606134132.304,-8.789,-15.625,-22.949,-38.574,0.000
1606134132.308,148.438,-11.230,-13.184,551.758,0.000
1606134132.312,84.473,-20.020,-17.578,401.367,0.000
1606134132.316,-118.164,-40.527,-25.391,-307.129,0.000
1606134132.320,-189.453,-43.457,-27.344,-626.953,0.000
1606134132.324,-39.551,-35.645,-24.414,-125.488,0.000
1606134132.328,139.160,-12.695,-12.207,519.043,0.000
1606134132.332,111.328,-11.719,-8.301,472.168,0.000
1606134132.336,-105.957,-34.180,-22.949,-237.305,0.000
1606134132.339,-211.426,-38.086,-39.062,-645.020,0.000
1606134132.343,-77.637,-29.297,-35.645,-226.074,0.000
1606134132.347,102.539,-25.879,-28.320,444.336,0.000
1606134132.351,95.703,-25.391,-29.785,492.676,0.000
1606134132.355,-95.703,-41.016,-37.109,-180.176,0.000
1606134132.359,-209.961,-30.762,-38.574,-647.949,0.000
1606134132.363,-104.492,-6.836,-33.691,-313.965,0.000
1606134132.367,92.285,-17.090,-22.461,382.324,0.000
1606134132.371,122.559,-26.367,-21.973,534.668,0.000
1606134132.375,-61.523,-33.203,-35.156,-89.355,0.000
1606134132.379,-204.102,-41.504,-40.039,-633.301,0.000
1606134132.382,-122.559,-36.621,-34.668,-403.320,0.000
1606134132.386,85.938,-20.996,-23.926,320.312,0.000
1606134132.390,142.090,-19.531,-20.508,574.707,0.000
1606134132.394,-29.297,-30.273,-25.879,8.301,0.000
1606134132.398,-189.941,-39.062,-31.250,-590.332,0.000
1606134132.402,-140.137,-33.691,-30.273,-470.703,0.000
1606134132.406,62.988,-21.973,-16.602,250.977,0.000
1606134132.410,142.578,-22.949,-10.742,594.238,0.000
1606134132.414,-3.418,-39.551,-25.391,96.680,0.000
1606134132.418,-178.711,-42.480,-32.715,-551.270,0.000
1606134132.421,-158.203,-29.297,-31.250,-524.902,0.000
1606134132.425,41.992,-19.043,-26.367,173.340,0.000
1606134132.429,145.020,-13.184,-22.949,580.078,0.000
1606134132.433,22.461,-19.531,-26.367,169.922,0.000
1606134132.437,-163.086,-32.227,-30.273,-492.676,0.000
1606134132.441,-174.316,1.953,-35.645,-576.660,0.000
1606134132.445,13.184,15.137,-31.738,78.613,0.000
1606134132.449,132.324,-15.625,-19.531,549.316,0.000
1606134132.453,32.715,-21.484,-23.438,239.746,0.000
1606134132.457,-152.344,-32.715,-30.762,-428.223,0.000
1606134132.461,-192.871,-47.363,-30.273,-620.605,0.000
1606134132.464,-18.555,-40.527,-23.438,-15.137,0.000
1606134132.468,125.000,-24.902,-13.672,542.969,0.000
1606134132.472,48.828,-25.391,-20.020,338.867,0.000
1606134132.476,-147.949,-40.527,-30.273,-355.957,0.000
1606134132.480,-200.684,-34.180,-28.809,-615.234,0.000
1606134132.484,-36.621,-25.391,-28.320,-82.031,0.000
1606134132.488,117.188,-29.785,-25.391,499.023,0.000
1606134132.492,70.312,-34.668,-21.484,386.719,0.000
1606134132.496,-120.117,-47.852,-29.297,-291.016,0.000
1606134132.500,-194.336,-43.945,-32.227,-612.793,0.000
1606134132.504,-54.688,-34.668,-28.809,-166.504,0.000
1606134132.507,114.746,-26.855,-20.508,435.547,0.000
1606134132.511,104.492,-20.020,-20.020,436.035,0.000
1606134132.515,-82.520,-35.156,-24.902,-199.707,0.000
1606134132.519,-206.543,-46.875,-29.785,-622.070,0.000
1606134132.523,-95.703,-37.598,-26.855,-250.000,0.000
1606134132.527,83.008,-25.391,-17.090,389.160,0.000
1606134132.531,83.984,-27.832,-16.113,480.957,0.000
1606134132.535,-89.844,-44.434,-28.320,-108.887,0.000
1606134132.539,-219.727,-40.527,-43.945,-619.629,0.000
1606134132.543,-125.977,-10.742,-40.527,-350.098,0.000
1606134132.546,71.777,-20.020,-25.879,347.168,0.000
1606134132.550,113.281,-35.645,-20.508,542.969,0.000
1606134132.554,-58.105,-39.551,-25.879,-42.969,0.000
1606134132.558,-199.219,-47.363,-30.273,-595.215,0.000
1606134132.562,-132.812,-41.504,-29.785,-405.273,0.000
1606134132.566,58.105,-31.250,-22.461,289.551,0.000
1606134132.570,129.395,-27.832,-15.625,569.824,0.000
1606134132.574,-13.184,-34.180,-17.578,62.500,0.000
1606134132.578,-175.293,-33.691,-29.785,-545.898,0.000
1606134132.582,-139.648,-26.855,-35.156,-468.262,0.000
1606134132.586,55.176,-28.809,-25.391,218.262,0.000
1606134132.589,141.113,-26.367,-19.043,582.031,0.000
1606134132.593,5.371,-28.809,-21.973,142.578,0.000
1606134132.597,-163.574,-38.574,-30.762,-507.324,0.000
1606134132.601,-149.414,-41.016,-29.297,-530.762,0.000
1606134132.605,27.344,-34.668,-16.113,149.414,0.000
1606134132.609,133.301,-25.879,-18.066,590.820,0.000
1606134132.613,28.320,-29.785,-31.250,225.586,0.000
1606134132.617,-151.855,-39.551,-37.109,-459.473,0.000
1606134132.621,-174.316,-29.297,-33.691,-573.242,0.000
1606134132.625,7.812,-15.625,-28.809,70.801,0.000
1606134132.629,139.160,-17.090,-20.996,560.059,0.000
1606134132.632,51.758,-24.414,-25.391,285.156,0.000
1606134132.636,-141.113,-45.898,-33.203,-398.438,0.000
1606134132.640,-180.664,-4.395,-27.832,-600.586,0.000
1606134132.644,-8.789,26.855,-17.578,-23.926,0.000
1606134132.648,136.719,-12.695,-5.859,519.043,0.000
1606134132.652,66.895,-25.879,-15.625,341.797,0.000
1606134132.656,-129.395,-41.504,-40.039,-326.172,0.000
1606134132.660,-194.824,-44.922,-45.898,-611.328,0.000
1606134132.664,-44.922,-37.109,-35.156,-98.633,0.000
1606134132.668,119.141,-28.809,-32.227,501.953,0.000
1606134132.671,83.984,-22.461,-34.180,405.762,0.000
1606134132.675,-102.539,-35.645,-35.645,-249.023,0.000
1606134132.679,-192.383,-24.902,-40.039,-611.328,0.000
1606134132.683,-71.777,-4.883,-33.203,-205.078,0.000
1606134132.687,113.281,-19.043,-20.020,424.805,0.000
1606134132.691,112.793,-26.855,-19.531,464.355,0.000
1606134132.695,-87.891,-41.016,-33.203,-176.270,0.000
1606134132.699,-207.031,-41.016,-35.156,-616.699,0.000
1606134132.703,-99.609,-31.250,-30.762,-277.344,0.000
1606134132.707,82.520,-26.855,-29.785,390.137,0.000
1606134132.711,106.445,-23.926,-26.367,526.367,0.000
1606134132.714,-60.059,-40.039,-28.809,-80.078,0.000
1606134132.718,-190.918,-37.109,-34.180,-588.379,0.000
1606134132.722,-118.652,1.465,-36.133,-354.004,0.000
1606134132.726,75.195,-8.789,-26.855,329.102,0.000
1606134132.730,134.766,-30.762,-26.367,552.734,0.000
1606134132.734,-26.367,-37.109,-34.668,-11.230,0.000
1606134132.738,-177.246,-42.969,-36.133,-583.496,0.000
1606134132.742,-125.488,-43.945,-36.133,-449.707,0.000
1606134132.746,65.918,-36.621,-33.203,242.676,0.000
1606134132.750,146.973,-25.391,-28.320,574.707,0.000
1606134132.754,-1.953,-35.645,-34.668,84.961,0.000
1606134132.757,-180.664,-41.016,-42.480,-548.340,0.000
1606134132.761,-152.832,-30.273,-37.598,-506.348,0.000
1606134132.765,42.969,-21.973,-24.414,184.082,0.000
1606134132.769,140.625,-15.625,-15.137,585.449,0.000
1606134132.773,24.414,-29.297,-21.484,173.828,0.000
1606134132.777,-173.340,-49.316,-42.969,-504.395,0.000
1606134132.781,-181.152,-15.137,-39.062,-562.012,0.000
1606134132.785,14.160,-6.836,-22.949,108.398,0.000
1606134132.789,126.465,-22.461,-16.113,576.660,0.000
1606134132.793,30.762,-26.367,-17.090,249.512,0.000
1606134132.796,-155.273,-42.969,-28.320,-434.570,0.000
1606134132.800,-179.199,-45.898,-32.227,-583.008,0.000
1606134132.804,1.953,-30.273,-24.902,26.855,0.000
1606134132.808,134.766,-14.160,-23.926,553.711,0.000
1606134132.812,53.223,-20.996,-21.973,337.402,0.000
1606134132.816,-143.066,-49.805,-22.461,-354.004,0.000
1606134132.820,-208.008,-21.484,-40.039,-625.977,0.000
1606134132.824,-44.922,20.020,-42.480,-83.984,0.000
1606134132.828,131.348,-7.812,-22.461,533.691,0.000
1606134132.832,86.426,-24.902,-21.973,415.527,0.000
1606134132.836,-112.305,-36.621,-33.691,-292.969,0.000
1606134132.839,-186.035,-34.180,-32.715,-623.047,0.000
1606134132.843,-41.992,-30.273,-29.785,-145.020,0.000
1606134132.847,129.395,-29.785,-23.438,493.164,0.000
1606134132.851,113.281,-24.902,-20.020,477.539,0.000
1606134132.855,-86.426,-40.527,-34.180,-207.520,0.000
1606134132.859,-188.965,-26.855,-44.434,-627.930,0.000
1606134132.863,-61.035,-11.230,-32.715,-242.676,0.000
1606134132.867,120.117,-22.461,-14.648,442.871,0.000
1606134132.871,127.930,-20.508,-16.113,525.879,0.000
1606134132.875,-64.941,-32.715,-27.832,-136.719,0.000
1606134132.879,-192.871,-37.598,-37.598,-633.789,0.000
1606134132.882,-95.215,-30.273,-38.086,-334.473,0.000
1606134132.886,102.051,-22.461,-22.461,374.023,0.000
1606134132.890,141.602,-20.020,-17.578,563.477,0.000
1606134132.894,-34.668,-34.180,-26.855,-41.016,0.000
1606134132.898,-185.059,-42.969,-33.691,-594.727,0.000
1606134132.902,-114.258,-35.645,-26.855,-389.648,0.000
1606134132.906,88.379,-21.484,-17.090,324.219,0.000
1606134132.910,147.949,-14.648,-14.648,591.309,0.000
1606134132.914,-20.508,-34.180,-29.297,27.832,0.000
1606134132.918,-187.988,-45.410,-45.898,-580.566,0.000
1606134132.921,-141.602,-18.066,-40.039,-469.238,0.000
1606134132.925,63.477,-6.836,-22.461,250.000,0.000
1606134132.929,154.785,-17.578,-20.020,606.445,0.000
1606134132.933,14.648,-29.785,-29.785,136.719,0.000
1606134132.937,-161.133,-42.969,-31.738,-504.883,0.000
1606134132.941,-153.320,-43.457,-25.391,-511.719,0.000
1606134132.945,33.691,-34.668,-14.648,167.480,0.000
1606134132.949,146.484,-20.020,-17.090,603.027,0.000
1606134132.953,34.668,-22.461,-25.879,223.633,0.000
1606134132.957,-155.273,-42.969,-29.785,-464.355,0.000
1606134132.961,-173.340,-41.992,-32.227,-574.219,0.000
1606134132.964,14.160,-23.438,-22.461,65.430,0.000
1606134132.968,145.508,-18.555,-18.066,560.547,0.000
1606134132.972,53.711,-29.785,-22.949,276.855,0.000
1606134132.976,-139.160,-41.016,-33.691,-408.691,0.000
1606134132.980,-179.688,-41.504,-39.551,-604.004,0.000
1606134132.984,-7.324,-35.156,-25.879,-15.137,0.000
1606134132.988,140.625,-31.250,-17.090,531.250,0.000
1606134132.992,72.266,-33.691,-23.438,343.750,0.000
1606134132.996,-124.512,-38.574,-31.738,-314.453,0.000
1606134133.000,-186.523,-38.086,-35.156,-573.242,0.000
1606134133.004,-38.574,-21.973,-32.227,-84.473,0.000
1606134133.007,114.258,-16.113,-17.578,477.051,0.000
1606134133.011,76.660,-27.344,-20.508,384.277,0.000
1606134133.015,-107.422,-40.039,-34.668,-268.555,0.000
1606134133.019,-187.988,-41.504,-34.668,-601.562,0.000
1606134133.023,-52.734,-29.785,-33.691,-175.293,0.000
1606134133.027,121.094,-17.578,-28.809,447.266,0.000
1606134133.031,127.441,-18.066,-23.438,477.051,0.000
1606134133.035,-64.941,-34.180,-28.809,-169.922,0.000
1606134133.039,-189.453,-46.875,-28.809,-591.797,0.000
1606134133.043,-73.242,-34.668,-12.695,-239.258,0.000
1606134133.046,112.305,-19.531,-11.230,419.434,0.000
1606134133.050,126.465,-20.996,-16.602,530.762,0.000
1606134133.054,-58.105,-35.645,-23.438,-106.445,0.000
1606134133.058,-198.242,-34.180,-31.738,-625.488,0.000
1606134133.062,-113.770,-13.672,-28.320,-371.582,0.000
1606134133.066,80.078,-21.973,-19.531,326.172,0.000
1606134133.070,141.602,-32.227,-18.555,540.527,0.000
1606134133.074,-31.738,-40.527,-21.484,-33.203,0.000
1606134133.078,-200.684,-46.875,-28.320,-597.168,0.000
1606134133.082,-128.418,-40.527,-33.203,-439.453,0.000
1606134133.086,78.125,-32.227,-22.461,263.672,0.000
1606134133.089,147.461,-21.484,-15.137,574.707,0.000
1606134133.093,-9.277,-26.367,-24.902,79.102,0.000
1606134133.097,-183.105,-41.504,-37.109,-549.805,0.000
1606134133.101,-155.762,-16.602,-39.062,-506.836,0.000
1606134133.105,43.945,-0.977,-27.344,187.012,0.000
1606134133.109,138.184,-22.461,-20.020,579.590,0.000
1606134133.113,5.859,-32.227,-20.508,151.367,0.000
1606134133.117,-173.828,-39.551,-21.973,-511.230,0.000
1606134133.121,-176.758,-42.480,-23.926,-559.082,0.000
1606134133.125,13.184,-36.133,-24.414,102.051,0.000
1606134133.129,140.625,-24.902,-25.391,568.359,0.000
1606134133.132,31.738,-35.156,-25.879,238.281,0.000
1606134133.136,-163.574,-49.805,-37.598,-446.289,0.000
1606134133.140,-189.941,-44.922,-45.410,-594.727,0.000
1606134133.144,-5.371,-37.109,-34.180,31.250,0.000
1606134133.148,144.531,-26.855,-20.996,569.336,0.000
1606134133.152,65.430,-27.344,-18.555,329.102,0.000
1606134133.156,-136.719,-41.016,-21.484,-375.977,0.000
1606134133.160,-192.383,-41.016,-24.902,-622.559,0.000
1606134133.164,-19.043,-30.762,-24.414,-59.082,0.000
1606134133.168,138.184,-27.344,-18.066,533.203,0.000
1606134133.171,82.031,-30.762,-16.602,398.926,0.000
1606134133.175,-125.488,-39.062,-32.227,-318.359,0.000
1606134133.179,-195.801,-41.504,-39.062,-661.133,0.000
1606134133.183,-44.434,-25.391,-30.273,-160.645,0.000
1606134133.187,118.652,-16.602,-27.344,496.094,0.000
1606134133.191,100.586,-21.484,-26.367,457.520,0.000
1606134133.195,-105.469,-34.668,-29.785,-251.465,0.000
1606134133.199,-211.426,-40.527,-35.645,-665.039,0.000
1606134133.203,-78.613,-19.043,-33.691,-250.977,0.000
1606134133.207,114.258,-14.160,-17.090,433.105,0.000
1606134133.211,118.652,-21.973,-14.648,500.488,0.000
1606134133.214,-78.125,-31.738,-32.227,-166.992,0.000
1606134133.218,-201.660,-40.527,-34.668,-631.836,0.000
1606134133.222,-98.633,-40.527,-24.414,-303.223,0.000
1606134133.226,96.191,-27.344,-16.113,393.555,0.000
1606134133.230,129.395,-17.090,-12.695,562.012,0.000
1606134133.234,-47.852,-34.668,-17.090,-56.152,0.000
1606134133.238,-191.406,-36.621,-24.902,-613.281,0.000
1606134133.242,-119.141,-16.602,-27.832,-402.344,0.000
1606134133.246,83.008,-17.578,-20.020,315.918,0.000
1606134133.250,149.902,-16.602,-16.113,589.355,0.000
1606134133.254,-8.789,-27.832,-26.855,40.039,0.000
1606134133.257,-171.875,-42.480,-30.273,-570.801,0.000
1606134133.261,-127.930,-39.062,-30.273,-468.750,0.000
1606134133.265,74.707,-31.738,-31.738,238.770,0.000
1606134133.269,159.668,-25.391,-29.297,589.844,0.000
1606134133.273,15.625,-32.227,-28.320,116.699,0.000
1606134133.277,-154.785,-43.945,-32.715,-524.414,0.000
1606134133.281,-142.090,-17.578,-39.062,-515.137,0.000
1606134133.285,43.945,-3.906,-34.180,163.574,0.000
1606134133.289,161.133,-20.508,-26.855,572.266,0.000
1606134133.293,39.551,-32.227,-32.227,196.289,0.000
1606134133.296,-145.020,-40.039,-40.527,-447.754,0.000
1606134133.300,-172.852,-27.344,-41.992,-569.824,0.000
1606134133.304,-24.902,-22.461,-38.574,23.438,0.000
1606134133.308,91.797,-20.996,-31.738,479.004,0.000
1606134133.312,-13.184,-20.508,-31.738,184.570,0.000
1606134133.316,-204.590,-31.250,-43.945,-481.445,0.000
1606134133.320,-251.465,-27.344,-44.434,-669.922,0.000
1606134133.324,-106.445,-19.531,-29.297,-114.746,0.000
1606134133.328,20.020,-12.207,-20.996,395.020,0.000
1606134133.332,-67.383,-12.695,-22.949,184.570,0.000
1606134133.336,-250.977,-36.621,-29.297,-488.281,0.000
1606134133.339,-318.848,-10.742,-31.738,-739.746,0.000
1606134133.343,-195.312,13.184,-20.508,-238.281,0.000
1606134133.347,-29.785,-16.602,-11.230,328.613,0.000
1606134133.351,-77.637,-28.320,-13.672,235.352,0.000
1606134133.355,-268.066,-38.086,-20.020,-426.270,0.000
1606134133.359,-336.914,-33.691,-19.531,-749.512,0.000
1606134133.363,-195.312,-32.227,-15.625,-301.270,0.000
1606134133.367,-16.602,-29.297,-12.695,328.125,0.000
1606134133.371,-14.160,-28.809,-8.301,359.863,0.000
1606134133.375,-178.223,-41.016,-15.625,-272.461,0.000
1606134133.379,-271.973,-40.039,-31.250,-691.406,0.000
1606134133.382,-152.344,-2.930,-35.156,-331.055,0.000
1606134133.386,58.594,11.230,-33.203,348.145,0.000
1606134133.390,75.684,-24.902,-34.180,474.121,0.000
1606134133.394,-101.562,-46.875,-40.039,-133.789,0.000
1606134133.398,-208.984,-43.945,-44.434,-612.305,0.000
1606134133.402,-116.699,-45.410,-32.715,-341.309,0.000
1606134133.406,79.102,-43.945,-22.949,356.934,0.000
1606134133.410,135.254,-36.133,-26.855,576.660,0.000
1606134133.414,-26.367,-45.898,-27.832,-7.324,0.000
1606134133.418,-170.898,-51.758,-32.715,-565.430,0.000
1606134133.421,-101.074,-34.180,-32.715,-383.789,0.000
1606134133.425,105.469,-23.438,-21.484,310.059,0.000
1606134133.429,178.223,-29.785,-19.531,599.121,0.000
1606134133.433,24.902,-38.086,-22.949,96.680,0.000
1606134133.437,-144.531,-44.922,-27.344,-495.117,0.000
1606134133.441,-112.793,-45.898,-28.809,-434.082,0.000
1606134133.445,84.473,-32.227,-22.949,235.352,0.000
1606134133.449,179.688,-29.297,-25.879,607.422,0.000
1606134133.453,57.129,-38.086,-30.762,189.941,0.000
1606134133.457,-123.535,-39.551,-30.273,-455.078,0.000
1606134133.461,-129.395,-39.062,-32.227,-502.930,0.000
1606134133.464,62.012,-26.367,-20.508,166.504,0.000
1606134133.468,177.246,-20.020,-10.254,624.512,0.000
1606134133.472,71.777,-25.391,-20.020,281.738,0.000
1606134133.476,-119.141,-43.945,-31.738,-390.625,0.000
1606134133.480,-136.719,-14.160,-34.180,-530.273,0.000
1606134133.484,35.645,17.090,-21.973,92.773,0.000
1606134133.488,150.391,-18.555,-15.137,607.910,0.000
1606134133.492,78.613,-41.016,-22.949,353.516,0.000
1606134133.496,-104.980,-46.875,-28.809,-335.449,0.000
1606134133.500,-157.715,-45.410,-31.250,-573.730,0.000
1606134133.504,15.137,-37.598,-19.043,-2.441,0.000
1606134133.507,171.875,-23.926,-5.859,571.289,0.000
1606134133.511,116.211,-23.438,-12.207,416.016,0.000
1606134133.515,-66.895,-37.598,-26.855,-261.230,0.000
1606134133.519,-147.461,-40.039,-30.762,-591.309,0.000
1606134133.523,-0.977,-35.156,-23.438,-103.027,0.000
1606134133.527,175.293,-37.598,-18.066,521.484,0.000
1606134133.531,139.160,-36.621,-20.996,476.562,0.000
1606134133.535,-64.941,-44.922,-35.645,-226.562,0.000
1606134133.539,-166.016,-50.293,-36.621,-637.207,0.000
1606134133.543,-47.363,-41.504,-26.855,-214.355,0.000
1606134133.546,134.277,-25.879,-18.555,459.961,0.000
1606134133.550,134.766,-25.391,-14.160,521.973,0.000
1606134133.554,-72.754,-47.363,-30.273,-153.320,0.000
1606134133.558,-195.801,-46.387,-39.551,-636.230,0.000
1606134133.562,-93.262,-23.438,-27.344,-302.734,0.000
1606134133.566,82.031,-24.902,-19.531,387.207,0.000
1606134133.570,109.375,-26.367,-16.113,541.992,0.000
1606134133.574,-74.707,-41.016,-23.438,-86.426,0.000
1606134133.578,-220.703,-48.340,-37.598,-636.230,0.000
1606134133.582,-139.160,-30.762,-28.320,-397.461,0.000
1606134133.586,69.336,-26.367,-17.578,323.730,0.000
1606134133.589,125.977,-29.785,-16.113,582.520,0.000
1606134133.593,-42.480,-42.480,-20.508,23.926,0.000
1606134133.597,-201.660,-53.223,-29.297,-583.008,0.000
1606134133.601,-147.461,-42.480,-26.367,-461.914,0.000
1606134133.605,52.734,-25.879,-21.484,258.789,0.000
1606134133.609,127.441,-24.902,-24.902,596.191,0.000
1606134133.613,-14.160,-32.715,-29.785,100.098,0.000
1606134133.617,-184.570,-41.992,-35.156,-547.852,0.000
1606134133.621,-167.969,-30.762,-39.551,-534.668,0.000
1606134133.625,35.645,-16.113,-33.203,171.387,0.000
1606134133.629,150.879,-17.090,-16.602,601.074,0.000
1606134133.632,31.250,-22.949,-19.531,205.566,0.000
1606134133.636,-155.762,-32.227,-27.832,-479.980,0.000
1606134133.640,-159.668,-33.691,-30.273,-574.219,0.000
1606134133.644,36.133,-31.250,-29.785,95.215,0.000
1606134133.648,162.109,-21.484,-24.902,590.332,0.000
1606134133.652,60.547,-11.230,-23.438,279.785,0.000
1606134133.656,-146.484,-27.344,-33.203,-415.039,0.000
1606134133.660,-195.312,-28.320,-37.598,-605.469,0.000
1606134133.664,-17.578,-10.254,-24.902,-3.906,0.000
1606134133.668,127.930,-18.066,-22.461,556.152,0.000
1606134133.671,53.223,-23.438,-21.484,357.910,0.000
1606134133.675,-148.926,-33.203,-26.367,-355.469,0.000
1606134133.679,-215.820,-39.551,-31.738,-634.766,0.000
1606134133.683,-44.434,-27.832,-22.949,-78.613,0.000
