timestamps,TP9,AF7,AF8,TP10,Right AUX
1606137922.934,-0.488,0.000,0.000,-0.488,0.000
1606137922.938,-0.488,-0.488,0.000,-0.488,0.000
1606137922.942,14.160,-0.488,-0.488,34.180,0.000
1606137922.946,-39.551,0.000,0.488,-84.961,0.000
1606137922.949,170.898,-5.371,-4.395,366.699,0.000
1606137922.953,366.699,-12.207,-4.395,984.375,0.000
1606137922.957,-65.430,-29.297,-18.066,-18.066,0.000
1606137922.961,-451.660,-57.129,-54.688,-1000.000,0.000
1606137922.965,-283.691,-53.711,-57.617,-700.195,0.000
1606137922.969,209.473,-21.973,-28.320,477.539,0.000
1606137922.973,382.812,-14.160,-16.113,-953.125,0.000
1606137922.977,-9.766,-35.156,-30.762,123.535,0.000
1606137922.981,-427.246,-53.223,-51.270,-1000.000,0.000
1606137922.985,-337.402,-52.246,-46.875,-814.453,0.000
1606137922.988,160.645,-25.879,-20.508,343.750,0.000
1606137922.992,391.602,-1.465,-14.648,-921.387,0.000
1606137922.996,57.129,-24.414,-23.438,306.152,0.000
1606137923.000,-390.137,-62.500,-48.340,-885.254,0.000
1606137923.004,-378.906,-52.246,-56.152,-908.691,0.000
1606137923.008,111.328,-18.555,-27.832,215.820,0.000
1606137923.012,402.832,-9.277,-12.695,-914.551,0.000
1606137923.016,120.605,-24.902,-28.809,463.867,0.000
1606137923.020,-356.934,-41.992,-55.664,-748.535,0.000
1606137923.024,-421.387,-41.992,-55.176,-996.582,0.000
1606137923.028,41.504,-19.043,-28.809,70.801,0.000
1606137923.031,397.949,0.488,-7.324,-934.570,0.000
1606137923.035,197.266,-7.812,-19.043,611.816,0.000
1606137923.039,-306.152,-37.109,-45.410,-585.449,0.000
1606137923.043,-449.707,-44.922,-44.434,-1000.000,0.000
1606137923.047,-22.949,-22.461,-24.414,-95.215,0.000
1606137923.051,378.418,-33.203,-17.090,-990.723,0.000
1606137923.055,256.348,-56.641,-19.531,730.469,0.000
1606137923.059,-246.582,-50.781,-35.156,-439.453,0.000
1606137923.063,-458.008,-42.480,-43.945,-1000.000,0.000
1606137923.067,-88.379,-23.926,-24.414,-262.695,0.000
1606137923.071,339.355,-5.371,-7.812,909.668,0.000
1606137923.074,291.016,-6.836,-9.766,833.008,0.000
1606137923.078,-198.242,-31.250,-33.691,-309.570,0.000
1606137923.082,-471.191,-43.945,-47.852,-1000.000,0.000
1606137923.086,-169.922,-34.668,-31.738,-451.172,0.000
1606137923.090,293.457,-19.043,-13.184,764.160,0.000
1606137923.094,324.707,-7.812,-13.184,925.293,0.000
1606137923.098,-145.020,-48.828,-34.668,-175.293,0.000
1606137923.102,-458.984,-80.078,-48.828,-1000.000,0.000
1606137923.106,-224.121,-40.527,-34.180,-610.840,0.000
1606137923.110,249.512,-1.465,-15.625,592.773,0.000
1606137923.113,367.188,1.465,-18.555,994.629,0.000
1606137923.117,-58.105,-23.438,-26.855,-37.598,0.000
1606137923.121,-441.406,-33.691,-39.062,-1000.000,0.000
1606137923.125,-292.480,-26.367,-51.758,-738.770,0.000
1606137923.129,205.078,-10.254,-27.832,437.988,0.000
1606137923.133,392.578,-2.441,-21.484,-951.660,0.000
1606137923.137,6.836,-19.531,-41.504,122.070,0.000
1606137923.141,-418.457,-41.504,-54.688,-1000.000,0.000
1606137923.145,-325.684,-22.949,-47.852,-823.242,0.000
1606137923.149,177.734,-22.461,-25.879,326.172,0.000
1606137923.153,404.297,-42.969,-17.578,-920.410,0.000
1606137923.156,71.777,-29.297,-22.461,328.613,0.000
1606137923.160,-380.371,-36.133,-32.715,-863.770,0.000
1606137923.164,-390.625,-41.016,-43.945,-930.176,0.000
1606137923.168,90.332,-20.996,-37.109,183.105,0.000
1606137923.172,397.949,-2.441,-20.508,-917.969,0.000
1606137923.176,132.812,-18.066,-28.320,487.793,0.000
1606137923.180,-348.633,-47.363,-48.340,-719.727,0.000
1606137923.184,-430.176,-48.340,-50.293,-1000.000,0.000
1606137923.188,23.438,-25.879,-32.715,37.598,0.000
1606137923.192,383.789,-6.348,-13.672,-940.918,0.000
1606137923.196,190.918,-11.230,-20.996,620.605,0.000
1606137923.199,-307.129,-56.152,-47.852,-569.824,0.000
1606137923.203,-463.867,-66.406,-54.688,-1000.000,0.000
1606137923.207,-48.340,-31.250,-31.250,-129.395,0.000
1606137923.211,365.723,-8.301,-13.184,991.699,0.000
1606137923.215,256.836,-3.906,-22.949,747.070,0.000
1606137923.219,-241.211,-34.668,-44.922,-416.992,0.000
1606137923.223,-458.984,-50.293,-62.012,-1000.000,0.000
1606137923.227,-105.957,-32.227,-47.852,-308.594,0.000
1606137923.231,356.445,-2.441,-22.461,911.133,0.000
1606137923.235,291.992,-1.465,-24.902,773.926,0.000
1606137923.238,-222.168,-33.203,-46.387,-418.945,0.000
1606137923.242,-446.777,-46.387,-54.199,-1000.000,0.000
1606137923.246,-151.855,-25.391,-34.180,-477.051,0.000
1606137923.250,312.012,-45.410,-3.906,733.398,0.000
1606137923.254,358.398,-54.688,-6.836,931.152,0.000
1606137923.258,-117.188,-34.668,-40.039,-169.922,0.000
1606137923.262,-459.961,-50.781,-55.176,-1000.000,0.000
1606137923.266,-237.793,-39.551,-43.457,-635.254,0.000
1606137923.270,250.000,-10.742,-28.320,565.430,0.000
1606137923.274,378.906,-2.930,-24.414,-986.816,0.000
1606137923.278,-57.617,-28.809,-39.062,-6.348,0.000
1606137923.281,-455.078,-51.270,-53.223,-1000.000,0.000
1606137923.285,-307.129,-44.434,-48.828,-741.211,0.000
1606137923.289,189.941,-16.602,-25.391,428.711,0.000
1606137923.293,380.371,1.465,-13.184,-942.383,0.000
1606137923.297,2.930,-31.250,-30.762,176.758,0.000
1606137923.301,-427.734,-80.078,-50.293,-971.191,0.000
1606137923.305,-358.398,-64.453,-51.270,-843.750,0.000
1606137923.309,152.832,-23.926,-22.949,305.176,0.000
1606137923.313,412.109,-12.207,-1.953,-915.527,0.000
1606137923.317,79.590,-24.414,-20.508,359.863,0.000
1606137923.321,-390.625,-48.340,-49.316,-841.309,0.000
1606137923.324,-406.738,-54.199,-52.246,-943.359,0.000
1606137923.328,86.426,-21.973,-21.484,161.621,0.000
1606137923.332,409.668,-0.977,-5.371,-917.969,0.000
1606137923.336,146.484,-21.973,-21.484,510.254,0.000
1606137923.340,-342.773,-45.410,-40.527,-698.242,0.000
1606137923.344,-431.152,-45.410,-43.457,-1000.000,0.000
1606137923.348,20.508,-38.086,-25.391,8.301,0.000
1606137923.352,392.090,-50.781,-13.672,-953.125,0.000
1606137923.356,215.332,-37.109,-18.066,652.344,0.000
1606137923.360,-284.180,-38.086,-35.645,-528.809,0.000
1606137923.363,-461.914,-53.711,-51.758,-1000.000,0.000
1606137923.367,-49.316,-27.344,-33.203,-155.762,0.000
1606137923.371,340.332,-3.418,-11.719,932.617,0.000
1606137923.375,223.633,-7.324,-18.066,684.082,0.000
1606137923.379,-239.258,-30.762,-42.480,-400.879,0.000
1606137923.383,-474.121,-46.387,-48.828,-1000.000,0.000
1606137923.387,-133.789,-38.574,-31.250,-361.328,0.000
1606137923.391,317.871,-27.832,-17.578,847.168,0.000
1606137923.395,300.781,-16.602,-19.043,856.934,0.000
1606137923.399,-188.965,-34.180,-36.133,-284.180,0.000
1606137923.403,-477.539,-54.199,-44.922,-1000.000,0.000
1606137923.406,-190.430,-36.621,-32.715,-511.719,0.000
1606137923.410,292.969,-0.977,-11.230,708.984,0.000
1606137923.414,358.887,5.371,-4.883,951.172,0.000
1606137923.418,-115.234,-29.297,-32.227,-135.742,0.000
1606137923.422,-466.309,-54.199,-55.176,-1000.000,0.000
1606137923.426,-240.723,-33.691,-40.039,-635.742,0.000
1606137923.430,253.418,-6.836,-10.742,563.477,0.000
1606137923.434,375.488,-9.766,-8.301,-988.281,0.000
1606137923.438,-49.316,-34.180,-37.598,7.812,0.000
1606137923.442,-445.312,-57.129,-55.664,-1000.000,0.000
1606137923.446,-310.547,-42.480,-40.527,-760.254,0.000
1606137923.449,190.918,-16.113,-17.578,406.250,0.000
1606137923.453,391.602,-11.719,-10.742,-937.500,0.000
1606137923.457,23.438,-33.203,-23.438,185.547,0.000
1606137923.461,-412.598,-51.758,-44.434,-963.379,0.000
1606137923.465,-352.539,-41.504,-41.016,-868.164,0.000
1606137923.469,154.297,-13.672,-18.066,267.578,0.000
1606137923.473,424.805,-2.441,-9.277,-916.016,0.000
1606137923.477,107.910,-21.973,-25.879,370.117,0.000
1606137923.481,-367.676,-49.805,-49.316,-829.590,0.000
1606137923.485,-395.508,-47.363,-46.875,-954.102,0.000
1606137923.488,94.238,-21.484,-19.043,140.625,0.000
1606137923.492,424.316,-6.836,-3.906,-922.363,0.000
1606137923.496,176.270,-18.066,-16.113,541.992,0.000
1606137923.500,-316.406,-44.434,-35.156,-666.016,0.000
1606137923.504,-421.875,-51.758,-38.574,-1000.000,0.000
1606137923.508,21.484,-30.273,-21.484,-2.930,0.000
1606137923.512,407.227,-3.906,-0.488,-956.543,0.000
1606137923.516,236.328,-13.184,-6.348,666.016,0.000
1606137923.520,-285.156,-45.898,-35.645,-512.695,0.000
1606137923.524,-471.680,-55.664,-41.016,-1000.000,0.000
1606137923.528,-73.242,-39.551,-16.113,-193.359,0.000
1606137923.531,349.609,-29.297,-6.348,959.473,0.000
1606137923.535,257.812,-28.320,-21.484,769.531,0.000
1606137923.539,-249.023,-46.387,-44.922,-393.555,0.000
1606137923.543,-494.629,-60.059,-50.781,-1000.000,0.000
1606137923.547,-152.832,-45.410,-29.297,-371.582,0.000
1606137923.551,313.965,-17.578,-8.789,835.449,0.000
1606137923.555,312.988,-17.578,-20.020,868.652,0.000
1606137923.559,-171.875,-45.410,-46.387,-265.625,0.000
1606137923.563,-472.656,-53.711,-56.152,-1000.000,0.000
1606137923.567,-201.660,-40.039,-44.434,-532.715,0.000
1606137923.571,282.227,-21.973,-23.438,683.105,0.000
1606137923.574,356.445,-18.066,-15.625,958.496,0.000
1606137923.578,-108.398,-39.551,-41.504,-117.676,0.000
1606137923.582,-462.402,-59.570,-49.316,-1000.000,0.000
1606137923.586,-260.742,-53.711,-32.715,-667.480,0.000
1606137923.590,234.863,-29.785,-20.508,521.484,0.000
1606137923.594,386.719,-14.648,-14.648,-969.727,0.000
1606137923.598,-35.156,-28.809,-34.668,52.246,0.000
1606137923.602,-443.359,-51.758,-55.664,-1000.000,0.000
1606137923.606,-314.941,-45.898,-45.410,-778.809,0.000
1606137923.610,194.336,-15.137,-13.672,381.836,0.000
1606137923.613,414.062,0.000,0.977,-925.781,0.000
1606137923.617,52.734,-18.555,-18.555,253.906,0.000
1606137923.621,-395.020,-45.898,-41.504,-929.199,0.000
1606137923.625,-358.887,-40.527,-41.504,-869.629,0.000
1606137923.629,141.602,-29.297,-25.391,269.531,0.000
1606137923.633,420.410,-26.367,-8.301,-912.598,0.000
1606137923.637,109.375,-22.461,-20.508,437.012,0.000
1606137923.641,-373.535,-43.457,-47.852,-783.203,0.000
1606137923.645,-405.762,-42.480,-41.504,-964.844,0.000
1606137923.649,72.754,-18.066,-15.625,137.207,0.000
1606137923.653,397.461,1.953,-12.695,-925.781,0.000
1606137923.656,167.969,-6.836,-21.973,572.754,0.000
1606137923.660,-320.801,-36.621,-34.180,-625.977,0.000
1606137923.664,-438.965,-41.504,-44.922,-1000.000,0.000
1606137923.668,2.930,-22.949,-27.344,-25.391,0.000
1606137923.672,395.508,-7.812,-3.418,-965.332,0.000
1606137923.676,240.234,-6.836,-9.766,691.406,0.000
1606137923.680,-268.555,-37.109,-35.156,-481.934,0.000
1606137923.684,-460.449,-38.574,-41.504,-1000.000,0.000
1606137923.688,-65.430,-14.160,-17.578,-202.148,0.000
1606137923.692,361.816,0.488,-1.953,952.637,0.000
1606137923.696,277.344,-2.441,-10.254,791.992,0.000
1606137923.699,-226.074,-34.180,-26.855,-362.793,0.000
1606137923.703,-476.562,-49.805,-41.016,-1000.000,0.000
1606137923.707,-145.996,-33.691,-31.738,-386.719,0.000
1606137923.711,317.383,-23.926,-11.230,822.754,0.000
1606137923.715,322.754,-21.973,-15.625,881.348,0.000
1606137923.719,-171.387,-38.574,-38.574,-247.070,0.000
1606137923.723,-482.910,-51.270,-46.875,-1000.000,0.000
1606137923.727,-212.891,-33.203,-35.645,-554.688,0.000
1606137923.731,271.973,-10.742,-17.090,661.133,0.000
1606137923.735,353.516,-7.324,-13.672,969.238,0.000
1606137923.738,-102.539,-31.738,-35.645,-98.633,0.000
1606137923.742,-466.309,-55.176,-41.992,-1000.000,0.000
1606137923.746,-273.926,-42.480,-31.738,-687.500,0.000
1606137923.750,223.633,-13.184,-14.160,500.000,0.000
1606137923.754,379.883,-11.230,-14.160,-966.309,0.000
1606137923.758,-33.203,-32.227,-36.621,70.801,0.000
1606137923.762,-448.242,-50.781,-53.223,-1000.000,0.000
1606137923.766,-334.961,-42.969,-48.340,-799.805,0.000
1606137923.770,177.734,-38.086,-25.879,360.352,0.000
1606137923.774,400.391,-27.344,-17.090,-930.176,0.000
1606137923.778,40.527,-20.508,-32.227,254.883,0.000
1606137923.781,-403.320,-47.852,-51.758,-915.527,0.000
1606137923.785,-376.465,-47.363,-45.898,-895.508,0.000
1606137923.789,125.977,-16.113,-18.555,233.398,0.000
1606137923.793,418.945,-2.441,-2.930,-914.062,0.000
1606137923.797,128.418,-11.230,-23.438,444.824,0.000
1606137923.801,-344.727,-31.250,-42.969,-767.090,0.000
1606137923.805,-401.367,-33.203,-41.504,-974.609,0.000
1606137923.809,66.406,-43.457,-25.391,108.398,0.000
1606137923.813,408.203,-58.594,-11.230,-930.664,0.000
1606137923.817,188.477,-35.156,-21.484,593.262,0.000
1606137923.821,-315.918,-41.992,-45.898,-606.445,0.000
1606137923.824,-449.707,-53.711,-53.711,-1000.000,0.000
1606137923.828,-5.859,-34.668,-14.648,-44.434,0.000
1606137923.832,392.578,-5.371,12.207,-971.191,0.000
1606137923.836,242.676,-3.906,-16.113,703.125,0.000
1606137923.840,-264.648,-33.203,-40.527,-467.773,0.000
1606137923.844,-470.703,-38.086,-45.898,-1000.000,0.000
1606137923.848,-98.145,-27.832,-34.180,-250.488,0.000
1606137923.852,345.215,-16.602,-11.719,921.387,0.000
1606137923.856,284.180,-11.719,-12.695,798.340,0.000
1606137923.860,-224.121,-36.133,-37.598,-357.910,0.000
1606137923.863,-482.422,-46.387,-47.363,-1000.000,0.000
1606137923.867,-151.367,-28.809,-19.531,-416.016,0.000
1606137923.871,327.637,3.418,-0.488,795.410,0.000
1606137923.875,352.539,6.836,-4.395,909.668,0.000
1606137923.879,-131.836,-25.879,-22.461,-199.707,0.000
1606137923.883,-467.773,-51.758,-50.293,-1000.000,0.000
1606137923.887,-226.074,-41.016,-41.992,-584.473,0.000
1606137923.891,265.137,-8.301,-16.602,632.812,0.000
1606137923.895,362.305,-0.488,-16.113,978.516,0.000
1606137923.899,-83.496,-27.344,-41.992,-80.078,0.000
1606137923.903,-457.520,-49.805,-55.664,-1000.000,0.000
1606137923.906,-283.691,-37.598,-36.621,-706.543,0.000
1606137923.910,218.262,-20.508,-17.578,474.121,0.000
1606137923.914,385.742,-18.066,-18.555,-955.566,0.000
1606137923.918,-14.160,-25.391,-35.156,101.562,0.000
1606137923.922,-431.641,-43.457,-50.781,-1000.000,0.000
1606137923.926,-333.984,-41.504,-41.016,-810.059,0.000
1606137923.930,173.340,-22.949,-19.043,345.215,0.000
1606137923.934,402.832,-15.625,-13.672,-927.246,0.000
1606137923.938,47.852,-21.973,-31.250,287.598,0.000
1606137923.942,-406.738,-38.086,-46.875,-891.113,0.000
1606137923.946,-389.648,-36.621,-28.320,-904.785,0.000
1606137923.949,104.004,-19.043,-12.695,218.262,0.000
1606137923.953,402.832,-4.395,-13.672,-915.527,0.000
1606137923.957,130.371,-11.719,-18.555,469.238,0.000
1606137923.961,-351.074,-45.898,-40.527,-742.676,0.000
1606137923.965,-417.969,-55.176,-45.410,-995.117,0.000
1606137923.969,55.664,-27.344,-21.484,74.219,0.000
1606137923.973,406.250,0.488,-5.859,-933.594,0.000
1606137923.977,200.684,-9.277,-11.230,607.422,0.000
1606137923.981,-291.992,-46.387,-40.527,-592.285,0.000
1606137923.985,-443.359,-48.340,-38.086,-1000.000,0.000
1606137923.988,-18.066,-36.621,-15.625,-69.824,0.000
1606137923.992,378.906,-35.645,-13.672,-984.863,0.000
1606137923.996,240.723,-22.461,-13.672,715.820,0.000
1606137924.000,-258.301,-38.086,-34.668,-452.148,0.000
1606137924.004,-471.191,-47.852,-46.875,-1000.000,0.000
1606137924.008,-97.656,-22.949,-27.344,-263.184,0.000
1606137924.012,353.516,4.883,-5.371,910.645,0.000
1606137924.016,306.152,2.930,-7.324,825.195,0.000
1606137924.020,-188.477,-33.691,-37.598,-320.312,0.000
1606137924.024,-464.355,-47.363,-44.434,-1000.000,0.000
1606137924.028,-156.250,-24.414,-26.855,-442.383,0.000
1606137924.031,312.988,-3.906,-17.578,770.996,0.000
1606137924.035,338.867,-7.324,-12.207,912.598,0.000
1606137924.039,-140.137,-38.086,-29.785,-196.289,0.000
1606137924.043,-472.168,-59.082,-55.664,-1000.000,0.000
1606137924.047,-237.305,-51.270,-46.387,-611.328,0.000
1606137924.051,255.859,-24.414,-17.090,597.168,0.000
1606137924.055,375.000,-5.371,0.977,994.141,0.000
1606137924.059,-70.801,-25.391,-22.461,-43.457,0.000
1606137924.063,-458.008,-49.805,-49.316,-1000.000,0.000
1606137924.067,-284.180,-38.574,-32.715,-717.285,0.000
1606137924.071,219.238,-12.207,-3.906,461.426,0.000
1606137924.074,393.555,-5.859,-6.348,-956.055,0.000
1606137924.078,-2.930,-22.949,-35.645,126.465,0.000
1606137924.082,-423.828,-40.039,-49.805,-994.629,0.000
1606137924.086,-333.008,-39.551,-40.527,-824.219,0.000
1606137924.090,166.504,-31.738,-21.973,327.637,0.000
1606137924.094,401.367,-15.625,-15.625,-921.875,0.000
1606137924.098,68.848,-17.090,-27.344,311.523,0.000
1606137924.102,-387.207,-49.316,-45.898,-877.930,0.000
1606137924.106,-386.719,-46.875,-46.875,-919.434,0.000
1606137924.110,104.980,-40.527,-23.926,196.777,0.000
1606137924.113,416.504,-26.367,-4.883,-916.504,0.000
1606137924.117,147.461,-14.160,-13.672,495.117,0.000
1606137924.121,-338.867,-42.969,-40.039,-718.262,0.000
1606137924.125,-414.551,-37.598,-42.969,-998.047,0.000
1606137924.129,43.945,-46.875,-27.832,67.383,0.000
1606137924.133,398.926,-40.527,-11.719,-938.965,0.000
1606137924.137,200.195,-18.066,-9.766,625.000,0.000
1606137924.141,-303.223,-43.457,-34.668,-563.477,0.000
1606137924.145,-458.496,-48.340,-42.480,-1000.000,0.000
1606137924.149,-39.062,-20.996,-21.484,-126.465,0.000
1606137924.153,379.395,3.418,2.930,995.117,0.000
1606137924.156,266.113,-6.836,-3.906,733.398,0.000
1606137924.160,-246.582,-34.180,-44.922,-436.523,0.000
1606137924.164,-462.891,-39.551,-50.781,-1000.000,0.000
1606137924.168,-102.539,-26.855,-38.086,-310.059,0.000
1606137924.172,340.820,-1.953,-24.902,875.488,0.000
1606137924.176,312.988,1.465,-16.113,844.238,0.000
1606137924.180,-186.035,-35.645,-32.715,-298.828,0.000
1606137924.184,-469.727,-53.223,-44.434,-1000.000,0.000
1606137924.188,-171.875,-56.641,-32.715,-481.445,0.000
1606137924.192,303.223,-41.016,-17.578,739.746,0.000
1606137924.196,347.168,-8.789,-16.113,928.223,0.000
1606137924.199,-128.418,-30.273,-25.879,-173.340,0.000
1606137924.203,-469.238,-45.898,-41.504,-1000.000,0.000
1606137924.207,-250.488,-45.410,-39.551,-631.348,0.000
1606137924.211,257.324,-51.270,-16.602,595.215,0.000
1606137924.215,367.188,-20.508,-2.930,955.566,0.000
1606137924.219,-83.496,-20.508,-23.438,-93.750,0.000
1606137924.223,-443.359,-40.527,-41.016,-1000.000,0.000
1606137924.227,-300.781,-41.016,-36.621,-744.141,0.000
1606137924.231,196.289,-43.945,-16.602,426.270,0.000
1606137924.235,398.438,-18.555,-8.301,-946.289,0.000
1606137924.238,19.043,-15.625,-26.367,158.691,0.000
1606137924.242,-415.039,-39.551,-47.363,-976.562,0.000
1606137924.246,-353.516,-44.434,-49.316,-850.586,0.000
1606137924.250,149.902,-21.973,-23.926,293.457,0.000
1606137924.254,413.574,7.324,-7.324,-919.922,0.000
1606137924.258,88.379,-7.812,-23.438,342.773,0.000
1606137924.262,-392.090,-48.828,-47.852,-853.027,0.000
1606137924.266,-407.715,-37.598,-43.457,-933.594,0.000
1606137924.270,84.961,-30.762,-17.090,179.688,0.000
1606137924.274,391.602,-33.691,-9.277,-919.922,0.000
1606137924.278,132.812,-15.137,-21.973,499.512,0.000
1606137924.281,-354.492,-38.574,-42.969,-703.125,0.000
1606137924.285,-449.707,-40.039,-44.922,-1000.000,0.000
1606137924.289,17.090,-14.160,-16.113,30.762,0.000
1606137924.293,375.000,-7.324,-1.465,-977.051,0.000
1606137924.297,187.012,-10.742,-7.812,606.934,0.000
1606137924.301,-289.551,-24.414,-27.832,-530.762,0.000
1606137924.305,-455.566,-40.039,-41.016,-1000.000,0.000
1606137924.309,-47.363,-25.879,-24.414,-145.020,0.000
1606137924.313,373.535,-1.465,-8.301,981.445,0.000
1606137924.317,269.043,-3.906,-10.254,759.277,0.000
1606137924.321,-242.188,-34.668,-31.738,-402.344,0.000
1606137924.324,-471.191,-47.363,-46.387,-1000.000,0.000
1606137924.328,-119.629,-47.852,-33.203,-339.355,0.000
1606137924.332,333.496,-34.180,-19.043,858.398,0.000
1606137924.336,313.477,-14.160,-13.184,855.957,0.000
1606137924.340,-181.641,-35.645,-35.156,-286.133,0.000
1606137924.344,-475.586,-55.664,-46.387,-1000.000,0.000
1606137924.348,-194.336,-45.410,-30.762,-508.301,0.000
1606137924.352,284.180,-14.160,-10.742,710.449,0.000
1606137924.356,347.168,-4.883,-14.648,937.988,0.000
1606137924.360,-126.465,-32.715,-46.875,-158.691,0.000
1606137924.363,-467.285,-45.410,-53.711,-1000.000,0.000
1606137924.367,-246.582,-45.410,-35.645,-648.926,0.000
1606137924.371,244.141,-71.777,-18.555,545.898,0.000
1606137924.375,382.812,-42.480,-17.578,-985.840,0.000
1606137924.379,-42.480,-24.902,-35.156,12.207,0.000
1606137924.383,-447.266,-53.711,-54.199,-1000.000,0.000
1606137924.387,-311.523,-39.551,-45.898,-763.184,0.000
1606137924.391,191.895,-12.695,-21.484,407.715,0.000
1606137924.395,393.066,-0.488,-13.184,-940.430,0.000
1606137924.399,22.461,-17.578,-29.785,184.570,0.000
1606137924.403,-420.410,-40.039,-50.781,-962.402,0.000
1606137924.406,-360.840,-35.156,-40.527,-857.422,0.000
1606137924.410,140.137,-42.969,-18.066,282.227,0.000
1606137924.414,407.715,-19.043,-6.836,-917.969,0.000
1606137924.418,101.562,-4.883,-20.508,380.371,0.000
1606137924.422,-375.000,-40.039,-51.758,-824.219,0.000
1606137924.426,-397.949,-36.133,-48.828,-945.312,0.000
1606137924.430,92.773,-8.789,-15.625,161.133,0.000
1606137924.434,417.480,9.766,-4.883,-922.363,0.000
1606137924.438,160.156,-3.906,-24.414,536.621,0.000
1606137924.442,-338.379,-39.062,-45.410,-667.969,0.000
1606137924.446,-441.895,-44.922,-48.828,-1000.000,0.000
1606137924.449,17.090,-21.973,-20.996,4.883,0.000
1606137924.453,396.484,-2.930,2.930,-958.496,0.000
1606137924.457,216.797,-8.301,-11.719,672.363,0.000
1606137924.461,-291.504,-39.062,-42.480,-507.812,0.000
1606137924.465,-469.238,-47.363,-52.246,-1000.000,0.000
1606137924.469,-61.035,-55.176,-22.949,-165.039,0.000
1606137924.473,367.188,-65.430,6.348,971.680,0.000
1606137924.477,275.879,-21.973,-8.789,770.508,0.000
1606137924.481,-231.934,-27.832,-48.828,-389.160,0.000
1606137924.485,-469.238,-49.805,-58.105,-1000.000,0.000
1606137924.488,-124.023,-30.273,-34.180,-366.699,0.000
1606137924.492,331.543,-3.418,-17.090,835.938,0.000
1606137924.496,327.148,2.930,-16.113,867.188,0.000
1606137924.500,-160.645,-21.484,-41.504,-265.625,0.000
1606137924.504,-463.379,-37.598,-55.664,-1000.000,0.000
1606137924.508,-190.918,-53.223,-38.086,-520.508,0.000
1606137924.512,294.434,-40.039,-11.230,695.801,0.000
1606137924.516,365.723,1.953,-4.883,958.008,0.000
1606137924.520,-105.957,-16.602,-24.902,-116.211,0.000
1606137924.524,-460.938,-41.504,-47.363,-1000.000,0.000
1606137924.528,-255.371,-34.180,-36.621,-660.156,0.000
1606137924.531,240.234,-7.324,-8.789,531.738,0.000
1606137924.535,385.742,0.977,-7.812,-978.516,0.000
1606137924.539,-36.133,-23.926,-25.391,40.527,0.000
1606137924.543,-441.406,-43.945,-41.504,-1000.000,0.000
1606137924.547,-312.012,-37.109,-40.039,-763.184,0.000
1606137924.551,199.219,-25.391,-15.625,405.762,0.000
1606137924.555,402.832,-7.324,-2.441,-934.570,0.000
1606137924.559,30.273,-17.090,-19.043,221.191,0.000
1606137924.563,-415.527,-42.480,-37.598,-940.430,0.000
1606137924.567,-373.047,-38.086,-35.645,-875.977,0.000
1606137924.571,133.301,-17.090,-15.625,258.789,0.000
1606137924.574,413.574,6.348,-0.977,-916.504,0.000
1606137924.578,106.445,-11.230,-17.090,399.902,0.000
1606137924.582,-364.746,-33.203,-35.156,-805.176,0.000
1606137924.586,-398.926,-34.180,-34.668,-958.008,0.000
1606137924.590,77.148,-18.066,-16.113,139.160,0.000
1606137924.594,403.320,2.930,-9.766,-925.293,0.000
1606137924.598,166.016,-9.277,-23.926,562.012,0.000
1606137924.602,-328.613,-48.340,-45.410,-638.184,0.000
1606137924.606,-443.359,-53.711,-46.875,-1000.000,0.000
1606137924.610,10.254,-50.781,-18.555,-25.391,0.000
1606137924.613,400.391,-23.438,-2.930,-966.309,0.000
1606137924.617,232.910,-4.395,-25.391,685.059,0.000
1606137924.621,-270.996,-35.645,-46.387,-490.234,0.000
1606137924.625,-447.754,-41.504,-43.945,-1000.000,0.000
1606137924.629,-49.316,-25.879,-24.902,-201.660,0.000
1606137924.633,371.094,-5.371,-4.883,949.707,0.000
1606137924.637,283.203,-10.742,-17.090,786.621,0.000
1606137924.641,-213.867,-37.598,-34.668,-371.582,0.000
1606137924.645,-461.914,-38.086,-31.738,-1000.000,0.000
1606137924.649,-135.254,-45.898,-27.832,-381.836,0.000
1606137924.653,322.266,-60.059,-14.648,818.359,0.000
1606137924.656,320.312,-30.762,-10.742,873.535,0.000
1606137924.660,-163.574,-30.273,-32.715,-256.348,0.000
1606137924.664,-469.238,-43.945,-44.434,-1000.000,0.000
1606137924.668,-207.031,-35.645,-32.715,-555.664,0.000
1606137924.672,283.691,-8.301,-7.812,657.715,0.000
1606137924.676,374.023,2.441,1.465,966.797,0.000
1606137924.680,-87.891,-24.414,-27.344,-105.469,0.000
1606137924.684,-463.379,-40.527,-52.246,-1000.000,0.000
1606137924.688,-270.020,-43.945,-41.504,-676.758,0.000
1606137924.692,237.305,-34.668,-13.672,512.207,0.000
1606137924.696,395.508,-11.719,2.930,-975.586,0.000
1606137924.699,-22.461,-24.414,-18.555,54.199,0.000
1606137924.703,-435.059,-48.828,-48.828,-1000.000,0.000
1606137924.707,-315.918,-42.480,-37.109,-785.645,0.000
1606137924.711,196.289,-13.184,-9.766,376.465,0.000
1606137924.715,419.922,0.000,-2.930,-929.688,0.000
1606137924.719,51.270,-23.438,-21.973,258.301,0.000
1606137924.723,-397.461,-47.363,-45.410,-916.504,0.000
1606137924.727,-356.445,-40.039,-39.551,-882.324,0.000
1606137924.731,136.230,-19.531,-16.602,253.906,0.000
1606137924.735,416.992,-3.418,-6.348,-915.039,0.000
1606137924.738,126.465,-12.207,-22.949,440.430,0.000
1606137924.742,-355.469,-40.527,-44.434,-768.066,0.000
1606137924.746,-410.645,-47.852,-39.062,-978.027,0.000
1606137924.750,60.547,-49.805,-15.137,99.609,0.000
1606137924.754,410.645,-35.645,2.930,-932.617,0.000
1606137924.758,185.059,-20.996,-16.113,574.707,0.000
1606137924.762,-312.500,-45.898,-45.898,-624.023,0.000
1606137924.766,-433.105,-51.270,-44.922,-1000.000,0.000
1606137924.770,-1.465,-21.973,-17.090,-35.156,0.000
1606137924.774,388.672,-1.465,-3.418,-969.727,0.000
1606137924.778,242.676,-14.160,-17.578,695.801,0.000
1606137924.781,-268.555,-41.504,-37.598,-474.121,0.000
1606137924.785,-473.145,-44.434,-44.434,-1000.000,0.000
1606137924.789,-83.984,-46.387,-24.414,-236.328,0.000
1606137924.793,350.586,-27.344,-4.395,928.711,0.000
1606137924.797,277.832,-6.348,-6.836,805.176,0.000
1606137924.801,-223.633,-38.086,-33.691,-349.609,0.000
1606137924.805,-487.305,-55.664,-59.570,-1000.000,0.000
1606137924.809,-162.598,-43.457,-43.457,-426.758,0.000
1606137924.813,309.082,-14.648,-15.625,788.086,0.000
1606137924.817,328.125,-0.488,-14.160,895.508,0.000
1606137924.821,-157.227,-20.508,-38.086,-223.633,0.000
1606137924.824,-478.027,-39.551,-50.293,-1000.000,0.000
1606137924.828,-216.309,-41.016,-37.598,-570.801,0.000
1606137924.832,282.227,-16.602,-15.625,641.113,0.000
1606137924.836,377.441,-1.953,-5.859,983.887,0.000
1606137924.840,-82.031,-31.250,-18.066,-62.988,0.000
1606137924.844,-456.055,-43.945,-36.133,-1000.000,0.000
1606137924.848,-277.344,-45.410,-41.016,-703.613,0.000
1606137924.852,216.797,-39.551,-23.926,480.957,0.000
1606137924.856,379.883,-14.160,-15.625,-963.379,0.000
1606137924.860,-22.949,-27.344,-29.297,91.797,0.000
1606137924.863,-437.012,-49.316,-45.898,-1000.000,0.000
1606137924.867,-339.844,-44.434,-46.875,-805.664,0.000
1606137924.871,173.828,-10.254,-16.113,349.609,0.000
1606137924.875,417.969,11.719,0.000,-924.805,0.000
1606137924.879,61.523,-19.043,-27.832,286.621,0.000
1606137924.883,-397.949,-55.664,-47.852,-896.973,0.000
1606137924.887,-368.164,-56.641,-45.410,-902.344,0.000
1606137924.891,123.535,-38.086,-26.367,223.633,0.000
1606137924.895,406.738,-8.301,-13.184,-917.480,0.000
1606137924.899,127.930,-6.348,-25.879,458.008,0.000
1606137924.903,-347.168,-34.180,-41.992,-749.512,0.000
1606137924.906,-411.133,-37.598,-40.527,-985.352,0.000
1606137924.910,58.594,-13.672,-12.207,90.332,0.000
1606137924.914,411.133,-0.977,1.953,-934.082,0.000
1606137924.918,199.707,-14.160,-10.254,602.539,0.000
1606137924.922,-293.457,-38.086,-30.762,-590.332,0.000
1606137924.926,-432.129,-41.992,-41.504,-1000.000,0.000
1606137924.930,-9.766,-39.062,-25.879,-75.195,0.000
1606137924.934,382.812,-26.855,-14.648,-990.234,0.000
1606137924.938,245.117,-11.719,-22.949,715.332,0.000
1606137924.942,-251.953,-33.203,-32.227,-453.125,0.000
1606137924.946,-460.449,-43.945,-41.992,-1000.000,0.000
1606137924.949,-84.473,-23.926,-38.086,-266.113,0.000
1606137924.953,364.746,1.953,-5.371,905.273,0.000
1606137924.957,308.594,-2.441,-4.883,822.754,0.000
1606137924.961,-190.430,-32.227,-29.297,-324.707,0.000
1606137924.965,-463.867,-48.828,-35.645,-1000.000,0.000
1606137924.969,-150.391,-38.086,-25.879,-431.152,0.000
1606137924.973,317.871,-13.184,-11.230,782.227,0.000
1606137924.977,333.984,-11.719,-10.742,906.738,0.000
1606137924.981,-144.531,-43.457,-30.273,-199.219,0.000
1606137924.985,-468.262,-52.734,-43.457,-1000.000,0.000
1606137924.988,-231.934,-49.805,-36.133,-596.680,0.000
1606137924.992,261.719,-36.621,-14.648,610.840,0.000
1606137924.996,372.070,-10.254,-7.812,984.863,0.000
1606137925.000,-78.613,-37.598,-30.273,-57.617,0.000
1606137925.004,-458.008,-58.105,-48.340,-1000.000,0.000
1606137925.008,-288.086,-40.039,-36.621,-719.238,0.000
1606137925.012,220.215,-15.137,-8.301,456.055,0.000
1606137925.016,395.508,-2.441,-12.695,-955.566,0.000
1606137925.020,-3.418,-20.996,-35.156,134.277,0.000
1606137925.024,-424.805,-38.574,-44.922,-989.258,0.000
1606137925.028,-347.168,-50.781,-42.480,-825.195,0.000
1606137925.031,157.715,-75.195,-21.484,329.102,0.000
1606137925.035,409.668,-35.645,-15.625,-927.246,0.000
1606137925.039,70.801,-13.672,-29.297,312.500,0.000
1606137925.043,-390.137,-41.504,-45.898,-867.188,0.000
1606137925.047,-386.719,-41.016,-50.781,-920.898,0.000
1606137925.051,100.098,-17.578,-25.391,196.289,0.000
1606137925.055,410.156,4.395,-5.859,-916.992,0.000
1606137925.059,142.578,-14.160,-29.297,478.516,0.000
1606137925.063,-340.332,-40.527,-54.199,-731.934,0.000
1606137925.067,-405.762,-38.086,-47.852,-994.629,0.000
1606137925.071,50.293,-48.828,-31.738,65.430,0.000
1606137925.074,404.297,-27.832,-16.602,-943.359,0.000
1606137925.078,209.961,-6.836,-17.578,623.047,0.000
1606137925.082,-291.016,-35.645,-38.574,-564.941,0.000
1606137925.086,-441.895,-41.016,-41.504,-1000.000,0.000
1606137925.090,-20.020,-15.625,-22.949,-98.633,0.000
1606137925.094,382.812,1.953,-8.789,-999.023,0.000
1606137925.098,253.418,-0.977,-10.742,738.770,0.000
1606137925.102,-242.676,-29.785,-36.133,-424.805,0.000
1606137925.106,-451.172,-51.270,-46.875,-1000.000,0.000
1606137925.110,-93.262,-33.691,-38.086,-287.598,0.000
1606137925.113,348.633,-4.883,-17.090,893.066,0.000
1606137925.117,318.848,-2.441,-5.859,839.844,0.000
1606137925.121,-178.711,-35.156,-25.879,-299.316,0.000
1606137925.125,-471.191,-54.688,-42.480,-1000.000,0.000
1606137925.129,-172.852,-56.152,-31.738,-461.426,0.000
1606137925.133,301.758,-41.504,-10.254,753.906,0.000
1606137925.137,342.773,-14.160,-7.324,922.852,0.000
1606137925.141,-136.230,-29.297,-33.691,-179.199,0.000
1606137925.145,-472.656,-47.852,-53.711,-1000.000,0.000
1606137925.149,-232.910,-32.715,-29.785,-612.305,0.000
1606137925.153,255.859,-11.719,-4.883,589.355,0.000
1606137925.156,372.070,-8.301,-4.883,-998.535,0.000
1606137925.160,-58.105,-25.879,-32.227,-16.113,0.000
1606137925.164,-447.266,-37.598,-54.199,-1000.000,0.000
1606137925.168,-299.805,-60.059,-43.945,-740.723,0.000
1606137925.172,203.125,-55.664,-24.902,431.152,0.000
1606137925.176,399.414,-0.977,-10.254,-947.754,0.000
1606137925.180,16.113,-5.371,-20.508,167.969,0.000
1606137925.184,-416.504,-39.551,-40.527,-972.168,0.000
1606137925.188,-347.168,-44.922,-29.297,-835.938,0.000
1606137925.192,160.156,-16.113,-5.859,316.406,0.000
1606137925.196,417.969,4.883,-1.465,-921.875,0.000
1606137925.199,88.867,-10.742,-21.973,343.262,0.000
1606137925.203,-367.188,-32.715,-42.480,-851.074,0.000
1606137925.207,-371.582,-43.945,-41.016,-927.246,0.000
1606137925.211,117.188,-71.777,-21.973,187.988,0.000
1606137925.215,420.898,-44.922,-14.160,-922.363,0.000
1606137925.219,147.461,-17.090,-29.297,498.047,0.000
1606137925.223,-334.473,-37.598,-42.480,-702.148,0.000
1606137925.227,-424.316,-40.039,-42.480,-1000.000,0.000
1606137925.231,37.109,-18.555,-26.855,31.250,0.000
1606137925.235,403.809,4.395,-10.254,-949.707,0.000
1606137925.238,204.102,-2.930,-13.184,638.672,0.000
1606137925.242,-299.316,-36.621,-39.062,-542.480,0.000
1606137925.246,-466.797,-57.617,-50.293,-1000.000,0.000
1606137925.250,-41.992,-38.086,-33.691,-146.484,0.000
1606137925.254,383.789,-8.789,-20.020,985.840,0.000
1606137925.258,268.555,-8.301,-22.949,743.164,0.000
1606137925.262,-244.141,-36.621,-45.410,-420.898,0.000
1606137925.266,-486.816,-56.152,-60.059,-1000.000,0.000
1606137925.270,-125.000,-46.875,-37.598,-343.262,0.000
1606137925.274,327.148,-22.461,-9.766,861.328,0.000
1606137925.278,296.387,-16.113,-9.766,834.961,0.000
1606137925.281,-206.543,-44.922,-32.227,-315.918,0.000
1606137925.285,-504.883,-61.035,-51.758,-1000.000,0.000
1606137925.289,-209.961,-46.387,-34.668,-513.184,0.000
1606137925.293,269.043,-17.578,-10.254,705.078,0.000
1606137925.297,323.730,-9.766,-15.137,934.082,0.000
1606137925.301,-142.578,-38.086,-41.992,-164.551,0.000
1606137925.305,-482.422,-47.852,-55.176,-1000.000,0.000
1606137925.309,-265.137,-60.547,-42.480,-650.391,0.000
1606137925.313,229.492,-71.289,-21.484,543.457,0.000
1606137925.317,364.746,-18.555,-4.883,-993.652,0.000
1606137925.321,-63.477,-19.531,-25.879,-4.395,0.000
1606137925.324,-453.125,-51.758,-53.711,-1000.000,0.000
1606137925.328,-307.617,-43.945,-37.109,-752.441,0.000
1606137925.332,193.359,-16.602,-13.672,416.504,0.000
1606137925.336,392.090,-2.441,-11.230,-943.848,0.000
1606137925.340,12.207,-29.297,-26.855,177.246,0.000
1606137925.344,-422.852,-48.340,-52.246,-963.867,0.000
1606137925.348,-357.910,-55.664,-49.316,-855.957,0.000
1606137925.352,128.906,-47.852,-20.020,283.203,0.000
1606137925.356,396.973,-6.348,-2.441,-917.480,0.000
1606137925.360,89.355,-8.789,-15.625,373.047,0.000
1606137925.363,-377.930,-35.645,-41.016,-827.637,0.000
1606137925.367,-395.996,-45.898,-41.504,-945.801,0.000
1606137925.371,90.820,-22.949,-12.207,154.297,0.000
1606137925.375,410.156,-4.883,4.395,-922.852,0.000
1606137925.379,149.902,-20.508,-16.113,529.785,0.000
1606137925.383,-340.820,-41.016,-44.434,-674.805,0.000
1606137925.387,-441.406,-52.246,-52.246,-1000.000,0.000
1606137925.391,18.555,-28.320,-32.715,8.301,0.000
1606137925.395,394.531,3.418,-7.324,-954.590,0.000
1606137925.399,207.520,-8.789,-12.695,663.086,0.000
1606137925.403,-295.410,-37.109,-48.828,-518.066,0.000
1606137925.406,-464.355,-39.551,-57.617,-1000.000,0.000
1606137925.410,-61.523,-53.223,-35.156,-163.574,0.000
1606137925.414,352.539,-43.457,-12.695,968.750,0.000
1606137925.418,257.812,-10.742,-13.672,769.043,0.000
1606137925.422,-244.629,-37.598,-40.527,-392.578,0.000
1606137925.426,-478.027,-56.152,-45.410,-1000.000,0.000
1606137925.430,-129.395,-35.645,-17.578,-340.820,0.000
1606137925.434,328.613,-1.953,-0.488,848.145,0.000
1606137925.438,315.430,1.465,-4.395,875.000,0.000
1606137925.442,-180.664,-29.297,-19.531,-249.512,0.000
1606137925.446,-482.910,-41.992,-41.016,-1000.000,0.000
1606137925.449,-199.707,-50.293,-37.598,-519.043,0.000
1606137925.453,286.133,-35.645,-18.066,698.242,0.000
1606137925.457,359.375,-0.977,-8.789,950.195,0.000
1606137925.461,-106.934,-18.066,-26.855,-129.395,0.000
1606137925.465,-466.309,-44.922,-50.293,-1000.000,0.000
1606137925.469,-262.207,-40.039,-43.945,-667.480,0.000
1606137925.473,233.887,-16.113,-11.719,527.344,0.000
1606137925.477,380.859,-8.789,3.906,-981.445,0.000
1606137925.481,-42.969,-22.949,-18.555,23.926,0.000
1606137925.485,-446.289,-33.203,-38.086,-1000.000,0.000
1606137925.488,-314.941,-36.133,-33.691,-761.230,0.000
1606137925.492,187.012,-35.645,-4.883,401.855,0.000
1606137925.496,398.926,-6.348,0.977,-941.895,0.000
1606137925.500,29.297,-18.555,-30.762,208.008,0.000
1606137925.504,-409.180,-50.293,-55.664,-943.848,0.000
1606137925.508,-362.793,-46.875,-50.293,-868.652,0.000
1606137925.512,128.418,-25.391,-24.902,270.508,0.000
1606137925.516,398.926,-3.418,-12.207,-918.945,0.000
1606137925.520,96.680,-7.324,-21.973,392.578,0.000
1606137925.524,-371.582,-33.203,-40.039,-806.152,0.000
1606137925.528,-405.273,-42.969,-39.062,-957.031,0.000
1606137925.531,81.055,-17.090,-17.578,139.160,0.000
1606137925.535,414.551,1.953,-9.277,-924.805,0.000
1606137925.539,172.363,-15.625,-21.484,544.434,0.000
1606137925.543,-321.777,-34.180,-36.621,-654.297,0.000
1606137925.547,-431.641,-38.574,-39.551,-1000.000,0.000
1606137925.551,14.648,-32.227,-20.020,-15.625,0.000
1606137925.555,391.602,-8.789,-5.371,-964.355,0.000
1606137925.559,219.238,-11.230,-14.160,680.664,0.000
1606137925.563,-285.645,-33.691,-39.062,-498.535,0.000
1606137925.567,-468.262,-48.340,-48.828,-1000.000,0.000
1606137925.571,-67.871,-35.645,-16.113,-184.082,0.000
1606137925.574,361.816,-4.883,6.836,954.590,0.000
1606137925.578,275.391,-6.348,-3.906,785.645,0.000
1606137925.582,-226.562,-30.273,-28.320,-370.605,0.000
1606137925.586,-473.633,-38.574,-40.527,-1000.000,0.000
1606137925.590,-145.020,-50.293,-30.762,-392.578,0.000
1606137925.594,306.641,-43.945,-20.508,808.594,0.000
1606137925.598,311.523,-12.207,-21.484,879.395,0.000
1606137925.602,-165.527,-27.344,-37.109,-246.582,0.000
1606137925.606,-467.773,-45.898,-46.387,-1000.000,0.000
1606137925.610,-202.637,-32.227,-29.785,-540.527,0.000
1606137925.613,283.691,-7.812,-9.277,672.852,0.000
1606137925.617,368.652,-3.906,-12.695,963.867,0.000
1606137925.621,-96.680,-33.691,-30.762,-107.910,0.000
1606137925.625,-463.379,-47.363,-45.410,-1000.000,0.000
1606137925.629,-271.973,-45.410,-38.086,-669.434,0.000
1606137925.633,223.145,-32.715,-11.719,519.043,0.000
1606137925.637,371.094,-9.766,-0.977,-981.934,0.000
1606137925.641,-36.621,-17.090,-27.832,44.922,0.000
1606137925.645,-428.223,-32.715,-56.641,-1000.000,0.000
1606137925.649,-319.824,-36.133,-52.734,-790.527,0.000
1606137925.653,173.828,-13.184,-21.973,369.141,0.000
1606137925.656,397.949,-1.465,-4.883,-933.105,0.000
1606137925.660,38.086,-20.996,-21.973,244.141,0.000
1606137925.664,-404.785,-43.945,-37.598,-919.922,0.000
1606137925.668,-358.398,-48.340,-33.203,-884.277,0.000
1606137925.672,137.207,-16.602,-21.484,246.094,0.000
1606137925.676,415.039,3.418,-10.742,-917.480,0.000
1606137925.680,117.676,-20.020,-23.438,419.434,0.000
1606137925.684,-362.793,-40.527,-40.039,-783.691,0.000
1606137925.688,-414.062,-41.992,-41.504,-972.168,0.000
1606137925.692,53.711,-58.105,-26.855,104.980,0.000
1606137925.696,390.625,-34.668,-8.789,-932.129,0.000
1606137925.699,172.852,-15.137,-19.043,568.848,0.000
1606137925.703,-318.848,-41.016,-36.133,-628.418,0.000
1606137925.707,-445.801,-36.621,-39.062,-1000.000,0.000
1606137925.711,-5.859,-8.301,-15.625,-40.527,0.000
1606137925.715,386.230,10.254,2.441,-975.098,0.000
1606137925.719,236.328,4.883,-5.859,699.219,0.000
1606137925.723,-272.461,-25.391,-36.133,-471.191,0.000
1606137925.727,-468.750,-41.992,-47.852,-1000.000,0.000
1606137925.731,-83.008,-43.457,-21.973,-239.746,0.000
1606137925.735,351.074,-16.602,-6.348,925.293,0.000
1606137925.738,280.762,-0.977,-19.043,794.922,0.000
1606137925.742,-218.750,-33.203,-41.016,-364.258,0.000
1606137925.746,-473.633,-50.293,-46.875,-1000.000,0.000
1606137925.750,-153.320,-36.621,-31.250,-420.410,0.000
1606137925.754,309.082,-3.906,-9.277,793.457,0.000
1606137925.758,321.289,0.977,-4.395,884.766,0.000
1606137925.762,-160.156,-40.039,-31.738,-242.188,0.000
1606137925.766,-475.586,-53.711,-46.875,-1000.000,0.000
1606137925.770,-217.285,-41.504,-32.227,-573.242,0.000
1606137925.774,269.043,-24.414,-11.230,636.230,0.000
1606137925.778,371.582,-5.371,-7.324,966.797,0.000
1606137925.781,-74.707,-26.855,-32.227,-97.656,0.000
1606137925.785,-451.660,-44.434,-47.363,-1000.000,0.000
1606137925.789,-264.648,-29.297,-42.480,-694.824,0.000
1606137925.793,230.469,-4.883,-13.672,486.328,0.000
1606137925.797,400.391,3.418,3.418,-963.867,0.000
1606137925.801,10.742,-15.625,-24.414,96.680,0.000
1606137925.805,-422.852,-36.621,-52.734,-1000.000,0.000
1606137925.809,-320.312,-37.109,-45.410,-804.199,0.000
1606137925.813,193.359,-7.812,-23.926,355.957,0.000
1606137925.817,410.645,6.348,-15.625,-929.688,0.000
1606137925.821,42.969,-24.902,-32.715,274.414,0.000
1606137925.824,-411.133,-54.688,-50.293,-900.879,0.000
1606137925.828,-383.789,-45.898,-44.434,-890.137,0.000
1606137925.832,118.164,-12.207,-20.508,239.258,0.000
1606137925.836,409.180,-2.930,-6.836,-919.922,0.000
1606137925.840,113.770,-20.996,-21.973,446.777,0.000
1606137925.844,-354.492,-40.039,-44.922,-759.277,0.000
1606137925.848,-406.738,-41.016,-45.898,-972.656,0.000
1606137925.852,52.734,-20.020,-20.020,106.445,0.000
1606137925.856,395.996,-3.418,-2.930,-935.059,0.000
1606137925.860,182.129,-12.207,-19.043,600.586,0.000
1606137925.863,-310.059,-37.598,-39.551,-593.750,0.000
1606137925.867,-437.988,-43.457,-43.457,-1000.000,0.000
1606137925.871,-14.648,-20.020,-22.461,-63.477,0.000
1606137925.875,382.812,2.441,0.977,-987.305,0.000
1606137925.879,241.211,-11.719,-12.207,717.285,0.000
1606137925.883,-266.602,-41.016,-37.598,-453.613,0.000
1606137925.887,-462.891,-48.340,-40.527,-1000.000,0.000
1606137925.891,-93.262,-32.715,-26.855,-242.676,0.000
1606137925.895,341.309,-6.348,-12.695,915.039,0.000
1606137925.899,287.598,-9.766,-14.160,817.871,0.000
1606137925.903,-210.449,-42.969,-35.645,-332.031,0.000
1606137925.906,-478.027,-54.199,-46.875,-1000.000,0.000
1606137925.910,-170.410,-35.645,-30.273,-429.199,0.000
1606137925.914,302.246,-10.254,-5.859,779.297,0.000
1606137925.918,333.496,-11.719,-7.812,899.414,0.000
1606137925.922,-148.926,-35.645,-32.227,-213.867,0.000
1606137925.926,-470.703,-50.293,-48.828,-1000.000,0.000
1606137925.930,-221.680,-39.551,-33.203,-586.426,0.000
1606137925.934,262.695,-17.090,-12.207,620.117,0.000
1606137925.938,364.746,-10.742,-15.137,979.004,0.000
1606137925.942,-77.637,-32.227,-39.551,-67.871,0.000
1606137925.946,-457.031,-51.270,-52.246,-1000.000,0.000
1606137925.949,-287.109,-41.504,-40.039,-718.262,0.000
1606137925.953,213.867,-14.648,-19.043,456.543,0.000
1606137925.957,385.254,-5.859,-10.742,-958.008,0.000
1606137925.961,-15.625,-31.738,-33.691,112.793,0.000
1606137925.965,-437.988,-57.129,-43.945,-1000.000,0.000
1606137925.969,-343.750,-42.969,-32.227,-819.336,0.000
1606137925.973,160.156,-10.254,-12.207,333.984,0.000
1606137925.977,396.973,-10.742,-12.695,-928.711,0.000
1606137925.981,50.293,-29.785,-31.250,288.574,0.000
1606137925.985,-403.320,-47.852,-43.457,-887.207,0.000
1606137925.988,-382.812,-44.434,-40.527,-906.738,0.000
1606137925.992,107.422,-18.555,-16.113,214.844,0.000
1606137925.996,403.320,-3.418,-4.883,-920.898,0.000
1606137926.000,133.789,-15.137,-19.531,472.656,0.000
1606137926.004,-343.750,-44.434,-43.945,-729.492,0.000
1606137926.008,-412.598,-50.293,-43.945,-991.211,0.000
1606137926.012,48.828,-29.785,-24.414,72.266,0.000
1606137926.016,399.902,-12.207,-11.230,-941.895,0.000
1606137926.020,207.031,-17.090,-21.973,625.000,0.000
1606137926.024,-280.273,-35.156,-47.852,-564.941,0.000
1606137926.028,-439.941,-44.922,-49.805,-1000.000,0.000
1606137926.031,-33.203,-32.227,-30.273,-88.867,0.000
1606137926.035,374.512,-10.254,-18.066,-997.070,0.000
1606137926.039,256.348,-10.254,-19.043,733.398,0.000
1606137926.043,-242.676,-33.203,-34.180,-432.129,0.000
1606137926.047,-454.590,-42.969,-37.598,-1000.000,0.000
1606137926.051,-90.820,-37.109,-19.531,-257.812,0.000
1606137926.055,347.656,-16.602,-5.859,903.320,0.000
1606137926.059,300.781,-6.836,-8.301,829.590,0.000
1606137926.063,-195.312,-36.133,-36.133,-313.477,0.000
1606137926.067,-474.121,-53.711,-41.016,-1000.000,0.000
1606137926.071,-167.969,-27.344,-23.926,-459.473,0.000
1606137926.074,304.199,-4.395,-17.090,754.395,0.000
1606137926.078,336.426,-11.230,-15.137,915.039,0.000
1606137926.082,-137.695,-35.156,-38.574,-191.406,0.000
1606137926.086,-465.332,-51.758,-51.758,-1000.000,0.000
1606137926.090,-232.422,-38.086,-36.621,-600.586,0.000
1606137926.094,264.160,-2.930,-13.672,598.633,0.000
1606137926.098,382.324,0.488,-7.324,988.770,0.000
1606137926.102,-69.336,-23.438,-23.926,-38.574,0.000
1606137926.106,-458.008,-40.527,-43.945,-1000.000,0.000
1606137926.110,-294.434,-31.738,-45.410,-727.051,0.000
1606137926.113,211.914,1.465,-13.672,449.707,0.000
1606137926.117,397.461,8.301,0.000,-954.590,0.000
1606137926.121,2.930,-24.902,-22.949,135.254,0.000
1606137926.125,-425.293,-52.734,-44.922,-986.816,0.000
1606137926.129,-348.145,-47.363,-46.387,-834.961,0.000
1606137926.133,154.785,-16.602,-22.949,311.523,0.000
1606137926.137,407.715,-1.953,-7.812,-919.434,0.000
1606137926.141,78.613,-31.250,-18.555,333.984,0.000
1606137926.145,-378.906,-57.129,-37.109,-860.840,0.000
1606137926.149,-389.160,-52.246,-29.297,-923.340,0.000
1606137926.153,90.332,-29.297,-12.695,186.035,0.000
1606137926.156,406.738,-9.766,-4.395,-920.898,0.000
1606137926.160,140.625,-23.438,-19.531,496.582,0.000
1606137926.164,-346.191,-52.734,-40.039,-712.402,0.000
1606137926.168,-423.340,-53.711,-34.668,-1000.000,0.000
1606137926.172,27.832,-28.809,-16.113,47.852,0.000
1606137926.176,390.137,-0.488,-4.395,-948.242,0.000
1606137926.180,203.125,-19.043,-14.160,634.766,0.000
1606137926.184,-301.270,-60.059,-37.598,-550.293,0.000
1606137926.188,-460.449,-53.711,-47.852,-1000.000,0.000
1606137926.192,-41.016,-24.902,-28.320,-125.977,0.000
1606137926.196,366.211,-3.418,-4.883,987.305,0.000
1606137926.199,255.859,-14.160,-4.395,738.770,0.000
1606137926.203,-245.117,-41.504,-32.227,-426.758,0.000
1606137926.207,-473.633,-53.711,-55.176,-1000.000,0.000
1606137926.211,-110.352,-41.504,-33.203,-306.641,0.000
1606137926.215,337.402,-11.719,-8.301,874.023,0.000
1606137926.219,310.059,-7.812,-1.465,847.656,0.000
1606137926.223,-178.711,-37.109,-13.184,-285.156,0.000
1606137926.227,-474.121,-53.711,-42.480,-1000.000,0.000
1606137926.231,-180.664,-33.691,-38.086,-476.074,0.000
1606137926.235,284.180,-10.254,-16.602,719.238,0.000
1606137926.238,328.125,-9.277,-20.020,909.668,0.000
1606137926.242,-130.371,-36.621,-37.598,-161.133,0.000
1606137926.246,-470.703,-58.105,-48.828,-1000.000,0.000
1606137926.250,-241.699,-54.199,-38.086,-630.859,0.000
1606137926.254,251.465,-32.227,-19.043,570.312,0.000
1606137926.258,376.465,-10.254,-11.719,-997.070,0.000
1606137926.262,-49.805,-25.391,-20.020,-6.836,0.000
1606137926.266,-439.941,-44.434,-42.480,-1000.000,0.000
1606137926.270,-297.852,-38.086,-43.945,-741.211,0.000
1606137926.274,203.613,-15.137,-21.973,431.641,0.000
1606137926.278,397.949,-3.906,-12.695,-948.730,0.000
1606137926.281,13.184,-19.043,-31.250,177.734,0.000
1606137926.285,-408.691,-38.574,-47.852,-960.938,0.000
1606137926.289,-342.773,-46.387,-36.621,-842.285,0.000
1606137926.293,142.090,-27.344,-10.254,302.246,0.000
1606137926.297,400.879,-2.930,0.977,-917.969,0.000
1606137926.301,88.867,-16.113,-13.672,365.234,0.000
1606137926.305,-373.047,-50.293,-40.527,-835.449,0.000
1606137926.309,-394.043,-49.316,-46.875,-942.871,0.000
1606137926.313,89.355,-18.066,-18.066,160.645,0.000
1606137926.317,412.598,-3.418,5.859,-923.340,0.000
1606137926.321,151.855,-15.625,-16.113,512.207,0.000
1606137926.324,-333.984,-45.898,-49.805,-692.871,0.000
1606137926.328,-422.852,-59.082,-51.758,-1000.000,0.000
1606137926.332,40.039,-26.367,-26.367,28.809,0.000
1606137926.336,414.062,0.977,-10.254,-951.660,0.000
1606137926.340,217.773,-14.160,-20.508,639.648,0.000
1606137926.344,-280.273,-37.109,-45.410,-543.457,0.000
1606137926.348,-449.707,-47.363,-55.176,-1000.000,0.000
1606137926.352,-48.340,-34.180,-36.621,-153.809,0.000
1606137926.356,375.488,-8.789,-12.207,973.145,0.000
1606137926.360,275.879,-6.836,-3.906,760.254,0.000
1606137926.363,-231.445,-33.203,-26.855,-400.879,0.000
1606137926.367,-477.051,-52.734,-43.457,-1000.000,0.000
1606137926.371,-126.465,-36.133,-31.738,-351.562,0.000
1606137926.375,323.730,-15.137,-22.949,848.633,0.000
1606137926.379,299.805,-17.578,-18.555,851.074,0.000
1606137926.383,-190.918,-40.039,-40.039,-290.039,0.000
1606137926.387,-478.516,-56.152,-53.711,-1000.000,0.000
1606137926.391,-189.941,-49.805,-38.574,-510.742,0.000
1606137926.395,283.691,-14.648,-13.184,705.078,0.000
1606137926.399,354.492,-0.977,-7.812,939.941,0.000
1606137926.403,-101.074,-27.832,-26.855,-139.160,0.000
1606137926.406,-453.613,-45.410,-33.691,-1000.000,0.000
1606137926.410,-218.262,-31.250,-31.250,-608.887,0.000
1606137926.414,287.109,-6.348,-15.625,601.074,0.000
1606137926.418,395.996,-4.883,-8.301,-995.117,0.000
1606137926.422,-35.156,-27.344,-29.297,16.602,0.000
1606137926.426,-421.875,-39.551,-39.062,-1000.000,0.000
1606137926.430,-270.020,-44.922,-29.785,-761.719,0.000
1606137926.434,218.262,-26.855,-12.207,404.297,0.000
1606137926.438,403.320,-4.883,0.000,-943.359,0.000
1606137926.442,31.738,-23.926,-20.020,194.824,0.000
1606137926.446,-400.879,-43.945,-38.574,-952.637,0.000
1606137926.449,-347.168,-39.551,-26.367,-858.398,0.000
1606137926.453,150.391,-13.184,-3.906,283.203,0.000
1606137926.457,412.109,0.977,-1.953,-919.434,0.000
1606137926.461,95.703,-17.578,-22.461,375.488,0.000
1606137926.465,-375.000,-43.945,-50.781,-822.266,0.000
1606137926.469,-403.809,-45.898,-50.293,-942.871,0.000
1606137926.473,75.195,-12.695,-18.555,155.762,0.000
1606137926.477,403.320,12.695,-7.812,-924.316,0.000
1606137926.481,158.203,-7.324,-18.066,532.715,0.000
1606137926.485,-330.078,-39.062,-33.691,-669.434,0.000
1606137926.488,-433.105,-61.523,-46.387,-1000.000,0.000
1606137926.492,4.395,-40.527,-26.855,-5.371,0.000
1606137926.496,386.230,4.395,-0.488,-961.914,0.000
1606137926.500,216.797,-6.836,-8.789,673.828,0.000
1606137926.504,-288.574,-38.086,-39.551,-503.418,0.000
1606137926.508,-463.867,-52.246,-50.781,-1000.000,0.000
1606137926.512,-66.406,-36.133,-31.250,-182.129,0.000
1606137926.516,362.793,-4.883,-12.207,956.543,0.000
1606137926.520,275.391,-4.883,-18.555,774.902,0.000
1606137926.524,-234.375,-37.598,-44.434,-386.230,0.000
1606137926.528,-471.680,-54.199,-54.688,-1000.000,0.000
1606137926.531,-135.254,-44.922,-30.273,-347.168,0.000
1606137926.535,331.543,-7.812,-5.371,849.121,0.000
1606137926.539,323.730,0.488,-13.184,862.305,0.000
1606137926.543,-177.246,-33.203,-37.598,-267.090,0.000
1606137926.547,-479.492,-51.758,-51.270,-1000.000,0.000
1606137926.551,-201.660,-34.180,-42.480,-526.367,0.000
1606137926.555,287.598,-6.348,-21.484,688.477,0.000
1606137926.559,356.934,-8.789,-18.066,948.242,0.000
1606137926.563,-114.746,-25.391,-39.062,-132.324,0.000
1606137926.567,-464.844,-41.016,-56.641,-1000.000,0.000
1606137926.571,-263.184,-53.711,-49.805,-666.504,0.000
1606137926.574,232.422,-22.461,-20.020,522.461,0.000
1606137926.578,389.160,3.418,-6.348,-980.957,0.000
1606137926.582,-29.297,-16.113,-23.438,39.551,0.000
1606137926.586,-433.105,-36.621,-47.363,-1000.000,0.000
1606137926.590,-312.500,-35.156,-47.852,-777.344,0.000
1606137926.594,193.848,-5.371,-20.020,385.742,0.000
1606137926.598,405.273,8.789,-4.883,-937.988,0.000
1606137926.602,34.180,-18.555,-19.531,230.469,0.000
1606137926.606,-402.832,-42.480,-35.645,-931.152,0.000
1606137926.610,-357.422,-42.480,-32.715,-868.164,0.000
1606137926.613,141.113,-14.648,-8.789,273.926,0.000
1606137926.617,412.109,4.883,0.977,-918.945,0.000
1606137926.621,100.586,-21.973,-18.555,403.809,0.000
1606137926.625,-372.070,-47.852,-39.062,-798.828,0.000
1606137926.629,-403.809,-59.082,-35.645,-955.566,0.000
1606137926.633,70.801,-41.992,-16.113,138.672,0.000
1606137926.637,398.438,-8.301,-4.883,-929.199,0.000
1606137926.641,162.109,-15.625,-13.672,561.523,0.000
1606137926.645,-326.172,-36.621,-34.668,-637.207,0.000
1606137926.649,-433.594,-39.062,-40.039,-1000.000,0.000
1606137926.653,12.695,-12.207,-20.508,-7.812,0.000
1606137926.656,391.113,6.836,-8.789,-964.355,0.000
1606137926.660,225.098,-7.324,-17.578,674.805,0.000
1606137926.664,-270.996,-33.691,-38.086,-496.582,0.000
1606137926.668,-453.613,-49.316,-51.270,-1000.000,0.000
1606137926.672,-67.383,-41.504,-37.598,-211.426,0.000
1606137926.676,371.094,-12.207,-14.160,943.848,0.000
1606137926.680,283.203,-6.836,-11.230,780.273,0.000
1606137926.684,-236.816,-33.691,-29.297,-382.324,0.000
1606137926.688,-477.539,-48.828,-40.039,-1000.000,0.000
1606137926.692,-140.137,-32.227,-21.484,-380.371,0.000
1606137926.696,317.871,-0.977,-4.883,816.895,0.000
1606137926.699,319.336,1.465,-15.625,880.371,0.000
1606137926.703,-164.062,-24.902,-32.715,-243.652,0.000
1606137926.707,-466.309,-39.551,-50.293,-1000.000,0.000
1606137926.711,-208.496,-63.965,-41.992,-533.691,0.000
1606137926.715,267.090,-44.434,-14.160,678.223,0.000
1606137926.719,355.469,-11.230,-14.648,958.008,0.000
1606137926.723,-98.633,-28.809,-36.621,-113.281,0.000
1606137926.727,-463.379,-43.457,-44.922,-1000.000,0.000
1606137926.731,-270.996,-38.574,-36.133,-676.270,0.000
1606137926.735,230.469,-8.301,-15.137,508.789,0.000
1606137926.738,388.184,6.836,-11.719,-968.750,0.000
1606137926.742,-20.508,-16.113,-32.715,74.707,0.000
1606137926.746,-432.129,-42.969,-52.734,-1000.000,0.000
1606137926.750,-316.406,-43.457,-42.969,-783.203,0.000
1606137926.754,190.430,-12.207,-15.625,381.836,0.000
1606137926.758,410.645,3.418,-9.277,-935.547,0.000
1606137926.762,54.199,-22.949,-26.367,240.234,0.000
1606137926.766,-392.578,-41.016,-50.781,-920.410,0.000
1606137926.770,-362.793,-52.246,-55.176,-889.160,0.000
1606137926.774,125.000,-32.715,-24.414,239.746,0.000
1606137926.778,409.180,5.371,-5.371,-921.875,0.000
1606137926.781,114.746,-8.301,-22.949,413.086,0.000
1606137926.785,-358.887,-39.551,-45.898,-782.227,0.000
1606137926.789,-404.785,-48.340,-58.594,-970.215,0.000
1606137926.793,70.312,-13.184,-33.203,110.840,0.000
1606137926.797,417.969,12.695,-0.488,-930.664,0.000
1606137926.801,189.453,-4.883,-13.184,575.195,0.000
1606137926.805,-310.547,-34.668,-46.875,-620.605,0.000
1606137926.809,-437.988,-48.828,-53.711,-1000.000,0.000
1606137926.813,0.977,-27.344,-26.367,-58.105,0.000
1606137926.817,396.973,0.000,-5.371,-979.980,0.000
1606137926.821,244.141,-12.207,-20.996,693.359,0.000
1606137926.824,-258.789,-43.457,-44.434,-483.398,0.000
1606137926.828,-452.637,-58.105,-40.527,-1000.000,0.000
1606137926.832,-70.312,-37.109,-25.391,-222.656,0.000
1606137926.836,361.816,-1.465,-14.160,929.199,0.000
1606137926.840,290.527,-2.441,-10.254,796.875,0.000
1606137926.844,-211.426,-27.832,-34.668,-357.422,0.000
1606137926.848,-472.168,-59.082,-58.105,-1000.000,0.000
1606137926.852,-154.297,-60.547,-36.621,-414.551,0.000
1606137926.856,312.988,-17.578,-8.301,795.898,0.000
1606137926.860,331.055,-4.395,-8.789,886.719,0.000
1606137926.863,-152.344,-18.555,-37.598,-237.305,0.000
1606137926.867,-475.098,-48.340,-53.223,-1000.000,0.000
1606137926.871,-221.680,-48.340,-32.715,-573.242,0.000
1606137926.875,265.625,0.488,-7.324,636.230,0.000
1606137926.879,362.793,5.371,-12.207,974.121,0.000
1606137926.883,-83.496,-22.949,-25.391,-77.637,0.000
1606137926.887,-453.613,-44.434,-36.133,-1000.000,0.000
1606137926.891,-280.273,-65.430,-42.969,-696.289,0.000
1606137926.895,224.121,-39.062,-21.973,490.234,0.000
1606137926.899,395.508,0.000,-13.672,-966.797,0.000
1606137926.903,-19.531,-24.902,-32.715,81.055,0.000
1606137926.906,-433.594,-45.410,-47.852,-1000.000,0.000
1606137926.910,-325.684,-45.410,-29.297,-803.711,0.000
1606137926.914,178.711,-13.184,-1.465,352.539,0.000
1606137926.918,402.832,4.395,0.488,-930.664,0.000
1606137926.922,45.898,-25.391,-22.949,274.414,0.000
1606137926.926,-405.273,-52.246,-54.688,-897.949,0.000
1606137926.930,-388.184,-50.781,-43.945,-894.531,0.000
1606137926.934,111.816,-11.719,-12.695,231.445,0.000
1606137926.938,409.668,8.301,-3.906,-917.969,0.000
1606137926.942,121.582,-10.742,-18.066,450.684,0.000
1606137926.946,-351.562,-32.227,-35.645,-753.906,0.000
1606137926.949,-410.156,-62.500,-39.062,-985.352,0.000
1606137926.953,53.711,-50.781,-29.785,83.496,0.000
1606137926.957,408.691,-2.441,-7.812,-934.570,0.000
1606137926.961,201.172,-12.207,-11.230,600.098,0.000
1606137926.965,-297.852,-43.457,-34.180,-596.680,0.000
1606137926.969,-436.035,-50.781,-34.668,-1000.000,0.000
1606137926.973,-2.441,-20.508,-16.113,-63.477,0.000
1606137926.977,395.508,1.465,-0.488,-984.375,0.000
1606137926.981,250.000,-13.672,-13.672,711.914,0.000
1606137926.985,-255.859,-40.039,-37.598,-460.449,0.000
1606137926.988,-446.289,-51.270,-38.574,-1000.000,0.000
1606137926.992,-74.707,-53.711,-23.438,-259.277,0.000
1606137926.996,351.562,-18.555,-6.836,905.762,0.000
1606137927.000,297.852,1.465,-8.301,814.453,0.000
1606137927.004,-196.777,-24.902,-32.227,-338.379,0.000
1606137927.008,-458.496,-45.410,-41.504,-1000.000,0.000
1606137927.012,-150.879,-28.809,-28.809,-434.082,0.000
1606137927.016,312.500,0.000,-5.859,774.902,0.000
1606137927.020,337.402,-3.906,-1.953,902.832,0.000
1606137927.024,-141.602,-28.320,-32.227,-207.031,0.000
1606137927.028,-471.191,-47.363,-57.129,-1000.000,0.000
1606137927.031,-233.887,-38.574,-46.387,-594.238,0.000
1606137927.035,260.254,-9.766,-12.207,618.652,0.000
1606137927.039,364.746,-5.371,-2.441,980.469,0.000
1606137927.043,-79.102,-35.156,-25.391,-64.453,0.000
1606137927.047,-453.125,-59.082,-46.875,-1000.000,0.000
1606137927.051,-287.598,-54.199,-41.016,-717.773,0.000
1606137927.055,215.332,-19.043,-15.625,462.891,0.000
1606137927.059,386.719,-4.395,-8.789,-964.355,0.000
1606137927.063,-12.695,-22.461,-25.391,105.957,0.000
1606137927.067,-423.340,-45.410,-40.039,-998.535,0.000
1606137927.071,-333.008,-52.246,-40.039,-820.312,0.000
1606137927.074,169.922,-24.902,-18.066,333.008,0.000
1606137927.078,418.945,-1.953,-2.441,-926.270,0.000
1606137927.082,79.102,-16.602,-19.531,297.363,0.000
1606137927.086,-378.906,-42.969,-40.039,-879.883,0.000
1606137927.090,-368.164,-48.340,-43.457,-913.086,0.000
1606137927.094,114.258,-27.832,-31.738,203.125,0.000
1606137927.098,412.598,-7.324,-18.555,-920.410,0.000
1606137927.102,136.719,-19.043,-28.320,461.426,0.000
1606137927.106,-345.703,-45.898,-46.875,-740.234,0.000
1606137927.110,-418.945,-62.500,-47.852,-996.582,0.000
1606137927.113,35.156,-40.039,-29.297,64.453,0.000
1606137927.117,392.578,-3.906,-12.207,-939.453,0.000
1606137927.121,192.383,-15.137,-14.160,612.793,0.000
1606137927.125,-307.617,-41.504,-36.621,-575.195,0.000
1606137927.129,-452.637,-56.152,-46.875,-1000.000,0.000
1606137927.133,-29.297,-44.434,-25.391,-100.098,0.000
1606137927.137,374.023,-2.930,0.000,-999.023,0.000
1606137927.141,243.164,-5.371,-2.930,720.703,0.000
1606137927.145,-265.625,-31.250,-38.086,-447.754,0.000
1606137927.149,-474.121,-40.527,-51.758,-1000.000,0.000
1606137927.153,-105.469,-21.484,-33.691,-296.875,0.000
1606137927.156,332.031,4.395,-9.277,884.766,0.000
1606137927.160,279.785,-4.395,-7.812,826.172,0.000
1606137927.164,-220.703,-34.180,-38.086,-322.754,0.000
1606137927.168,-493.164,-49.316,-43.457,-1000.000,0.000
1606137927.172,-189.941,-29.785,-26.855,-463.867,0.000
1606137927.176,276.367,-0.488,-12.695,751.465,0.000
1606137927.180,308.105,-7.324,-12.207,907.227,0.000
1606137927.184,-169.434,-33.691,-36.133,-208.008,0.000
1606137927.188,-500.488,-53.223,-52.246,-1000.000,0.000
1606137927.192,-266.602,-73.242,-40.039,-640.625,0.000
1606137927.196,226.074,-34.180,-15.625,568.359,0.000
1606137927.199,330.078,3.418,-5.859,974.609,0.000
1606137927.203,-119.141,-27.832,-17.578,-85.938,0.000
1606137927.207,-498.047,-44.922,-35.645,-1000.000,0.000
1606137927.211,-341.797,-29.297,-36.133,-759.277,0.000
1606137927.215,161.621,-3.418,-13.672,409.180,0.000
1606137927.219,341.797,5.371,-0.977,-961.914,0.000
1606137927.223,-56.641,-23.438,-17.578,86.914,0.000
1606137927.227,-477.539,-46.387,-36.621,-1000.000,0.000
1606137927.231,-399.414,-33.203,-30.762,-855.469,0.000
1606137927.235,99.609,-3.418,-7.812,277.344,0.000
1606137927.238,351.074,12.207,3.906,-930.176,0.000
1606137927.242,8.789,-12.695,-17.578,268.066,0.000
1606137927.246,-453.125,-38.086,-39.551,-888.672,0.000
1606137927.250,-446.289,-38.086,-42.480,-936.035,0.000
1606137927.254,46.387,-16.113,-19.531,151.855,0.000
1606137927.258,361.816,4.883,3.418,-924.316,0.000
1606137927.262,100.098,-13.184,-14.648,470.703,0.000
1606137927.266,-368.164,-39.062,-38.574,-729.492,0.000
1606137927.270,-441.406,-46.875,-38.574,-1000.000,0.000
1606137927.274,8.301,-31.250,-28.809,34.180,0.000
1606137927.278,373.535,-5.859,-14.160,-952.148,0.000
1606137927.281,187.500,-18.066,-17.090,633.789,0.000
1606137927.285,-301.758,-46.387,-43.945,-555.176,0.000
1606137927.289,-451.172,-56.641,-46.387,-1000.000,0.000
1606137927.293,-32.715,-30.273,-25.879,-100.098,0.000
1606137927.297,383.789,-5.859,-7.324,992.188,0.000
1606137927.301,275.391,-17.090,-13.672,747.559,0.000
1606137927.305,-220.215,-36.621,-40.039,-412.598,0.000
1606137927.309,-435.059,-47.363,-44.922,-1000.000,0.000
1606137927.313,-73.730,-37.109,-31.250,-283.691,0.000
1606137927.317,366.699,-13.672,-18.066,890.625,0.000
1606137927.321,327.148,-19.531,-19.043,842.773,0.000
1606137927.324,-162.109,-38.574,-37.109,-288.574,0.000
1606137927.328,-440.918,-70.312,-48.828,-1000.000,0.000
1606137927.332,-152.832,-74.707,-45.898,-459.473,0.000
1606137927.336,320.801,-17.578,-21.973,744.629,0.000
1606137927.340,373.047,-10.742,-10.742,930.176,0.000
1606137927.344,-87.402,-40.527,-32.715,-155.762,0.000
1606137927.348,-427.246,-54.199,-44.922,-1000.000,0.000
1606137927.352,-213.379,-46.387,-35.156,-604.492,0.000
1606137927.356,272.461,-20.996,-22.461,589.844,0.000
1606137927.360,393.066,-16.113,-20.020,-987.305,0.000
1606137927.363,-33.203,-35.645,-40.527,25.879,0.000
1606137927.367,-420.410,-59.082,-63.965,-1000.000,0.000
1606137927.371,-272.949,-85.938,-52.734,-739.258,0.000
1606137927.375,224.121,-50.781,-25.391,436.523,0.000
1606137927.379,416.504,-4.883,-14.160,-947.754,0.000
1606137927.383,40.527,-15.625,-31.250,189.941,0.000
1606137927.387,-390.625,-40.527,-48.828,-959.473,0.000
1606137927.391,-331.543,-40.039,-48.828,-837.402,0.000
1606137927.395,171.387,-11.719,-26.367,317.383,0.000
1606137927.399,429.199,-2.441,-8.301,-921.387,0.000
1606137927.403,90.820,-21.973,-26.855,363.770,0.000
1606137927.406,-374.023,-41.992,-47.363,-833.984,0.000
1606137927.410,-391.113,-62.988,-42.480,-927.246,0.000
1606137927.414,84.961,-42.480,-20.508,188.477,0.000
1606137927.418,405.273,-7.812,-11.719,-922.852,0.000
1606137927.422,149.414,-20.996,-20.020,520.996,0.000
1606137927.426,-338.867,-49.805,-36.133,-681.641,0.000
1606137927.430,-433.105,-55.664,-48.340,-1000.000,0.000
1606137927.434,22.949,-25.391,-28.320,36.621,0.000
1606137927.438,392.578,-0.977,-3.906,-951.172,0.000
1606137927.442,215.332,-9.766,-15.137,652.832,0.000
1606137927.446,-283.203,-39.062,-39.062,-528.809,0.000
1606137927.449,-451.660,-54.688,-43.457,-1000.000,0.000
1606137927.453,-35.645,-28.320,-27.344,-131.836,0.000
1606137927.457,381.836,-1.465,-4.395,983.887,0.000
1606137927.461,282.715,-13.672,-2.441,755.371,0.000
1606137927.465,-220.703,-36.133,-25.879,-406.250,0.000
1606137927.469,-453.125,-60.547,-52.734,-1000.000,0.000
1606137927.473,-99.609,-62.988,-38.086,-335.449,0.000
1606137927.477,359.375,-13.672,-5.371,859.375,0.000
1606137927.481,338.379,-6.348,-13.184,846.680,0.000
1606137927.485,-160.156,-39.551,-37.598,-294.922,0.000
1606137927.488,-446.777,-49.316,-42.969,-1000.000,0.000
1606137927.492,-153.809,-28.809,-27.832,-488.770,0.000
1606137927.496,316.406,-2.930,-8.301,720.215,0.000
1606137927.500,368.652,-4.883,-7.812,940.918,0.000
1606137927.504,-97.168,-22.461,-32.227,-139.648,0.000
1606137927.508,-447.266,-49.805,-44.922,-1000.000,0.000
1606137927.512,-242.188,-60.059,-37.109,-643.555,0.000
1606137927.516,255.371,-13.184,-15.137,554.199,0.000
1606137927.520,395.020,8.789,-5.859,-987.305,0.000
1606137927.524,-37.109,-19.043,-32.715,13.184,0.000
1606137927.528,-434.082,-45.898,-44.922,-1000.000,0.000
1606137927.531,-298.828,-41.504,-31.738,-758.789,0.000
1606137927.535,198.242,-7.812,-16.113,411.133,0.000
1606137927.539,397.949,3.418,-7.812,-944.824,0.000
1606137927.543,18.066,-23.438,-26.367,183.594,0.000
1606137927.547,-413.574,-43.945,-45.410,-958.984,0.000
1606137927.551,-354.004,-53.223,-39.551,-849.609,0.000
1606137927.555,140.137,-36.133,-12.695,295.410,0.000
1606137927.559,406.738,-11.230,-3.906,-926.758,0.000
1606137927.563,90.820,-26.855,-26.367,357.910,0.000
1606137927.567,-372.070,-47.363,-47.852,-826.660,0.000
1606137927.571,-385.254,-46.875,-47.363,-940.918,0.000
1606137927.574,94.238,-20.508,-15.137,160.645,0.000
1606137927.578,406.738,-2.441,0.488,-923.828,0.000
1606137927.582,162.109,-13.672,-13.672,534.180,0.000
1606137927.586,-321.777,-39.551,-40.039,-669.922,0.000
1606137927.590,-416.992,-51.758,-45.410,-1000.000,0.000
1606137927.594,38.086,-23.438,-12.695,16.113,0.000
1606137927.598,411.621,0.000,1.953,-955.078,0.000
1606137927.602,234.375,-20.508,-13.672,657.227,0.000
1606137927.606,-266.602,-46.387,-39.062,-525.391,0.000
1606137927.610,-437.988,-62.988,-45.410,-1000.000,0.000
1606137927.613,-41.016,-47.363,-22.461,-150.879,0.000
1606137927.617,382.812,-0.977,5.859,972.656,0.000
1606137927.621,290.527,-2.930,-5.859,771.484,0.000
1606137927.625,-216.309,-41.016,-33.691,-385.254,0.000
1606137927.629,-455.566,-52.246,-39.551,-1000.000,0.000
1606137927.633,-104.004,-23.438,-22.461,-343.262,0.000
1606137927.637,343.262,1.953,-9.766,846.191,0.000
1606137927.641,323.730,-5.859,-12.207,869.629,0.000
1606137927.645,-162.598,-27.832,-21.484,-254.395,0.000
1606137927.649,-473.145,-63.477,-40.039,-1000.000,0.000
1606137927.653,-203.125,-80.078,-43.945,-523.438,0.000
1606137927.656,279.297,-30.273,-23.926,691.895,0.000
1606137927.660,347.168,-7.812,-17.578,948.242,0.000
1606137927.664,-112.793,-31.250,-42.480,-133.301,0.000
1606137927.668,-456.055,-49.316,-58.105,-1000.000,0.000
1606137927.672,-242.188,-36.621,-42.480,-653.809,0.000
1606137927.676,264.648,-5.371,-9.766,538.574,0.000
1606137927.680,409.180,4.395,-8.789,-983.887,0.000
1606137927.684,-21.973,-21.484,-33.203,37.598,0.000
1606137927.688,-420.410,-56.152,-40.527,-1000.000,0.000
1606137927.692,-295.898,-60.059,-39.551,-763.184,0.000
1606137927.696,200.195,-17.090,-19.531,402.832,0.000
1606137927.699,410.156,9.277,-10.254,-940.430,0.000
1606137927.703,35.156,-18.555,-25.879,211.914,0.000
1606137927.707,-407.227,-53.711,-41.504,-943.359,0.000
1606137927.711,-360.840,-51.270,-40.039,-863.281,0.000
1606137927.715,137.207,-20.996,-14.160,275.391,0.000
1606137927.719,410.156,-4.883,-0.488,-919.434,0.000
1606137927.723,101.562,-22.461,-23.438,400.391,0.000
1606137927.727,-364.258,-48.828,-51.758,-804.688,0.000
1606137927.731,-389.160,-41.504,-42.969,-941.895,0.000
1606137927.735,91.309,-13.672,-15.625,164.551,0.000
1606137927.738,427.246,5.371,-5.371,-925.293,0.000
1606137927.742,185.547,-11.230,-13.184,562.012,0.000
1606137927.746,-317.383,-39.062,-34.668,-639.648,0.000
1606137927.750,-435.547,-64.453,-41.992,-1000.000,0.000
1606137927.754,6.836,-46.875,-19.531,-4.883,0.000
1606137927.758,385.742,1.953,-5.371,-962.891,0.000
1606137927.762,222.656,-9.277,-13.672,676.270,0.000
1606137927.766,-283.203,-43.945,-28.809,-503.906,0.000
1606137927.770,-459.961,-55.664,-37.598,-1000.000,0.000
1606137927.774,-55.176,-36.621,-24.414,-186.035,0.000
1606137927.778,364.258,-5.859,-10.254,950.195,0.000
1606137927.781,287.598,2.441,-12.207,790.039,0.000
1606137927.785,-207.520,-22.461,-35.645,-363.281,0.000
1606137927.789,-462.891,-56.641,-53.711,-1000.000,0.000
1606137927.793,-120.117,-42.969,-33.203,-367.188,0.000
1606137927.797,348.633,-1.953,-8.301,833.984,0.000
1606137927.801,334.473,-6.348,-18.066,871.582,0.000
1606137927.805,-157.227,-33.203,-42.480,-254.395,0.000
1606137927.809,-457.520,-46.387,-50.781,-1000.000,0.000
1606137927.813,-187.500,-31.738,-40.527,-536.133,0.000
1606137927.817,294.922,-8.301,-23.438,676.270,0.000
1606137927.821,375.000,-5.371,-12.695,957.520,0.000
1606137927.824,-93.262,-28.320,-35.645,-119.629,0.000
1606137927.828,-460.449,-62.012,-60.059,-1000.000,0.000
1606137927.832,-262.207,-56.152,-50.293,-673.828,0.000
1606137927.836,230.469,-13.184,-26.367,516.602,0.000
1606137927.840,380.859,-2.930,-15.625,-982.422,0.000
1606137927.844,-34.668,-31.738,-33.691,35.156,0.000
1606137927.848,-441.406,-60.059,-56.641,-1000.000,0.000
1606137927.852,-313.965,-54.688,-52.246,-784.180,0.000
1606137927.856,194.824,-12.207,-19.531,378.418,0.000
1606137927.860,404.785,0.488,-11.230,-938.965,0.000
1606137927.863,41.504,-20.996,-35.645,227.051,0.000
1606137927.867,-395.996,-42.969,-49.316,-926.758,0.000
1606137927.871,-362.793,-51.758,-49.805,-879.883,0.000
1606137927.875,129.395,-26.855,-25.879,251.465,0.000
1606137927.879,405.273,-11.719,-8.301,-920.410,0.000
1606137927.883,104.004,-21.973,-21.973,401.367,0.000
1606137927.887,-365.234,-48.828,-43.945,-796.387,0.000
1606137927.891,-408.203,-79.102,-44.434,-964.355,0.000
1606137927.895,68.848,-41.016,-20.508,118.652,0.000
1606137927.899,401.855,-0.488,-14.648,-931.641,0.000
1606137927.903,178.711,-16.113,-20.996,566.406,0.000
1606137927.906,-309.570,-41.992,-28.320,-632.324,0.000
1606137927.910,-433.105,-42.480,-36.133,-1000.000,0.000
1606137927.914,14.160,-15.625,-20.996,-24.414,0.000
1606137927.918,402.832,3.906,-3.906,-969.727,0.000
1606137927.922,239.746,-15.625,-17.090,684.082,0.000
1606137927.926,-254.395,-33.691,-37.109,-483.887,0.000
1606137927.930,-437.988,-62.988,-47.852,-1000.000,0.000
1606137927.934,-53.711,-64.941,-34.180,-213.867,0.000
1606137927.938,375.488,-14.160,-6.348,940.430,0.000
1606137927.942,299.805,-6.836,-12.207,794.434,0.000
1606137927.946,-203.125,-33.203,-35.156,-358.887,0.000
1606137927.949,-460.938,-52.734,-48.828,-1000.000,0.000
1606137927.953,-131.836,-38.086,-24.902,-388.184,0.000
1606137927.957,333.496,-10.742,-5.371,813.477,0.000
1606137927.961,333.984,-6.348,-11.719,888.672,0.000
1606137927.965,-153.320,-27.832,-27.832,-226.074,0.000
1606137927.969,-463.379,-54.688,-46.387,-1000.000,0.000
1606137927.973,-203.613,-37.109,-32.227,-541.504,0.000
1606137927.977,279.297,0.000,-9.766,667.480,0.000
1606137927.981,358.398,-2.930,-3.418,965.820,0.000
1606137927.985,-99.121,-26.855,-17.090,-86.426,0.000
1606137927.988,-469.727,-57.617,-41.504,-1000.000,0.000
1606137927.992,-284.180,-56.152,-39.551,-682.617,0.000
1606137927.996,215.332,-17.090,-10.254,501.953,0.000
1606137928.000,375.488,-1.465,-1.953,-969.238,0.000
1606137928.004,-31.738,-20.020,-27.832,83.496,0.000
1606137928.008,-440.918,-48.340,-49.316,-1000.000,0.000
1606137928.012,-329.102,-45.410,-39.551,-791.992,0.000
1606137928.016,182.129,-9.277,-20.508,368.652,0.000
1606137928.020,405.762,6.836,-21.973,-934.082,0.000
1606137928.024,43.945,-16.113,-30.273,262.207,0.000
1606137928.028,-406.250,-54.688,-43.945,-904.297,0.000
1606137928.031,-387.695,-75.195,-50.781,-897.461,0.000
1606137928.035,105.469,-34.668,-29.785,229.492,0.000
1606137928.039,403.320,3.906,-6.348,-919.434,0.000
1606137928.043,116.211,-9.277,-19.531,435.059,0.000
1606137928.047,-359.863,-38.574,-45.410,-769.531,0.000
1606137928.051,-412.598,-42.480,-48.340,-971.680,0.000
1606137928.055,64.453,-16.602,-27.344,111.328,0.000
1606137928.059,411.133,-4.883,-15.625,-932.617,0.000
1606137928.063,183.594,-23.926,-23.438,581.055,0.000
1606137928.067,-312.500,-42.480,-41.504,-611.328,0.000
1606137928.071,-441.406,-53.711,-53.711,-1000.000,0.000
1606137928.074,-4.883,-31.250,-29.785,-61.523,0.000
1606137928.078,381.348,0.977,-10.254,-981.445,0.000
1606137928.082,229.492,-10.742,-28.809,692.383,0.000
1606137928.086,-266.113,-31.738,-53.223,-481.445,0.000
1606137928.090,-464.355,-44.922,-50.781,-1000.000,0.000
1606137928.094,-79.102,-28.320,-36.133,-233.887,0.000
1606137928.098,361.328,-2.930,-23.438,926.758,0.000
1606137928.102,292.969,-3.906,-26.367,802.734,0.000
1606137928.106,-203.125,-29.297,-41.016,-349.609,0.000
1606137928.110,-461.426,-49.316,-42.969,-1000.000,0.000
1606137928.113,-146.973,-31.738,-32.227,-399.414,0.000
1606137928.117,310.059,-3.906,-10.742,802.734,0.000
1606137928.121,322.754,-8.789,-8.301,890.625,0.000
1606137928.125,-155.273,-33.691,-36.621,-228.027,0.000
1606137928.129,-474.121,-54.199,-51.758,-1000.000,0.000
1606137928.133,-225.098,-47.363,-32.715,-576.660,0.000
1606137928.137,271.484,-13.184,-7.324,634.277,0.000
1606137928.141,372.559,-0.977,-7.324,971.680,0.000
1606137928.145,-75.684,-24.902,-33.691,-85.449,0.000
1606137928.149,-444.336,-48.828,-47.363,-1000.000,0.000
1606137928.153,-265.625,-38.574,-33.691,-697.754,0.000
1606137928.156,234.863,-7.324,-15.137,487.305,0.000
1606137928.160,400.879,-0.488,-8.301,-969.727,0.000
1606137928.164,-1.953,-21.484,-25.391,87.402,0.000
1606137928.168,-423.828,-59.082,-56.152,-1000.000,0.000
1606137928.172,-326.172,-68.848,-53.711,-803.711,0.000
1606137928.176,184.082,-18.555,-21.973,354.492,0.000
1606137928.180,411.621,4.883,-8.789,-926.270,0.000
1606137928.184,57.129,-16.602,-25.391,282.227,0.000
1606137928.188,-399.902,-45.410,-48.828,-898.438,0.000
1606137928.192,-379.883,-48.340,-49.805,-898.438,0.000
1606137928.196,121.582,-24.902,-26.367,229.004,0.000
1606137928.199,408.203,-10.742,-13.184,-923.828,0.000
1606137928.203,116.699,-21.973,-35.156,439.453,0.000
1606137928.207,-351.074,-44.434,-56.641,-753.418,0.000
1606137928.211,-409.668,-78.125,-51.758,-985.352,0.000
1606137928.215,58.594,-57.129,-35.156,79.590,0.000
1606137928.219,415.039,0.488,-22.949,-937.012,0.000
1606137928.223,204.590,-0.488,-23.438,601.562,0.000
1606137928.227,-298.828,-35.645,-48.828,-592.773,0.000
1606137928.231,-443.359,-47.852,-60.059,-1000.000,0.000
1606137928.235,-13.672,-23.438,-25.879,-77.148,0.000
1606137928.238,383.301,-2.930,-1.465,-987.305,0.000
1606137928.242,242.676,-9.766,-20.996,713.867,0.000
1606137928.246,-254.395,-38.574,-42.480,-458.984,0.000
1606137928.250,-454.102,-51.270,-39.551,-1000.000,0.000
1606137928.254,-80.566,-28.320,-28.809,-244.629,0.000
1606137928.258,346.680,-9.277,-18.066,915.527,0.000
1606137928.262,284.180,-15.625,-18.066,811.523,0.000
1606137928.266,-216.797,-39.551,-45.410,-338.379,0.000
1606137928.270,-491.699,-67.383,-61.035,-1000.000,0.000
1606137928.274,-171.875,-48.340,-36.133,-432.617,0.000
1606137928.278,312.500,-5.859,-8.301,777.344,0.000
1606137928.281,342.773,-1.953,-6.836,903.809,0.000
1606137928.285,-143.066,-27.832,-36.133,-208.984,0.000
1606137928.289,-472.656,-47.852,-59.570,-1000.000,0.000
1606137928.293,-219.727,-25.879,-32.715,-583.984,0.000
1606137928.297,269.043,5.371,-5.859,623.535,0.000
1606137928.301,365.723,3.418,-7.812,982.422,0.000
1606137928.305,-80.566,-32.227,-27.832,-57.617,0.000
1606137928.309,-463.379,-63.965,-46.387,-1000.000,0.000
1606137928.313,-296.387,-68.359,-44.922,-719.727,0.000
1606137928.317,211.914,-25.879,-20.508,459.473,0.000
1606137928.321,392.578,5.371,-11.230,-959.961,0.000
1606137928.324,-1.953,-19.043,-35.156,112.305,0.000
1606137928.328,-426.270,-47.363,-42.969,-1000.000,0.000
1606137928.332,-335.449,-44.922,-30.762,-818.848,0.000
1606137928.336,167.969,-15.625,-12.207,337.891,0.000
1606137928.340,397.461,-3.906,-2.930,-932.617,0.000
1606137928.344,52.246,-29.297,-29.297,281.738,0.000
1606137928.348,-396.484,-58.594,-50.781,-883.789,0.000
1606137928.352,-386.719,-57.129,-49.316,-910.645,0.000
1606137928.356,107.910,-11.230,-23.926,205.078,0.000
1606137928.360,417.480,9.766,0.488,-918.457,0.000
1606137928.363,135.254,-17.090,-8.789,467.773,0.000
1606137928.367,-352.051,-41.992,-28.320,-738.770,0.000
1606137928.371,-422.852,-39.551,-39.551,-990.723,0.000
1606137928.375,41.016,-15.625,-19.531,72.754,0.000
1606137928.379,398.438,-0.488,5.371,-939.941,0.000
1606137928.383,196.777,-11.230,-8.789,617.676,0.000
1606137928.387,-297.852,-41.504,-37.598,-573.730,0.000
1606137928.391,-441.895,-58.105,-45.410,-1000.000,0.000
1606137928.395,-15.625,-27.344,-26.855,-77.148,0.000
1606137928.399,383.301,1.953,-4.883,-994.141,0.000
1606137928.403,256.348,-13.184,-4.395,725.098,0.000
1606137928.406,-245.605,-42.480,-29.785,-441.406,0.000
1606137928.410,-461.426,-62.012,-47.363,-1000.000,0.000
1606137928.414,-95.215,-42.969,-27.344,-268.555,0.000
1606137928.418,344.727,-14.648,-8.789,899.902,0.000
1606137928.422,302.734,-16.113,-20.996,829.102,0.000
1606137928.426,-189.941,-33.691,-34.668,-315.918,0.000
1606137928.430,-462.402,-51.270,-39.551,-1000.000,0.000
1606137928.434,-154.297,-41.016,-24.902,-437.012,0.000
1606137928.438,313.965,-17.578,-1.953,766.113,0.000
1606137928.442,346.680,-9.766,-9.766,916.992,0.000
1606137928.446,-124.512,-32.227,-37.109,-183.105,0.000
1606137928.449,-463.379,-64.453,-45.410,-1000.000,0.000
1606137928.453,-232.422,-54.688,-30.273,-603.027,0.000
1606137928.457,269.531,-14.648,-9.766,605.957,0.000
1606137928.461,385.254,-2.930,0.488,993.164,0.000
1606137928.465,-62.500,-24.414,-21.484,-33.203,0.000
1606137928.469,-452.637,-51.270,-40.039,-1000.000,0.000
1606137928.473,-286.621,-42.480,-24.902,-718.750,0.000
1606137928.477,213.379,-12.695,-12.695,460.938,0.000
1606137928.481,384.277,-14.648,-13.672,-960.938,0.000
1606137928.485,-3.418,-40.039,-26.855,131.348,0.000
1606137928.488,-421.875,-55.176,-38.574,-984.375,0.000
1606137928.492,-343.262,-49.805,-37.598,-830.078,0.000
1606137928.496,151.855,-20.996,-16.602,320.801,0.000
1606137928.500,395.996,-7.324,-1.465,-924.316,0.000
1606137928.504,64.941,-27.832,-16.113,316.406,0.000
1606137928.508,-395.996,-58.594,-45.898,-869.629,0.000
1606137928.512,-388.672,-51.270,-44.922,-917.969,0.000
1606137928.516,103.516,-18.066,-18.555,199.707,0.000
1606137928.520,411.133,2.441,-11.230,-921.387,0.000
1606137928.524,148.926,-7.324,-26.367,481.445,0.000
1606137928.528,-336.426,-40.039,-42.480,-721.680,0.000
1606137928.531,-416.992,-46.387,-45.898,-993.652,0.000
1606137928.535,57.617,-20.996,-19.043,68.359,0.000
1606137928.539,421.387,0.000,-7.324,-940.918,0.000
1606137928.543,211.426,-12.207,-24.414,617.676,0.000
1606137928.547,-291.504,-44.434,-47.363,-568.848,0.000
1606137928.551,-444.824,-62.988,-56.641,-1000.000,0.000
1606137928.555,-23.438,-33.691,-31.250,-111.328,0.000
1606137928.559,391.113,-4.883,-1.465,996.094,0.000
1606137928.563,264.648,-14.160,-12.207,729.492,0.000
1606137928.567,-244.141,-35.156,-44.922,-437.500,0.000
1606137928.571,-462.891,-44.434,-43.457,-1000.000,0.000
1606137928.574,-102.539,-26.367,-23.438,-300.293,0.000
1606137928.578,338.867,-6.348,-17.578,877.441,0.000
1606137928.582,303.711,-15.625,-20.996,835.938,0.000
1606137928.586,-190.430,-42.969,-36.133,-307.129,0.000
1606137928.590,-470.215,-57.617,-45.898,-1000.000,0.000
1606137928.594,-171.387,-39.062,-36.133,-480.469,0.000
1606137928.598,305.664,-2.930,-11.719,736.328,0.000
1606137928.602,350.586,2.441,-2.441,916.504,0.000
1606137928.606,-126.953,-23.926,-30.762,-188.477,0.000
1606137928.610,-462.891,-46.875,-39.551,-1000.000,0.000
1606137928.613,-230.957,-39.551,-24.902,-620.117,0.000
1606137928.617,256.348,-11.719,-16.602,580.078,0.000
1606137928.621,368.652,-4.395,-16.113,988.281,0.000
1606137928.625,-64.941,-28.809,-33.203,-32.715,0.000
1606137928.629,-449.219,-55.664,-49.805,-1000.000,0.000
1606137928.633,-295.898,-45.898,-41.016,-742.188,0.000
1606137928.637,210.449,-5.859,-7.324,429.688,0.000
1606137928.641,394.043,7.812,2.930,-951.172,0.000
1606137928.645,-3.906,-20.508,-29.785,157.227,0.000
1606137928.649,-428.711,-45.898,-47.852,-974.609,0.000
1606137928.653,-337.891,-31.250,-30.762,-837.402,0.000
1606137928.656,163.574,-0.977,-11.719,311.523,0.000
1606137928.660,407.227,4.883,-7.812,-927.246,0.000
1606137928.664,80.566,-17.090,-21.973,335.938,0.000
1606137928.668,-383.301,-44.434,-37.598,-848.145,0.000
1606137928.672,-390.625,-49.805,-29.785,-922.363,0.000
1606137928.676,98.633,-18.066,-11.719,191.406,0.000
1606137928.680,408.203,-7.812,-0.977,-923.340,0.000
1606137928.684,150.879,-20.996,-4.883,510.742,0.000
1606137928.688,-332.031,-46.387,-40.527,-690.918,0.000
1606137928.692,-417.969,-75.195,-50.293,-1000.000,0.000
1606137928.696,46.387,-42.480,-20.508,41.016,0.000
1606137928.699,418.457,-3.418,1.953,-948.242,0.000
1606137928.703,220.215,-19.043,-16.113,635.742,0.000
1606137928.707,-287.598,-43.945,-43.945,-547.363,0.000
1606137928.711,-452.148,-47.363,-44.922,-1000.000,0.000
1606137928.715,-45.898,-30.273,-22.461,-132.324,0.000
1606137928.719,366.699,-5.371,-4.395,982.910,0.000
1606137928.723,261.230,-2.441,-12.207,745.605,0.000
1606137928.727,-237.305,-38.086,-30.762,-416.992,0.000
1606137928.731,-461.914,-67.383,-49.316,-1000.000,0.000
1606137928.735,-94.238,-43.457,-30.762,-321.289,0.000
1606137928.738,358.887,-2.441,0.488,869.629,0.000
1606137928.742,317.871,-5.859,-12.695,847.168,0.000
1606137928.746,-172.363,-34.668,-42.480,-291.504,0.000
1606137928.750,-457.031,-50.781,-49.805,-1000.000,0.000
1606137928.754,-171.875,-40.039,-33.691,-494.629,0.000
1606137928.758,304.688,-17.578,-14.648,718.262,0.000
1606137928.762,352.539,-10.254,-13.184,928.711,0.000
1606137928.766,-118.652,-20.996,-37.109,-164.062,0.000
1606137928.770,-461.914,-44.922,-50.781,-1000.000,0.000
1606137928.774,-245.117,-40.527,-43.457,-635.742,0.000
1606137928.778,256.348,-2.930,-23.438,563.477,0.000
1606137928.781,382.812,1.465,-5.859,999.512,0.000
1606137928.785,-52.734,-24.414,-17.578,-10.254,0.000
1606137928.789,-443.359,-52.246,-47.852,-1000.000,0.000
1606137928.793,-295.898,-46.387,-46.387,-753.418,0.000
1606137928.797,203.125,-10.742,-14.160,415.527,0.000
1606137928.801,396.484,3.906,-5.371,-949.219,0.000
1606137928.805,20.020,-17.578,-24.902,169.922,0.000
1606137928.809,-416.992,-44.922,-48.828,-965.820,0.000
1606137928.813,-353.516,-39.551,-43.945,-849.121,0.000
1606137928.817,158.691,-5.371,-14.160,297.363,0.000
1606137928.821,415.039,0.000,-20.508,-926.270,0.000
1606137928.824,91.797,-17.090,-36.621,349.121,0.000
1606137928.828,-370.117,-46.387,-48.340,-834.473,0.000
1606137928.832,-389.160,-61.035,-47.852,-936.035,0.000
1606137928.836,98.145,-23.438,-22.949,166.504,0.000
1606137928.840,416.504,-1.465,-7.812,-924.805,0.000
1606137928.844,155.762,-14.648,-18.555,520.508,0.000
1606137928.848,-336.426,-40.527,-48.340,-681.641,0.000
1606137928.852,-426.758,-47.852,-48.340,-1000.000,0.000
1606137928.856,23.926,-25.391,-13.672,25.391,0.000
1606137928.860,394.043,-1.953,-0.488,-956.543,0.000
1606137928.863,221.680,-8.789,-10.742,657.715,0.000
1606137928.867,-282.715,-49.316,-39.062,-522.461,0.000
1606137928.871,-459.473,-108.887,-58.105,-1000.000,0.000
1606137928.875,-50.781,-79.102,-31.250,-163.086,0.000
1606137928.879,371.094,-7.324,-5.371,969.238,0.000
1606137928.883,269.043,-10.254,-10.742,759.766,0.000
1606137928.887,-227.539,-39.062,-29.297,-399.414,0.000
1606137928.891,-466.797,-54.199,-39.062,-1000.000,0.000
1606137928.895,-131.348,-33.203,-29.785,-338.379,0.000
1606137928.899,319.336,-8.301,-11.719,853.027,0.000
1606137928.903,300.781,-18.555,-20.996,852.051,0.000
1606137928.906,-187.012,-41.016,-41.992,-282.715,0.000
1606137928.910,-480.957,-72.266,-53.711,-1000.000,0.000
1606137928.914,-191.895,-52.246,-34.668,-506.836,0.000
1606137928.918,293.945,0.000,-2.930,706.055,0.000
1606137928.922,350.098,-3.418,-4.395,941.895,0.000
1606137928.926,-121.094,-32.715,-28.809,-141.602,0.000
1606137928.930,-467.773,-49.805,-35.645,-1000.000,0.000
1606137928.934,-254.883,-39.551,-26.367,-655.273,0.000
1606137928.938,240.723,-16.113,-19.043,539.551,0.000
1606137928.942,384.766,-1.953,-16.113,-993.652,0.000
1606137928.946,-37.109,-17.578,-41.016,5.371,0.000
1606137928.949,-432.129,-44.922,-48.340,-1000.000,0.000
1606137928.953,-297.852,-45.410,-33.203,-761.719,0.000
1606137928.957,201.660,-17.578,-25.879,403.320,0.000
1606137928.961,402.832,-4.883,-14.160,-946.289,0.000
1606137928.965,28.320,-24.902,-22.461,187.500,0.000
1606137928.969,-411.621,-56.641,-45.898,-953.125,0.000
1606137928.973,-366.699,-68.359,-56.152,-862.793,0.000
1606137928.977,137.695,-24.414,-35.156,276.855,0.000
1606137928.981,419.922,7.812,-18.555,-921.875,0.000
1606137928.985,105.469,-13.672,-26.367,374.512,0.000
1606137928.988,-364.746,-41.992,-37.109,-817.871,0.000
1606137928.992,-379.883,-41.016,-28.320,-943.359,0.000
1606137928.996,103.027,-19.043,-15.625,155.273,0.000
1606137929.000,424.805,-2.930,-11.230,-925.293,0.000
1606137929.004,179.199,-7.324,-16.113,545.410,0.000
1606137929.008,-313.965,-39.062,-41.504,-656.250,0.000
1606137929.012,-425.293,-47.852,-48.340,-1000.000,0.000
1606137929.016,18.066,-22.949,-23.438,-0.977,0.000
1606137929.020,395.020,-4.395,-6.348,-960.449,0.000
1606137929.024,228.027,-11.230,-13.672,659.668,0.000
1606137929.028,-270.996,-34.180,-35.156,-520.508,0.000
1606137929.031,-446.777,-45.410,-47.363,-1000.000,0.000
1606137929.035,-43.945,-27.832,-22.949,-167.480,0.000
1606137929.039,375.000,-8.301,-7.324,961.426,0.000
1606137929.043,275.879,-15.625,-18.066,774.414,0.000
1606137929.047,-220.215,-40.527,-41.016,-385.742,0.000
1606137929.051,-459.961,-77.637,-58.594,-1000.000,0.000
1606137929.055,-115.234,-52.734,-41.992,-347.168,0.000
1606137929.059,346.191,1.465,-15.625,841.309,0.000
1606137929.063,323.730,2.930,-19.043,859.863,0.000
1606137929.067,-166.992,-22.949,-42.480,-272.461,0.000
1606137929.071,-460.938,-48.340,-52.246,-1000.000,0.000
1606137929.074,-183.105,-31.738,-35.156,-520.508,0.000
1606137929.078,293.457,-1.465,-9.277,692.871,0.000
1606137929.082,360.840,3.906,-9.277,948.730,0.000
1606137929.086,-104.492,-23.926,-42.480,-132.812,0.000
1606137929.090,-463.379,-47.852,-62.988,-1000.000,0.000
1606137929.094,-256.348,-25.879,-42.480,-654.297,0.000
1606137929.098,240.234,0.977,-9.766,538.086,0.000
1606137929.102,373.535,-6.348,-2.930,-986.328,0.000
1606137929.106,-43.945,-25.879,-19.531,27.344,0.000
1606137929.110,-449.707,-62.500,-41.016,-1000.000,0.000
1606137929.113,-320.801,-62.988,-40.527,-759.766,0.000
1606137929.117,191.406,-18.555,-16.113,405.273,0.000
1606137929.121,393.066,1.465,1.953,-939.941,0.000
1606137929.125,16.602,-12.207,-22.949,222.168,0.000
1606137929.129,-417.480,-43.457,-51.270,-937.012,0.000
1606137929.133,-369.629,-47.852,-47.363,-865.234,0.000
1606137929.137,127.441,-22.461,-20.508,275.391,0.000
1606137929.141,404.297,-1.953,-7.812,-919.434,0.000
1606137929.145,99.609,-13.672,-23.438,416.016,0.000
1606137929.149,-369.141,-45.410,-46.875,-789.062,0.000
1606137929.153,-408.203,-58.105,-50.781,-950.684,0.000
1606137929.156,70.312,-26.855,-23.926,150.879,0.000
1606137929.160,397.461,-2.441,-8.301,-926.758,0.000
1606137929.164,164.551,-12.207,-15.137,552.246,0.000
1606137929.168,-316.406,-43.945,-41.504,-645.996,0.000
1606137929.172,-432.129,-59.570,-48.828,-1000.000,0.000
1606137929.176,15.625,-25.879,-27.344,-6.836,0.000
1606137929.180,406.250,3.418,-12.695,-962.891,0.000
1606137929.184,230.469,-7.324,-8.789,673.828,0.000
1606137929.188,-277.344,-45.410,-30.762,-503.418,0.000
1606137929.192,-450.195,-67.383,-44.434,-1000.000,0.000
1606137929.196,-52.246,-28.809,-20.996,-188.477,0.000
1606137929.199,373.535,4.883,-0.977,953.125,0.000
1606137929.203,285.156,-5.371,-3.906,780.762,0.000
1606137929.207,-215.332,-36.133,-28.809,-376.953,0.000
1606137929.211,-462.402,-52.246,-40.527,-1000.000,0.000
1606137929.215,-126.465,-28.809,-22.461,-367.188,0.000
1606137929.219,333.496,-1.953,-8.301,825.195,0.000
1606137929.223,323.242,-5.371,-15.625,877.441,0.000
1606137929.227,-164.062,-36.621,-32.715,-247.559,0.000
1606137929.231,-464.355,-53.711,-42.480,-1000.000,0.000
1606137929.235,-195.801,-34.668,-35.645,-531.250,0.000
1606137929.238,289.062,-6.348,-16.602,681.152,0.000
1606137929.242,361.328,-5.371,-9.277,956.543,0.000
1606137929.246,-105.957,-29.785,-33.203,-118.652,0.000
1606137929.250,-469.238,-59.570,-51.758,-1000.000,0.000
1606137929.254,-270.508,-58.105,-30.273,-670.898,0.000
1606137929.258,233.887,-15.137,-12.695,515.137,0.000
1606137929.262,387.207,-1.465,-19.531,-980.469,0.000
1606137929.266,-35.645,-28.320,-36.133,44.434,0.000
1606137929.270,-446.289,-50.781,-54.199,-1000.000,0.000
1606137929.274,-331.055,-39.062,-46.387,-786.621,0.000
1606137929.278,174.805,-13.672,-20.020,371.582,0.000
1606137929.281,395.996,-0.488,-11.230,-936.035,0.000
1606137929.285,37.109,-9.766,-22.461,232.422,0.000
1606137929.289,-409.668,-51.758,-50.781,-929.688,0.000
1606137929.293,-377.441,-66.406,-45.410,-877.930,0.000
1606137929.297,129.395,-26.855,-7.812,258.301,0.000
1606137929.301,413.086,-4.883,-5.371,-918.945,0.000
1606137929.305,107.910,-20.996,-29.785,394.043,0.000
1606137929.309,-358.398,-43.945,-44.434,-801.270,0.000
1606137929.313,-395.996,-46.875,-35.156,-965.332,0.000
1606137929.317,67.383,-29.785,-16.113,115.234,0.000
1606137929.321,403.809,-14.160,-7.812,-928.711,0.000
1606137929.324,179.199,-20.020,-17.090,555.176,0.000
1606137929.328,-317.383,-52.246,-40.527,-646.484,0.000
1606137929.332,-437.988,-65.918,-47.852,-1000.000,0.000
1606137929.336,0.977,-34.180,-22.949,-31.738,0.000
1606137929.340,380.371,-13.184,-1.465,-974.121,0.000
1606137929.344,228.027,-11.719,-6.836,681.152,0.000
1606137929.348,-268.555,-34.668,-41.016,-496.094,0.000
1606137929.352,-454.590,-56.152,-48.828,-1000.000,0.000
1606137929.356,-59.570,-29.297,-25.391,-199.219,0.000
1606137929.360,368.164,5.859,-6.836,944.336,0.000
1606137929.363,288.086,4.883,-10.742,786.621,0.000
1606137929.367,-211.426,-27.832,-37.598,-369.141,0.000
1606137929.371,-467.285,-45.898,-50.293,-1000.000,0.000
1606137929.375,-135.742,-22.461,-42.480,-383.789,0.000
1606137929.379,327.637,3.906,-16.602,815.918,0.000
1606137929.383,328.125,-2.930,-7.324,882.812,0.000
1606137929.387,-159.668,-38.086,-36.621,-242.188,0.000
1606137929.391,-465.820,-74.707,-47.363,-1000.000,0.000
1606137929.395,-198.242,-51.758,-39.062,-546.875,0.000
1606137929.399,276.855,-5.371,-23.438,658.691,0.000
1606137929.403,360.352,-2.441,-17.090,959.473,0.000
1606137929.406,-97.656,-29.297,-45.898,-109.863,0.000
1606137929.410,-465.332,-48.828,-59.082,-1000.000,0.000
1606137929.414,-262.207,-29.785,-33.203,-681.152,0.000
1606137929.418,239.746,-6.836,-9.277,504.883,0.000
1606137929.422,390.137,-11.719,-8.301,-975.586,0.000
1606137929.426,-22.461,-17.578,-21.973,67.871,0.000
1606137929.430,-432.617,-66.406,-39.062,-1000.000,0.000
1606137929.434,-318.359,-85.938,-49.805,-795.898,0.000
1606137929.438,186.523,-22.461,-37.598,365.234,0.000
1606137929.442,407.715,-0.488,-25.879,-934.570,0.000
1606137929.446,50.293,-18.555,-32.715,253.418,0.000
1606137929.449,-395.996,-46.875,-43.457,-913.574,0.000
1606137929.453,-366.699,-46.387,-40.039,-880.859,0.000
1606137929.457,128.906,-16.602,-17.090,254.883,0.000
1606137929.461,416.504,0.977,-3.906,-919.922,0.000
1606137929.465,118.652,-6.836,-19.531,432.129,0.000
1606137929.469,-356.934,-52.246,-37.598,-770.996,0.000
1606137929.473,-401.855,-64.941,-35.156,-965.332,0.000
1606137929.477,68.848,-24.414,-25.879,122.559,0.000
1606137929.481,409.180,-4.883,-20.996,-933.105,0.000
1606137929.485,186.523,-12.207,-21.484,578.613,0.000
1606137929.488,-310.547,-48.828,-41.504,-612.305,0.000
1606137929.492,-439.453,-65.918,-53.223,-1000.000,0.000
1606137929.496,-10.742,-34.668,-25.879,-38.574,0.000
1606137929.500,386.719,-4.883,-3.418,-977.539,0.000
1606137929.504,242.676,-8.789,-11.719,696.777,0.000
1606137929.508,-259.277,-33.203,-32.715,-474.121,0.000
1606137929.512,-455.078,-46.387,-43.457,-1000.000,0.000
1606137929.516,-79.102,-24.902,-25.391,-218.750,0.000
1606137929.520,356.445,-2.930,-2.441,936.035,0.000
1606137929.524,292.480,-8.301,-13.184,794.922,0.000
1606137929.528,-211.914,-39.551,-40.039,-360.352,0.000
1606137929.531,-478.516,-87.891,-53.223,-1000.000,0.000
1606137929.535,-143.066,-59.082,-34.180,-407.227,0.000
1606137929.539,330.078,-4.883,-4.883,797.852,0.000
1606137929.543,332.031,-9.277,-9.766,885.742,0.000
1606137929.547,-150.391,-25.879,-30.273,-235.840,0.000
1606137929.551,-457.031,-43.945,-43.945,-1000.000,0.000
1606137929.555,-198.730,-29.297,-37.598,-558.105,0.000
1606137929.559,289.551,8.301,-9.277,648.438,0.000
1606137929.563,382.812,10.254,-3.906,975.098,0.000
1606137929.567,-75.195,-20.020,-29.297,-78.125,0.000
1606137929.571,-450.195,-67.383,-44.434,-1000.000,0.000
1606137929.574,-264.648,-62.500,-31.738,-692.871,0.000
1606137929.578,232.422,-13.672,-6.836,488.281,0.000
1606137929.582,396.484,3.906,0.977,-965.820,0.000
1606137929.586,-10.254,-18.066,-17.578,91.797,0.000
1606137929.590,-431.152,-47.852,-34.180,-1000.000,0.000
1606137929.594,-320.801,-35.645,-30.273,-792.969,0.000
1606137929.598,187.012,0.000,-11.719,365.723,0.000
1606137929.602,407.227,6.836,-2.930,-929.199,0.000
1606137929.606,34.180,-22.461,-27.832,254.883,0.000
1606137929.610,-419.434,-52.246,-53.711,-923.828,0.000
1606137929.613,-378.418,-49.805,-45.410,-887.207,0.000
1606137929.617,120.605,-23.926,-16.113,239.258,0.000
1606137929.621,408.691,-10.742,-9.277,-923.340,0.000
1606137929.625,116.699,-17.578,-18.066,440.430,0.000
1606137929.629,-356.934,-66.895,-41.504,-758.789,0.000
1606137929.633,-413.574,-86.914,-55.664,-976.562,0.000
1606137929.637,62.500,-28.320,-25.879,103.516,0.000
1606137929.641,408.691,1.465,-10.254,-933.105,0.000
1606137929.645,186.523,-12.207,-26.855,582.031,0.000
1606137929.649,-306.641,-37.109,-44.922,-609.863,0.000
1606137929.653,-441.406,-44.434,-45.410,-1000.000,0.000
1606137929.656,-3.906,-21.484,-24.902,-60.547,0.000
1606137929.660,390.625,-7.324,-10.742,-983.887,0.000
1606137929.664,238.281,-11.230,-19.043,704.102,0.000
1606137929.668,-265.137,-46.875,-32.715,-465.820,0.000
1606137929.672,-462.891,-79.102,-38.574,-1000.000,0.000
1606137929.676,-83.984,-35.645,-22.461,-240.723,0.000
1606137929.680,351.562,2.930,-0.977,919.434,0.000
1606137929.684,293.457,-7.812,-9.277,809.570,0.000
1606137929.688,-205.078,-40.527,-38.086,-341.797,0.000
1606137929.692,-465.332,-54.199,-43.457,-1000.000,0.000
1606137929.696,-138.672,-30.762,-25.391,-414.551,0.000
1606137929.699,326.660,-9.766,-9.277,785.645,0.000
1606137929.703,345.215,-9.766,-7.812,911.133,0.000
1606137929.707,-129.883,-33.691,-26.855,-191.895,0.000
1606137929.711,-460.449,-67.871,-45.410,-1000.000,0.000
1606137929.715,-217.285,-52.734,-37.109,-577.637,0.000
1606137929.719,280.273,-9.766,-15.137,629.395,0.000
1606137929.723,376.953,-0.488,-13.672,974.609,0.000
1606137929.727,-72.266,-23.438,-22.949,-68.359,0.000
1606137929.731,-446.289,-62.012,-45.898,-1000.000,0.000
1606137929.735,-273.926,-54.199,-49.316,-702.637,0.000
1606137929.738,227.051,-16.113,-15.625,479.004,0.000
1606137929.742,387.207,-1.465,-6.836,-962.891,0.000
1606137929.746,-16.113,-12.695,-28.320,106.934,0.000
1606137929.750,-427.246,-38.574,-48.828,-998.535,0.000
1606137929.754,-332.031,-30.273,-44.434,-822.266,0.000
1606137929.758,193.848,0.000,-16.113,390.137,0.000
1606137929.762,378.418,3.906,-8.789,966.309,0.000
1606137929.766,-7.812,-19.043,-30.273,79.590,0.000
1606137929.770,-390.137,-51.758,-45.410,-877.930,0.000
1606137929.774,-378.906,-52.734,-37.109,-902.832,0.000
1606137929.778,104.492,-17.090,-10.742,203.613,0.000
1606137929.781,408.203,-1.953,-2.441,-919.434,0.000
1606137929.785,129.395,-12.695,-19.043,452.148,0.000
1606137929.789,-349.609,-35.156,-45.898,-750.488,0.000
1606137929.793,-414.551,-44.434,-48.340,-987.305,0.000
1606137929.797,43.457,-20.996,-20.996,79.102,0.000
1606137929.801,391.602,-0.977,-14.160,-936.523,0.000
1606137929.805,182.129,-8.301,-31.250,601.562,0.000
1606137929.809,-312.500,-48.828,-48.828,-593.262,0.000
1606137929.813,-449.219,-87.891,-52.246,-1000.000,0.000
1606137929.817,-17.090,-41.504,-27.344,-66.895,0.000
1606137929.821,385.254,-1.465,-6.348,-988.281,0.000
1606137929.824,254.883,-11.230,-14.648,722.168,0.000
1606137929.828,-245.117,-36.133,-36.133,-445.312,0.000
1606137929.832,-444.824,-52.246,-36.133,-1000.000,0.000
1606137929.836,-64.453,-34.668,-33.691,-262.695,0.000
1606137929.840,372.559,-6.836,-28.809,903.320,0.000
1606137929.844,315.918,3.906,-15.137,823.730,0.000
1606137929.848,-188.477,-32.227,-30.762,-325.195,0.000
1606137929.852,-462.891,-62.500,-48.828,-1000.000,0.000
1606137929.856,-154.297,-25.391,-36.621,-436.523,0.000
1606137929.860,315.430,2.930,-6.836,769.043,0.000
1606137929.863,344.238,1.465,-1.953,912.598,0.000
1606137929.867,-135.254,-26.367,-18.066,-192.383,0.000
1606137929.871,-466.309,-49.805,-38.574,-1000.000,0.000
1606137929.875,-226.074,-33.203,-38.086,-587.402,0.000
1606137929.879,263.672,2.441,-4.395,615.234,0.000
1606137929.883,368.164,12.207,-4.883,985.840,0.000
1606137929.887,-73.730,-13.672,-26.855,-45.410,0.000
1606137929.891,-454.102,-47.363,-34.180,-1000.000,0.000
1606137929.895,-283.203,-39.062,-28.809,-709.473,0.000
1606137929.899,218.750,-5.371,-8.789,470.703,0.000
1606137929.903,386.719,-0.488,3.418,-963.867,0.000
1606137929.906,-13.184,-20.020,-24.902,112.305,0.000
1606137929.910,-436.523,-67.871,-54.199,-994.629,0.000
1606137929.914,-342.773,-75.684,-43.457,-825.195,0.000
1606137929.918,166.504,-20.020,-18.066,325.684,0.000
1606137929.922,402.344,-2.930,-9.766,-928.223,0.000
1606137929.926,51.270,-20.996,-35.645,285.156,0.000
1606137929.930,-405.273,-41.504,-58.105,-886.230,0.000
1606137929.934,-395.508,-32.715,-43.457,-918.457,0.000
1606137929.938,96.680,-11.719,-13.184,191.406,0.000
1606137929.942,405.762,-5.371,1.953,-920.898,0.000
1606137929.946,124.023,-15.137,-25.391,459.961,0.000
1606137929.949,-367.676,-66.406,-58.594,-742.188,0.000
1606137929.953,-425.781,-79.590,-54.199,-990.234,0.000
1606137929.957,46.875,-23.926,-25.391,72.266,0.000
1606137929.961,398.926,-2.441,-8.789,-939.453,0.000
1606137929.965,199.707,-17.090,-14.160,619.629,0.000
1606137929.969,-297.852,-38.574,-30.273,-572.266,0.000
1606137929.973,-446.289,-41.504,-39.551,-1000.000,0.000
1606137929.977,-22.949,-18.555,-15.137,-80.566,0.000
1606137929.981,379.883,-5.859,0.977,-995.605,0.000
1606137929.985,243.652,-19.043,-18.066,729.492,0.000
1606137929.988,-264.160,-47.852,-41.504,-433.594,0.000
1606137929.992,-477.539,-69.824,-48.340,-1000.000,0.000
1606137929.996,-104.980,-41.992,-28.809,-278.809,0.000
1606137930.000,341.797,-7.324,0.977,889.160,0.000
1606137930.004,302.246,-3.906,6.348,835.938,0.000
1606137930.008,-198.730,-29.785,-32.227,-306.152,0.000
1606137930.012,-480.957,-45.410,-50.781,-1000.000,0.000
1606137930.016,-167.969,-36.133,-32.227,-459.961,0.000
1606137930.020,312.988,-19.531,-19.531,754.883,0.000
1606137930.024,345.703,-3.906,-27.832,913.574,0.000
1606137930.028,-129.395,-23.926,-45.410,-194.336,0.000
1606137930.031,-458.496,-48.828,-48.828,-1000.000,0.000
1606137930.035,-223.633,-37.109,-37.598,-611.328,0.000
1606137930.039,270.020,-9.766,-6.836,587.891,0.000
1606137930.043,390.625,1.465,9.766,991.211,0.000
1606137930.047,-60.547,-26.367,-24.414,-40.527,0.000
1606137930.051,-456.055,-64.453,-51.270,-1000.000,0.000
1606137930.055,-287.109,-45.898,-35.645,-723.145,0.000
1606137930.059,216.797,-11.719,-4.883,449.707,0.000
1606137930.063,395.996,-11.230,-3.906,-955.078,0.000
1606137930.067,2.441,-33.203,-31.738,133.789,0.000
1606137930.071,-418.457,-51.270,-42.480,-989.258,0.000
1606137930.074,-337.402,-43.457,-31.738,-830.566,0.000
1606137930.078,168.457,-14.160,-8.301,318.848,0.000
1606137930.082,422.363,1.465,9.277,-926.758,0.000
1606137930.086,84.961,-9.277,-13.672,317.871,0.000
1606137930.090,-374.512,-66.406,-51.270,-864.258,0.000
1606137930.094,-382.812,-96.191,-54.199,-919.434,0.000
1606137930.098,94.238,-34.180,-22.461,193.359,0.000
1606137930.102,394.043,-2.930,-1.465,-922.363,0.000
1606137930.106,115.723,-30.273,-12.207,473.633,0.000
1606137930.110,-378.418,-62.500,-29.297,-728.027,0.000
1606137930.113,-457.520,-58.594,-20.508,-997.070,0.000
1606137930.117,11.719,-36.133,0.000,57.129,0.000
1606137930.121,378.418,-21.484,3.418,-944.824,0.000
1606137930.125,184.082,-16.113,4.883,628.418,0.000
1606137930.129,-314.941,-62.500,-12.207,-557.129,0.000
1606137930.133,-471.191,-88.379,-37.598,-1000.000,0.000
1606137930.137,-53.711,-40.527,-21.973,-126.953,0.000
1606137930.141,358.887,-19.531,4.395,987.305,0.000
1606137930.145,248.047,-27.344,1.953,732.910,0.000
1606137930.149,-249.512,-51.758,-25.879,-433.105,0.000
1606137930.153,-468.262,-65.430,-37.598,-1000.000,0.000
1606137930.156,-104.004,-38.086,-19.043,-301.270,0.000
1606137930.160,348.145,-8.789,1.465,879.395,0.000
1606137930.164,315.430,-7.812,2.441,840.820,0.000
1606137930.168,-179.199,-42.969,-27.832,-301.758,0.000
1606137930.172,-459.961,-61.523,-48.828,-1000.000,0.000
1606137930.176,-157.227,-32.227,-34.668,-449.707,0.000
1606137930.180,312.500,-5.371,-6.836,752.930,0.000
1606137930.184,349.121,-6.836,-7.324,918.945,0.000
1606137930.188,-119.141,-40.527,-26.855,-176.758,0.000
1606137930.192,-453.125,-88.867,-37.598,-1000.000,0.000
1606137930.196,-226.074,-71.289,-21.484,-604.004,0.000
1606137930.199,267.578,-23.926,0.000,593.262,0.000
1606137930.203,386.230,-17.578,-1.465,997.559,0.000
1606137930.207,-46.875,-31.738,-22.949,-8.789,0.000
1606137930.211,-428.711,-58.105,-44.434,-1000.000,0.000
1606137930.215,-270.996,-40.527,-33.203,-729.004,0.000
1606137930.219,229.492,-1.465,-12.207,446.777,0.000
1606137930.223,420.410,-1.953,-2.441,-953.613,0.000
1606137930.227,36.133,-26.367,-22.461,158.203,0.000
1606137930.231,-402.344,-70.312,-57.129,-974.609,0.000
1606137930.235,-327.637,-60.547,-50.293,-830.078,0.000
1606137930.238,175.781,-4.883,-17.090,322.266,0.000
1606137930.242,421.387,-0.488,-9.277,-925.781,0.000
1606137930.246,89.844,-26.855,-26.367,335.449,0.000
1606137930.250,-376.953,-51.758,-47.852,-851.074,0.000
1606137930.254,-385.254,-43.945,-41.992,-923.340,0.000
1606137930.258,99.121,-16.113,-12.695,190.918,0.000
1606137930.262,402.832,-3.418,-10.742,-924.805,0.000
1606137930.266,139.160,-12.207,-31.250,493.652,0.000
1606137930.270,-331.055,-49.805,-47.363,-699.219,0.000
1606137930.274,-418.457,-74.707,-42.969,-1000.000,0.000
1606137930.278,25.879,-36.133,-23.926,26.855,0.000
1606137930.281,394.531,1.465,-9.766,-953.125,0.000
1606137930.285,208.008,-7.324,-19.043,634.766,0.000
1606137930.289,-288.086,-37.109,-39.551,-552.246,0.000
1606137930.293,-442.871,-50.781,-44.434,-1000.000,0.000
1606137930.297,-28.320,-20.996,-17.578,-111.328,0.000
1606137930.301,385.742,7.324,6.836,989.258,0.000
1606137930.305,264.160,-12.695,-9.277,747.559,0.000
1606137930.309,-238.281,-41.992,-41.992,-415.039,0.000
1606137930.313,-453.125,-45.898,-43.457,-1000.000,0.000
1606137930.317,-87.402,-20.020,-14.648,-286.133,0.000
1606137930.321,353.027,0.000,-4.395,879.395,0.000
1606137930.324,312.012,-6.348,-16.113,843.262,0.000
1606137930.328,-184.082,-28.809,-34.180,-292.480,0.000
1606137930.332,-477.539,-48.340,-51.758,-1000.000,0.000
1606137930.336,-177.246,-28.809,-43.457,-479.980,0.000
1606137930.340,300.293,8.789,-17.090,729.980,0.000
1606137930.344,337.891,3.418,-18.555,923.828,0.000
1606137930.348,-130.859,-34.180,-43.457,-170.410,0.000
1606137930.352,-468.750,-54.199,-47.363,-1000.000,0.000
1606137930.356,-242.676,-35.156,-39.062,-629.883,0.000
1606137930.360,258.789,-6.348,-17.090,563.477,0.000
1606137930.363,385.742,-4.883,-6.348,-994.629,0.000
1606137930.367,-36.133,-25.391,-31.250,9.277,0.000
1606137930.371,-419.922,-66.406,-60.547,-1000.000,0.000
1606137930.375,-280.273,-61.035,-47.852,-751.953,0.000
1606137930.379,215.332,-7.324,-21.484,421.875,0.000
1606137930.383,407.715,-0.488,-25.391,-954.590,0.000
1606137930.387,20.508,-12.695,-45.410,150.391,0.000
1606137930.391,-415.039,-21.484,-73.730,-971.191,0.000
1606137930.395,-345.215,-17.090,-74.219,-858.887,0.000
1606137930.399,165.527,10.254,-41.504,281.738,0.000
1606137930.403,425.293,27.344,-28.809,-928.711,0.000
1606137930.406,88.867,7.812,-49.316,323.242,0.000
1606137930.410,-383.789,-41.504,-68.359,-852.051,0.000
1606137930.414,-384.277,-40.039,-56.641,-928.223,0.000
1606137930.418,109.375,2.930,-36.133,173.340,0.000
1606137930.422,425.781,15.625,-21.973,-924.316,0.000
1606137930.426,176.270,2.930,-30.273,507.812,0.000
1606137930.430,-312.500,-25.391,-64.941,-695.312,0.000
1606137930.434,-405.273,-35.645,-70.312,-1000.000,0.000
1606137930.438,42.480,-12.695,-44.434,25.879,0.000
1606137930.442,407.227,15.137,-24.414,-952.148,0.000
1606137930.446,228.027,7.324,-27.344,641.113,0.000
1606137930.449,-265.625,-30.273,-45.898,-534.180,0.000
1606137930.453,-435.059,-45.410,-52.734,-1000.000,0.000
1606137930.457,-41.992,-20.508,-40.039,-156.738,0.000
1606137930.461,372.070,2.441,-23.438,973.633,0.000
1606137930.465,264.160,-7.812,-23.926,744.141,0.000
1606137930.469,-244.629,-38.574,-49.805,-425.293,0.000
1606137930.473,-475.098,-49.805,-62.500,-1000.000,0.000
1606137930.477,-114.746,-23.438,-38.574,-335.938,0.000
1606137930.481,337.891,2.930,-23.926,849.609,0.000
1606137930.485,312.988,-0.977,-29.785,853.027,0.000
1606137930.488,-173.828,-33.203,-39.062,-280.273,0.000
1606137930.492,-462.891,-55.664,-52.246,-1000.000,0.000
1606137930.496,-176.270,-38.086,-46.875,-492.188,0.000
1606137930.500,306.152,-6.348,-19.043,720.703,0.000
1606137930.504,369.629,-3.906,-14.648,948.242,0.000
1606137930.508,-98.145,-36.621,-37.109,-128.906,0.000
1606137930.512,-450.684,-55.664,-51.758,-1000.000,0.000
1606137930.516,-227.539,-41.504,-39.551,-626.465,0.000
1606137930.520,270.020,-13.184,-17.578,570.312,0.000
1606137930.524,398.438,2.441,-12.207,-989.746,0.000
1606137930.528,-34.180,-14.648,-36.621,18.555,0.000
1606137930.531,-432.129,-36.621,-62.012,-1000.000,0.000
1606137930.535,-289.062,-31.250,-58.594,-748.047,0.000
1606137930.539,210.449,-9.766,-38.086,416.016,0.000
1606137930.543,418.457,3.418,-30.762,-941.406,0.000
1606137930.547,30.273,-17.090,-41.504,175.293,0.000
1606137930.551,-408.691,-44.922,-60.059,-984.863,0.000
1606137930.555,-313.965,-34.180,-51.270,-841.797,0.000
1606137930.559,188.477,-0.977,-23.438,303.711,0.000
1606137930.563,434.082,4.395,-19.531,-921.387,0.000
1606137930.567,122.070,-12.207,-32.227,377.441,0.000
1606137930.571,-343.262,-38.086,-51.758,-820.801,0.000
1606137930.574,-375.977,-43.457,-55.176,-940.918,0.000
1606137930.578,107.910,-14.160,-36.621,164.062,0.000
1606137930.582,432.129,2.441,-25.391,-925.293,0.000
1606137930.586,183.105,-17.578,-32.227,535.156,0.000
1606137930.590,-303.711,-36.621,-44.922,-667.480,0.000
1606137930.594,-401.367,-35.645,-46.387,-1000.000,0.000
1606137930.598,45.410,-11.719,-24.902,38.086,0.000
1606137930.602,412.598,1.953,-10.742,-954.590,0.000
1606137930.606,231.934,-21.484,-13.672,665.039,0.000
1606137930.610,-265.625,-45.410,-31.738,-514.160,0.000
1606137930.613,-428.711,-41.016,-41.016,-1000.000,0.000
1606137930.617,-32.227,-12.695,-21.484,-154.297,0.000
1606137930.621,375.488,6.348,-14.160,966.309,0.000
1606137930.625,277.832,-2.930,-22.461,766.113,0.000
1606137930.629,-222.168,-29.785,-38.574,-394.531,0.000
1606137930.633,-458.008,-44.434,-52.734,-1000.000,0.000
1606137930.637,-110.840,-25.391,-36.133,-341.309,0.000
1606137930.641,346.680,1.465,-6.836,844.238,0.000
1606137930.645,331.543,-2.930,-13.184,869.141,0.000
1606137930.649,-162.598,-40.039,-55.176,-259.277,0.000
1606137930.653,-468.262,-65.918,-70.801,-1000.000,0.000
1606137930.656,-191.406,-35.156,-39.062,-512.695,0.000
1606137930.660,295.898,-2.930,-10.742,702.148,0.000
1606137930.664,354.004,-9.277,-22.949,938.477,0.000
1606137930.668,-119.629,-30.762,-49.805,-148.926,0.000
1606137930.672,-463.867,-41.504,-55.664,-1000.000,0.000
1606137930.676,-251.465,-30.762,-45.898,-654.297,0.000
1606137930.680,241.211,-5.371,-25.391,541.504,0.000
1606137930.684,375.000,3.906,-22.461,-994.141,0.000
1606137930.688,-55.176,-24.902,-47.852,2.930,0.000
1606137930.692,-458.008,-57.617,-69.824,-1000.000,0.000
1606137930.696,-327.148,-50.293,-55.664,-774.902,0.000
1606137930.699,172.363,-23.438,-25.879,389.648,0.000
1606137930.703,378.906,-17.090,-24.902,-944.824,0.000
1606137930.707,12.695,-39.551,-34.180,181.641,0.000
1606137930.711,-426.270,-60.547,-39.551,-955.078,0.000
1606137930.715,-370.605,-51.270,-39.062,-864.258,0.000
1606137930.719,128.418,-26.367,-24.414,270.508,0.000
1606137930.723,396.484,-18.066,-12.207,-919.922,0.000
1606137930.727,94.727,-37.598,-18.066,376.465,0.000
1606137930.731,-373.047,-54.199,-41.016,-820.312,0.000
1606137930.735,-409.180,-50.781,-45.898,-946.777,0.000
1606137930.738,76.660,-21.484,-19.043,151.855,0.000
1606137930.742,402.344,-8.301,-5.859,-925.293,0.000
1606137930.746,155.273,-28.809,-17.090,531.738,0.000
1606137930.750,-333.496,-58.594,-35.645,-669.434,0.000
1606137930.754,-437.500,-60.059,-29.785,-1000.000,0.000
1606137930.758,12.695,-20.508,-4.395,4.883,0.000
1606137930.762,387.207,-2.930,-3.906,-958.984,0.000
1606137930.766,210.449,-14.648,-19.043,660.156,0.000
1606137930.770,-288.574,-39.062,-37.598,-517.090,0.000
1606137930.774,-458.008,-54.688,-48.340,-1000.000,0.000
1606137930.778,-56.641,-33.691,-31.250,-181.152,0.000
1606137930.781,367.676,-6.836,-8.789,956.055,0.000
1606137930.785,278.320,-8.789,-13.184,772.461,0.000
1606137930.789,-232.910,-50.781,-43.945,-388.184,0.000
1606137930.793,-472.168,-69.824,-63.965,-1000.000,0.000
1606137930.797,-118.652,-35.645,-33.691,-352.539,0.000
1606137930.801,339.844,-6.836,-20.020,840.820,0.000
1606137930.805,328.125,4.395,-29.297,867.188,0.000
1606137930.809,-157.715,-24.414,-35.645,-259.766,0.000
1606137930.813,-458.984,-42.480,-50.293,-1000.000,0.000
1606137930.817,-188.965,-30.273,-50.293,-517.578,0.000
1606137930.821,287.109,-14.160,-23.438,693.359,0.000
1606137930.824,357.422,1.953,-18.555,945.312,0.000
1606137930.828,-106.934,-32.227,-44.922,-133.301,0.000
1606137930.832,-466.797,-66.406,-61.523,-1000.000,0.000
1606137930.836,-258.789,-42.480,-45.898,-669.434,0.000
1606137930.840,238.281,-16.602,-23.438,519.531,0.000
1606137930.844,376.465,-3.418,-20.020,-985.352,0.000
1606137930.848,-46.387,-29.785,-36.133,20.996,0.000
1606137930.852,-444.336,-68.848,-51.758,-1000.000,0.000
1606137930.856,-312.500,-47.852,-43.945,-781.250,0.000
1606137930.860,193.848,-10.742,-16.113,380.371,0.000
1606137930.863,402.344,-2.930,-5.859,-943.359,0.000
1606137930.867,26.367,-28.809,-27.344,193.848,0.000
1606137930.871,-410.156,-48.340,-39.551,-946.289,0.000
1606137930.875,-364.746,-41.504,-32.227,-871.582,0.000
1606137930.879,130.371,-27.344,-9.766,260.254,0.000
1606137930.883,401.367,-10.742,2.441,-921.387,0.000
1606137930.887,85.938,-24.414,-14.160,381.836,0.000
1606137930.891,-391.113,-63.965,-37.598,-810.547,0.000
1606137930.895,-429.199,-59.082,-44.922,-962.402,0.000
1606137930.899,41.504,-24.902,-27.832,121.582,0.000
1606137930.903,380.371,-2.930,-10.742,-928.223,0.000
1606137930.906,144.531,-18.066,-21.484,534.180,0.000
1606137930.910,-350.586,-47.363,-40.039,-665.039,0.000
1606137930.914,-451.660,-46.875,-36.133,-1000.000,0.000
1606137930.918,-3.906,-32.227,-25.879,-12.207,0.000
1606137930.922,380.859,-11.719,-5.371,-969.238,0.000
1606137930.926,225.098,-6.348,-6.348,682.617,0.000
1606137930.930,-281.250,-47.852,-41.016,-493.164,0.000
1606137930.934,-462.891,-72.754,-47.852,-1000.000,0.000
1606137930.938,-54.199,-34.668,-12.207,-184.082,0.000
1606137930.942,368.652,4.395,8.789,954.102,0.000
1606137930.946,278.809,1.465,-3.906,785.645,0.000
1606137930.949,-225.098,-40.039,-26.367,-370.605,0.000
1606137930.953,-471.191,-60.547,-41.504,-1000.000,0.000
1606137930.957,-120.605,-30.273,-20.508,-361.816,0.000
1606137930.961,336.914,-0.977,2.441,835.938,0.000
1606137930.965,321.289,-10.254,-4.883,872.559,0.000
1606137930.969,-166.016,-38.086,-21.484,-251.465,0.000
1606137930.973,-470.703,-56.152,-36.133,-1000.000,0.000
1606137930.977,-199.707,-39.551,-25.879,-539.062,0.000
1606137930.981,281.738,-13.184,-0.488,678.711,0.000
1606137930.985,351.074,-6.836,0.977,952.637,0.000
1606137930.988,-104.004,-27.344,-26.367,-124.023,0.000
1606137930.992,-458.984,-49.805,-49.316,-1000.000,0.000
1606137930.996,-266.602,-36.621,-37.598,-675.781,0.000
1606137931.000,226.562,-7.812,-16.113,509.277,0.000
1606137931.004,374.512,-0.977,-11.230,-975.098,0.000
1606137931.008,-42.480,-25.391,-27.344,48.828,0.000
1606137931.012,-455.566,-58.105,-46.387,-1000.000,0.000
1606137931.016,-338.867,-55.176,-38.574,-780.762,0.000
1606137931.020,166.504,-23.438,-20.020,384.766,0.000
1606137931.024,384.766,-13.184,-21.973,-941.895,0.000
1606137931.028,17.090,-29.785,-37.598,202.148,0.000
1606137931.031,-425.293,-66.895,-51.270,-942.383,0.000
1606137931.035,-372.559,-62.988,-51.270,-876.953,0.000
1606137931.039,127.930,-19.531,-30.273,252.930,0.000
1606137931.043,404.297,-6.836,-12.695,-921.875,0.000
1606137931.047,103.027,-20.508,-26.367,392.090,0.000
1606137931.051,-362.305,-39.551,-40.527,-800.781,0.000
1606137931.055,-397.461,-42.969,-33.691,-960.449,0.000
1606137931.059,75.684,-16.113,-17.578,125.000,0.000
1606137931.063,411.133,-1.953,-9.766,-929.199,0.000
1606137931.067,177.246,-16.602,-19.531,553.223,0.000
1606137931.071,-324.707,-49.805,-44.922,-642.090,0.000
1606137931.074,-447.266,-67.871,-61.523,-1000.000,0.000
1606137931.078,-6.348,-40.039,-38.086,-43.945,0.000
1606137931.082,378.418,-9.277,-17.090,-972.656,0.000
1606137931.086,229.004,-10.254,-22.949,678.223,0.000
1606137931.090,-264.648,-42.480,-40.039,-500.977,0.000
1606137931.094,-450.684,-56.641,-41.016,-1000.000,0.000
1606137931.098,-55.176,-30.762,-15.137,-199.707,0.000
1606137931.102,375.488,-14.160,-7.324,944.824,0.000
1606137931.106,292.480,-19.043,-18.066,788.086,0.000
1606137931.110,-213.867,-41.992,-40.039,-368.652,0.000
1606137931.113,-460.938,-57.129,-60.547,-1000.000,0.000
1606137931.117,-131.836,-38.086,-44.434,-374.512,0.000
1606137931.121,325.684,-9.766,-19.043,818.359,0.000
1606137931.125,335.449,-7.324,-21.973,880.371,0.000
1606137931.129,-156.738,-44.922,-40.527,-244.141,0.000
1606137931.133,-470.703,-69.336,-51.758,-1000.000,0.000
1606137931.137,-205.078,-46.875,-33.691,-546.875,0.000
1606137931.141,279.297,-15.137,-9.766,661.133,0.000
1606137931.145,365.723,-3.418,-4.883,965.332,0.000
1606137931.149,-96.680,-25.879,-33.203,-102.051,0.000
1606137931.153,-467.773,-53.223,-58.105,-1000.000,0.000
1606137931.156,-273.438,-44.922,-47.852,-677.246,0.000
1606137931.160,231.934,-15.625,-23.438,513.184,0.000
1606137931.164,378.418,-5.859,-14.648,-978.027,0.000
1606137931.168,-40.527,-19.531,-41.504,55.176,0.000
1606137931.172,-444.336,-39.551,-54.688,-1000.000,0.000
1606137931.176,-330.078,-48.340,-37.598,-786.133,0.000
1606137931.180,181.641,-19.531,-17.578,375.977,0.000
1606137931.184,410.645,-4.883,-6.836,-934.082,0.000
1606137931.188,43.457,-23.438,-25.879,248.535,0.000
1606137931.192,-412.598,-43.457,-58.105,-919.434,0.000
1606137931.196,-375.488,-45.898,-55.664,-878.418,0.000
1606137931.199,123.047,-24.902,-27.344,259.277,0.000
1606137931.203,406.738,-2.441,-18.555,-918.457,0.000
1606137931.207,114.258,-19.531,-33.691,431.641,0.000
1606137931.211,-370.117,-51.758,-46.875,-772.949,0.000
1606137931.215,-417.480,-59.082,-41.504,-965.332,0.000
1606137931.219,70.312,-31.738,-23.926,122.559,0.000
1606137931.223,403.809,-7.324,-13.672,-931.152,0.000
1606137931.227,169.922,-30.273,-18.555,569.336,0.000
1606137931.231,-322.754,-54.199,-32.715,-627.930,0.000
1606137931.235,-446.289,-46.387,-47.363,-1000.000,0.000
1606137931.238,-5.859,-16.113,-29.785,-30.273,0.000
1606137931.242,389.160,-0.977,-11.230,-973.145,0.000
1606137931.246,232.910,-21.973,-22.949,691.406,0.000
1606137931.250,-270.996,-55.176,-37.598,-483.887,0.000
1606137931.254,-459.473,-62.500,-35.645,-1000.000,0.000
1606137931.258,-74.219,-37.598,-12.695,-204.102,0.000
1606137931.262,354.492,-15.625,1.465,940.430,0.000
1606137931.266,280.273,-13.184,-14.648,791.016,0.000
1606137931.270,-223.633,-51.758,-41.016,-364.258,0.000
1606137931.274,-472.656,-71.289,-51.758,-1000.000,0.000
1606137931.278,-137.695,-40.527,-34.668,-395.508,0.000
1606137931.281,333.008,-15.137,-17.578,807.617,0.000
1606137931.285,345.703,-11.719,-14.160,890.625,0.000
1606137931.289,-155.273,-43.457,-35.156,-245.117,0.000
1606137931.293,-457.031,-61.523,-52.734,-1000.000,0.000
1606137931.297,-181.152,-43.457,-34.668,-503.418,0.000
1606137931.301,284.668,-9.766,-16.113,656.738,0.000
1606137931.305,367.676,1.953,-14.648,965.332,0.000
1606137931.309,-96.680,-40.039,-30.762,-102.539,0.000
1606137931.313,-469.727,-92.773,-53.711,-1000.000,0.000
1606137931.317,-276.855,-66.895,-43.945,-687.012,0.000
1606137931.321,225.098,-11.230,-10.742,496.582,0.000
1606137931.324,382.324,0.977,-5.371,-978.027,0.000
1606137931.328,-34.180,-28.320,-35.645,52.734,0.000
1606137931.332,-442.383,-50.781,-52.246,-1000.000,0.000
1606137931.336,-320.801,-39.551,-42.480,-796.387,0.000
1606137931.340,182.617,-15.137,-18.066,360.352,0.000
1606137931.344,405.273,1.953,-3.906,-933.105,0.000
1606137931.348,53.223,-22.461,-22.949,257.812,0.000
1606137931.352,-390.625,-57.129,-52.734,-907.715,0.000
1606137931.356,-364.258,-50.781,-56.152,-895.508,0.000
1606137931.360,125.977,-20.508,-28.320,231.445,0.000
1606137931.363,414.551,3.906,-14.648,-920.898,0.000
1606137931.367,125.000,-14.160,-29.297,428.711,0.000
1606137931.371,-349.609,-51.758,-48.340,-772.461,0.000
1606137931.375,-397.949,-53.711,-48.340,-967.773,0.000
1606137931.379,73.242,-22.949,-15.137,117.676,0.000
1606137931.383,410.156,-3.906,-0.977,-932.129,0.000
1606137931.387,183.594,-17.578,-22.461,579.590,0.000
1606137931.391,-308.594,-41.992,-39.551,-615.234,0.000
1606137931.395,-426.758,-43.457,-43.457,-1000.000,0.000
1606137931.399,6.348,-22.949,-24.414,-31.738,0.000
1606137931.403,391.113,-4.883,-0.488,-977.051,0.000
1606137931.406,241.699,-16.113,-0.977,697.754,0.000
1606137931.410,-259.277,-62.988,-33.691,-472.656,0.000
1606137931.414,-451.660,-77.148,-56.641,-1000.000,0.000
1606137931.418,-66.406,-32.715,-41.992,-220.703,0.000
1606137931.422,363.770,2.930,-4.883,926.758,0.000
1606137931.426,293.945,-1.465,2.930,803.711,0.000
1606137931.430,-213.867,-30.273,-33.691,-346.191,0.000
1606137931.434,-481.445,-53.711,-52.246,-1000.000,0.000
1606137931.438,-156.738,-44.922,-41.016,-411.133,0.000
1606137931.442,310.547,-19.531,-15.137,797.852,0.000
1606137931.446,324.707,-16.602,-9.766,890.137,0.000
1606137931.449,-160.156,-39.551,-32.715,-230.469,0.000
1606137931.453,-476.074,-53.223,-46.875,-1000.000,0.000
1606137931.457,-208.496,-27.344,-30.762,-567.871,0.000
1606137931.461,283.203,1.465,-6.348,641.113,0.000
1606137931.465,376.465,5.371,1.953,974.609,0.000
1606137931.469,-77.148,-22.461,-19.043,-76.660,0.000
1606137931.473,-440.918,-41.016,-43.457,-1000.000,0.000
1606137931.477,-254.883,-24.902,-40.527,-678.223,0.000
1606137931.481,237.305,-1.465,-15.625,501.465,0.000
1606137931.485,400.879,9.277,0.977,-964.355,0.000
1606137931.488,-7.324,-18.555,-22.461,105.957,0.000
1606137931.492,-435.547,-59.082,-47.852,-1000.000,0.000
1606137931.496,-336.914,-49.316,-43.457,-801.270,0.000
1606137931.500,166.504,-11.230,-13.184,358.398,0.000
1606137931.504,393.555,6.836,-7.812,-934.082,0.000
1606137931.508,50.293,-16.602,-29.785,269.531,0.000
1606137931.512,-396.973,-48.340,-45.410,-903.320,0.000
1606137931.516,-368.164,-47.363,-42.969,-886.230,0.000
1606137931.520,138.184,-16.602,-19.043,248.535,0.000
1606137931.524,425.781,4.883,-2.441,-920.898,0.000
1606137931.528,125.977,-17.578,-19.531,438.477,0.000
1606137931.531,-355.957,-45.898,-47.852,-760.742,0.000
1606137931.535,-411.621,-55.176,-45.898,-974.121,0.000
1606137931.539,62.988,-27.832,-16.113,104.004,0.000
1606137931.543,404.297,5.371,-8.301,-935.059,0.000
1606137931.547,176.758,-11.230,-26.367,581.055,0.000
1606137931.551,-314.453,-58.105,-50.781,-608.887,0.000
1606137931.555,-442.871,-57.617,-52.734,-1000.000,0.000
1606137931.559,-6.348,-18.555,-26.367,-66.406,0.000
1606137931.563,389.648,-1.465,-13.672,-984.863,0.000
1606137931.567,246.094,-10.742,-10.254,706.543,0.000
1606137931.571,-263.672,-47.363,-32.715,-463.867,0.000
1606137931.574,-464.355,-61.523,-55.176,-1000.000,0.000
1606137931.578,-79.102,-34.180,-34.668,-248.535,0.000
1606137931.582,347.656,-11.230,-11.230,918.457,0.000
1606137931.586,288.086,-8.301,-10.742,810.059,0.000
1606137931.590,-208.984,-59.570,-37.598,-342.285,0.000
1606137931.594,-482.910,-98.633,-57.129,-1000.000,0.000
1606137931.598,-165.527,-48.828,-29.785,-428.223,0.000
1606137931.602,308.594,-0.977,0.977,784.668,0.000
1606137931.606,323.730,0.000,-10.742,890.137,0.000
1606137931.610,-162.109,-32.715,-35.156,-232.910,0.000
1606137931.613,-468.750,-44.434,-36.621,-1000.000,0.000
1606137931.617,-215.820,-27.344,-28.320,-580.566,0.000
1606137931.621,259.277,-11.719,-15.625,623.535,0.000
1606137931.625,355.957,-0.977,-7.324,979.004,0.000
1606137931.629,-89.355,-46.875,-32.227,-71.289,0.000
1606137931.633,-467.285,-85.938,-54.688,-1000.000,0.000
1606137931.637,-291.016,-49.316,-45.410,-704.102,0.000
1606137931.641,214.844,-16.113,-16.602,479.004,0.000
1606137931.645,386.719,-3.906,-6.836,-966.309,0.000
1606137931.649,-13.184,-22.461,-27.344,95.703,0.000
1606137931.653,-428.223,-43.945,-41.504,-1000.000,0.000
1606137931.656,-337.402,-38.086,-36.621,-803.223,0.000
1606137931.660,167.480,-8.789,-9.766,355.469,0.000
1606137931.664,406.250,2.930,-6.836,-929.688,0.000
1606137931.668,59.570,-21.973,-31.250,281.738,0.000
1606137931.672,-395.508,-48.828,-44.922,-895.020,0.000
1606137931.676,-364.258,-40.527,-46.875,-891.113,0.000
