timestamps,TP9,AF7,AF8,TP10,Right AUX
1606135074.555,0.000,0.000,0.000,0.000,0.000
1606135074.559,-0.488,0.000,-0.488,-1.465,0.000
1606135074.563,1.465,-0.977,-0.977,5.371,0.000
1606135074.567,-2.441,1.953,1.465,-4.883,0.000
1606135074.571,4.883,-12.207,-12.207,13.672,0.000
1606135074.575,47.363,-25.391,-34.668,180.176,0.000
1606135074.579,30.762,-20.020,-38.574,187.012,0.000
1606135074.583,-68.359,-29.785,-34.180,-103.516,0.000
1606135074.587,-110.840,-29.297,-39.062,-272.461,0.000
1606135074.591,-41.016,-19.043,-39.551,-106.445,0.000
1606135074.595,45.410,-19.531,-34.180,165.039,0.000
1606135074.598,41.992,-22.461,-38.086,189.941,0.000
1606135074.602,-56.641,-31.738,-34.668,-81.543,0.000
1606135074.606,-113.281,-34.668,-31.250,-273.438,0.000
1606135074.610,-41.016,-23.926,-26.367,-144.043,0.000
1606135074.614,47.363,-18.555,-19.043,132.324,0.000
1606135074.618,46.387,-22.461,-22.949,187.012,0.000
1606135074.622,-34.180,-36.133,-30.762,-64.941,0.000
1606135074.626,-99.121,-42.969,-30.273,-277.832,0.000
1606135074.630,-58.594,-38.574,-28.809,-192.871,0.000
1606135074.634,34.180,-33.203,-35.156,90.332,0.000
1606135074.638,47.852,-35.156,-36.133,185.547,0.000
1606135074.641,-33.691,-37.109,-33.691,-39.062,0.000
1606135074.645,-104.980,-36.621,-37.109,-274.902,0.000
1606135074.649,-80.078,-39.551,-30.273,-231.445,0.000
1606135074.653,14.648,-37.109,-26.367,56.641,0.000
1606135074.657,46.387,-29.297,-30.762,197.754,0.000
1606135074.661,-30.762,-34.180,-40.527,8.789,0.000
1606135074.665,-111.816,-42.969,-38.574,-250.977,0.000
1606135074.669,-95.703,-42.480,-28.809,-236.816,0.000
1606135074.673,0.977,-54.199,-28.320,74.219,0.000
1606135074.677,39.062,-61.523,-27.832,236.816,0.000
1606135074.680,-37.598,-43.457,-31.738,50.293,0.000
1606135074.684,-128.418,-39.551,-33.691,-224.609,0.000
1606135074.688,-126.465,-40.039,-32.227,-252.930,0.000
1606135074.692,-33.203,-38.086,-29.785,15.625,0.000
1606135074.696,25.391,-35.156,-23.926,208.496,0.000
1606135074.700,-21.973,-32.715,-18.066,95.703,0.000
1606135074.704,-111.816,-38.574,-23.926,-179.199,0.000
1606135074.708,-131.348,-45.898,-34.180,-263.184,0.000
1606135074.712,-32.715,-41.504,-32.715,-9.766,0.000
1606135074.716,55.176,-29.297,-36.133,217.773,0.000
1606135074.720,27.832,-29.297,-39.062,135.254,0.000
1606135074.723,-62.988,-35.156,-39.551,-157.715,0.000
1606135074.727,-79.590,-24.414,-35.645,-276.367,0.000
1606135074.731,6.836,-17.090,-29.297,-57.617,0.000
1606135074.735,80.078,-16.602,-24.414,192.871,0.000
1606135074.739,51.758,-18.066,-22.461,158.203,0.000
1606135074.743,-43.457,-16.602,-26.855,-130.859,0.000
1606135074.747,-79.590,-18.066,-33.691,-281.250,0.000
1606135074.751,-17.578,-22.949,-31.738,-100.098,0.000
1606135074.755,76.660,-18.066,-29.297,173.828,0.000
1606135074.759,67.871,-17.090,-28.320,182.129,0.000
1606135074.763,-48.828,-26.855,-27.344,-99.121,0.000
1606135074.766,-96.191,-27.344,-27.832,-264.160,0.000
1606135074.770,-39.062,-30.273,-20.020,-112.305,0.000
1606135074.774,39.062,-41.504,-21.484,155.273,0.000
1606135074.778,41.016,-31.738,-20.996,202.637,0.000
1606135074.782,-45.410,-28.320,-24.414,-65.918,0.000
1606135074.786,-103.516,-37.109,-30.762,-277.832,0.000
1606135074.790,-57.129,-33.691,-23.438,-153.809,0.000
1606135074.794,39.062,-30.273,-14.648,144.043,0.000
1606135074.798,56.641,-30.762,-19.531,228.516,0.000
1606135074.802,-34.180,-35.645,-26.855,-15.625,0.000
1606135074.805,-114.746,-43.457,-26.855,-251.465,0.000
1606135074.809,-96.191,-40.527,-24.414,-187.988,0.000
1606135074.813,-5.371,-37.598,-20.020,103.027,0.000
1606135074.817,19.531,-40.527,-20.996,218.750,0.000
1606135074.821,-63.965,-56.641,-34.180,1.465,0.000
1606135074.825,-140.137,-62.500,-42.480,-255.859,0.000
1606135074.829,-107.422,-44.434,-33.203,-224.609,0.000
1606135074.833,-9.277,-33.691,-28.320,61.035,0.000
1606135074.837,24.902,-36.133,-31.250,208.984,0.000
1606135074.841,-39.551,-39.062,-36.621,28.809,0.000
1606135074.845,-120.605,-36.621,-40.039,-241.699,0.000
1606135074.848,-108.887,-32.227,-34.180,-264.648,0.000
1606135074.852,-7.812,-26.367,-29.785,11.230,0.000
1606135074.856,40.527,-21.973,-27.832,193.848,0.000
1606135074.860,-19.043,-22.461,-35.645,49.805,0.000
1606135074.864,-102.051,-27.832,-39.551,-230.469,0.000
1606135074.868,-109.375,-29.785,-40.527,-298.828,0.000
1606135074.872,-25.391,-51.758,-44.434,-46.387,0.000
1606135074.876,34.668,-48.828,-39.062,170.410,0.000
1606135074.880,-8.301,-24.414,-32.715,77.148,0.000
1606135074.884,-100.098,-30.762,-40.039,-212.891,0.000
1606135074.888,-117.188,-34.180,-48.340,-312.988,0.000
1606135074.891,-25.391,-24.902,-39.062,-62.988,0.000
1606135074.895,44.922,-17.578,-30.273,191.406,0.000
1606135074.899,1.953,-22.949,-27.832,132.812,0.000
1606135074.903,-92.773,-31.250,-24.902,-147.949,0.000
1606135074.907,-120.117,-36.133,-26.367,-270.020,0.000
1606135074.911,-49.805,-38.574,-28.809,-74.707,0.000
1606135074.915,32.715,-31.738,-25.879,182.617,0.000
1606135074.919,21.484,-37.598,-19.531,178.223,0.000
1606135074.923,-74.219,-56.152,-25.391,-97.168,0.000
1606135074.927,-118.164,-49.805,-29.297,-264.160,0.000
1606135074.930,-58.105,-41.504,-18.555,-102.539,0.000
1606135074.934,21.973,-41.992,-19.043,163.086,0.000
1606135074.938,16.602,-40.039,-39.062,183.594,0.000
1606135074.942,-79.102,-38.574,-45.898,-90.332,0.000
1606135074.946,-131.348,-42.969,-36.133,-293.457,0.000
1606135074.950,-63.965,-38.574,-28.320,-163.574,0.000
1606135074.954,37.109,-25.391,-32.715,129.395,0.000
1606135074.958,49.316,-29.785,-36.621,198.242,0.000
1606135074.962,-41.992,-40.039,-30.273,-57.129,0.000
1606135074.966,-109.375,-39.062,-35.156,-286.621,0.000
1606135074.970,-69.824,-34.180,-44.922,-199.219,0.000
1606135074.973,34.180,-29.785,-35.156,104.492,0.000
1606135074.977,61.035,-26.367,-23.926,214.844,0.000
1606135074.981,-26.367,-25.391,-27.832,-11.719,0.000
1606135074.985,-95.215,-30.273,-33.203,-246.582,0.000
1606135074.989,-63.965,-36.621,-29.785,-201.660,0.000
1606135074.993,25.391,-34.668,-29.297,74.707,0.000
1606135074.997,53.223,-26.855,-26.855,214.844,0.000
1606135075.001,-14.160,-33.691,-20.996,30.273,0.000
1606135075.005,-93.262,-41.016,-22.949,-233.398,0.000
1606135075.009,-82.520,-33.691,-31.738,-229.004,0.000
1606135075.013,9.766,-30.762,-30.273,55.664,0.000
1606135075.016,52.734,-26.367,-20.508,227.051,0.000
1606135075.020,-11.719,-29.785,-18.555,66.895,0.000
1606135075.024,-99.121,-34.668,-30.273,-220.703,0.000
1606135075.028,-100.586,-33.691,-44.922,-271.484,0.000
1606135075.032,-13.672,-29.785,-44.922,5.859,0.000
1606135075.036,41.992,-19.531,-38.086,212.402,0.000
1606135075.040,-12.207,-19.043,-38.574,89.355,0.000
1606135075.044,-113.770,-24.414,-45.410,-198.242,0.000
1606135075.048,-128.906,-23.926,-40.527,-271.973,0.000
1606135075.052,-41.016,-22.461,-32.715,-23.926,0.000
1606135075.055,22.461,-24.902,-28.320,196.289,0.000
1606135075.059,-26.855,-29.297,-36.621,114.746,0.000
1606135075.063,-126.953,-41.992,-42.480,-166.016,0.000
1606135075.067,-148.926,-53.711,-40.527,-276.367,0.000
1606135075.071,-70.312,-46.387,-37.598,-60.059,0.000
1606135075.075,3.418,-44.922,-34.668,188.477,0.000
1606135075.079,-17.578,-45.898,-36.621,152.344,0.000
1606135075.083,-105.957,-52.734,-37.109,-129.883,0.000
1606135075.087,-141.602,-59.082,-39.062,-283.203,0.000
1606135075.091,-60.059,-52.246,-28.809,-87.402,0.000
1606135075.095,39.062,-43.457,-24.414,193.848,0.000
1606135075.098,26.367,-44.434,-32.715,188.477,0.000
1606135075.102,-76.660,-56.152,-37.598,-105.957,0.000
1606135075.106,-120.117,-53.711,-38.574,-288.574,0.000
1606135075.110,-54.688,-43.945,-41.016,-137.695,0.000
1606135075.114,38.086,-39.062,-34.180,143.555,0.000
1606135075.118,44.434,-36.621,-34.180,186.523,0.000
1606135075.122,-50.781,-37.598,-47.852,-86.426,0.000
1606135075.126,-107.422,-36.133,-41.992,-281.738,0.000
1606135075.130,-58.105,-35.156,-39.551,-163.086,0.000
1606135075.134,37.598,-32.715,-32.227,119.141,0.000
1606135075.138,60.059,-29.297,-24.414,209.473,0.000
1606135075.141,-31.250,-37.598,-42.480,-29.785,0.000
1606135075.145,-115.723,-46.387,-60.059,-287.109,0.000
1606135075.149,-76.660,-37.109,-53.711,-226.562,0.000
1606135075.153,27.832,-27.344,-38.574,80.566,0.000
1606135075.157,54.199,-22.461,-40.527,200.684,0.000
1606135075.161,-30.762,-35.156,-49.805,-18.555,0.000
1606135075.165,-115.723,-41.016,-50.293,-275.391,0.000
1606135075.169,-90.820,-35.156,-46.387,-246.582,0.000
1606135075.173,15.625,-31.250,-36.133,44.922,0.000
1606135075.177,55.176,-27.344,-39.551,192.383,0.000
1606135075.180,-18.066,-30.273,-43.945,6.348,0.000
1606135075.184,-101.562,-37.109,-43.457,-255.859,0.000
1606135075.188,-91.309,-38.086,-47.363,-267.090,0.000
1606135075.192,5.371,-24.414,-44.922,8.789,0.000
1606135075.196,50.293,-14.160,-38.086,198.730,0.000
1606135075.200,-24.414,-28.809,-40.039,51.758,0.000
1606135075.204,-116.699,-43.945,-46.387,-230.957,0.000
1606135075.208,-122.070,-40.527,-51.758,-289.551,0.000
1606135075.212,-24.414,-27.832,-37.598,-17.578,0.000
1606135075.216,50.781,-18.066,-25.391,215.332,0.000
1606135075.220,-1.465,-27.832,-36.621,108.398,0.000
1606135075.223,-100.098,-37.109,-33.203,-187.012,0.000
1606135075.227,-115.723,-41.504,-32.227,-280.762,0.000
1606135075.231,-31.250,-41.992,-38.574,-49.805,0.000
1606135075.235,45.410,-32.227,-39.062,192.871,0.000
1606135075.239,11.719,-38.086,-39.062,133.301,0.000
1606135075.243,-103.027,-57.129,-42.480,-177.246,0.000
1606135075.247,-136.230,-60.547,-33.691,-310.547,0.000
1606135075.251,-47.852,-50.781,-17.578,-85.449,0.000
1606135075.255,33.203,-37.598,-28.809,175.293,0.000
1606135075.259,2.441,-38.574,-41.992,149.902,0.000
1606135075.263,-100.098,-46.387,-42.480,-129.395,0.000
1606135075.266,-138.672,-44.434,-36.133,-283.691,0.000
1606135075.270,-68.848,-48.340,-32.227,-111.816,0.000
1606135075.274,27.832,-41.992,-25.879,174.805,0.000
1606135075.278,34.180,-35.645,-23.438,213.379,0.000
1606135075.282,-60.059,-46.387,-30.762,-67.383,0.000
1606135075.286,-115.234,-50.293,-32.715,-272.461,0.000
1606135075.290,-57.129,-47.852,-24.902,-137.695,0.000
1606135075.294,42.969,-40.527,-13.672,155.273,0.000
1606135075.298,58.594,-38.574,-22.461,225.586,0.000
1606135075.302,-30.762,-41.016,-24.902,-28.320,0.000
1606135075.305,-101.562,-41.504,-27.832,-260.254,0.000
1606135075.309,-58.594,-34.180,-30.762,-165.527,0.000
1606135075.313,41.992,-23.926,-22.949,131.836,0.000
1606135075.317,62.500,-21.973,-20.508,225.586,0.000
1606135075.321,-28.809,-27.344,-29.785,-17.578,0.000
1606135075.325,-109.375,-26.855,-29.297,-260.254,0.000
1606135075.329,-74.707,-21.973,-25.879,-199.707,0.000
1606135075.333,24.414,-19.531,-31.250,88.379,0.000
1606135075.337,52.734,-20.508,-27.832,221.680,0.000
1606135075.341,-23.926,-41.504,-34.180,21.973,0.000
1606135075.345,-112.305,-60.059,-45.898,-247.559,0.000
1606135075.348,-93.750,-41.504,-43.945,-247.070,0.000
1606135075.352,7.812,-24.414,-37.109,42.480,0.000
1606135075.356,54.199,-20.020,-29.785,222.168,0.000
1606135075.360,-1.465,-21.973,-34.180,71.289,0.000
1606135075.364,-90.820,-28.320,-46.387,-207.520,0.000
1606135075.368,-91.797,-25.879,-39.062,-251.465,0.000
1606135075.372,4.395,-20.996,-25.879,20.020,0.000
1606135075.376,62.500,-16.602,-29.297,219.238,0.000
1606135075.380,5.371,-41.992,-42.969,75.684,0.000
1606135075.384,-94.238,-62.012,-42.480,-230.957,0.000
1606135075.388,-102.539,-38.574,-36.621,-312.012,0.000
1606135075.391,-12.207,-26.367,-38.086,-56.641,0.000
1606135075.395,45.898,-29.297,-39.062,168.457,0.000
1606135075.399,-6.348,-37.598,-40.039,76.172,0.000
1606135075.403,-110.840,-40.527,-44.922,-221.680,0.000
1606135075.407,-141.113,-40.039,-47.852,-333.984,0.000
1606135075.411,-54.688,-36.621,-36.621,-98.145,0.000
1606135075.415,22.461,-34.180,-27.344,153.320,0.000
1606135075.419,-13.184,-43.457,-37.109,111.816,0.000
1606135075.423,-108.398,-62.988,-46.387,-168.457,0.000
1606135075.427,-145.996,-58.594,-51.270,-317.383,0.000
1606135075.430,-81.543,-49.316,-49.805,-139.160,0.000
1606135075.434,10.254,-38.574,-41.504,133.301,0.000
1606135075.438,8.789,-40.527,-41.504,150.391,0.000
1606135075.442,-96.680,-65.430,-45.898,-126.953,0.000
1606135075.446,-143.066,-47.852,-43.457,-300.293,0.000
1606135075.450,-68.848,-27.832,-42.969,-141.602,0.000
1606135075.454,27.344,-30.273,-31.250,145.508,0.000
1606135075.458,40.527,-25.879,-23.438,195.801,0.000
1606135075.462,-47.852,-30.762,-36.133,-77.148,0.000
1606135075.466,-109.863,-38.574,-39.062,-283.203,0.000
1606135075.470,-64.453,-35.156,-41.504,-170.898,0.000
1606135075.473,29.785,-27.832,-38.574,103.516,0.000
1606135075.477,48.340,-20.508,-34.180,191.895,0.000
1606135075.481,-46.387,-55.664,-42.480,-54.199,0.000
1606135075.485,-115.234,-62.988,-44.922,-282.715,0.000
1606135075.489,-66.895,-27.832,-29.785,-192.871,0.000
1606135075.493,34.668,-21.973,-15.625,102.539,0.000
1606135075.497,53.223,-24.902,-21.484,208.984,0.000
1606135075.501,-32.715,-32.227,-30.273,-13.672,0.000
1606135075.505,-114.258,-37.598,-32.715,-272.949,0.000
1606135075.509,-92.773,-40.039,-39.062,-247.070,0.000
1606135075.513,9.766,-33.691,-35.156,52.246,0.000
1606135075.516,47.852,-26.855,-36.621,204.590,0.000
1606135075.520,-27.832,-58.105,-40.527,12.695,0.000
1606135075.524,-119.629,-88.867,-42.480,-269.531,0.000
1606135075.528,-111.328,-60.059,-38.574,-284.668,0.000
1606135075.532,-10.254,-32.715,-31.250,7.324,0.000
1606135075.536,45.898,-19.043,-26.367,203.613,0.000
1606135075.540,-20.020,-24.414,-34.180,58.105,0.000
1606135075.544,-120.117,-33.203,-45.410,-235.352,0.000
1606135075.548,-125.000,-30.762,-35.645,-290.039,0.000
1606135075.552,-23.438,-29.785,-30.273,-25.391,0.000
1606135075.555,43.457,-20.508,-33.691,185.547,0.000
1606135075.559,-3.906,-37.109,-29.297,87.402,0.000
1606135075.563,-97.656,-56.641,-34.180,-193.359,0.000
1606135075.567,-119.629,-38.086,-41.016,-289.062,0.000
1606135075.571,-32.715,-29.785,-30.762,-56.641,0.000
1606135075.575,48.828,-24.902,-26.367,181.152,0.000
1606135075.579,19.043,-25.391,-33.203,131.836,0.000
1606135075.583,-74.707,-32.227,-33.691,-147.461,0.000
1606135075.587,-105.469,-28.809,-33.691,-276.855,0.000
1606135075.591,-31.250,-19.531,-29.297,-68.848,0.000
1606135075.595,52.734,-13.672,-20.996,200.195,0.000
1606135075.598,34.668,-20.996,-24.414,180.176,0.000
1606135075.602,-62.988,-30.273,-33.203,-114.746,0.000
1606135075.606,-102.051,-29.785,-40.527,-279.785,0.000
1606135075.610,-27.832,-26.367,-40.527,-103.516,0.000
1606135075.614,58.105,-21.484,-32.715,168.457,0.000
1606135075.618,55.176,-9.277,-19.531,194.336,0.000
1606135075.622,-39.551,-40.527,-25.879,-79.590,0.000
1606135075.626,-102.051,-62.012,-47.363,-282.227,0.000
1606135075.630,-41.504,-29.785,-41.016,-145.020,0.000
1606135075.634,55.176,-19.531,-26.855,140.625,0.000
1606135075.638,56.641,-21.973,-30.273,197.754,0.000
1606135075.641,-37.109,-24.902,-28.809,-53.711,0.000
1606135075.645,-104.004,-25.391,-27.832,-270.996,0.000
1606135075.649,-67.871,-24.902,-32.715,-185.547,0.000
1606135075.653,29.297,-21.484,-24.902,108.398,0.000
1606135075.657,59.570,-16.602,-22.949,217.285,0.000
1606135075.661,-29.297,-40.039,-27.832,-28.320,0.000
1606135075.665,-102.539,-51.758,-32.715,-280.762,0.000
1606135075.669,-62.988,-30.762,-36.133,-221.680,0.000
1606135075.673,30.762,-20.020,-27.832,80.078,0.000
1606135075.677,56.152,-21.973,-26.367,215.332,0.000
1606135075.680,-32.227,-32.715,-35.156,3.418,0.000
1606135075.684,-120.117,-33.203,-32.715,-257.324,0.000
1606135075.688,-98.145,-29.297,-31.738,-245.117,0.000
1606135075.692,0.977,-28.320,-33.203,41.504,0.000
1606135075.696,42.969,-20.508,-25.879,212.891,0.000
1606135075.700,-20.996,-38.086,-32.715,48.828,0.000
1606135075.704,-103.027,-46.387,-36.133,-222.168,0.000
1606135075.708,-98.145,-35.156,-30.273,-253.418,0.000
1606135075.712,-5.371,-37.109,-28.809,19.043,0.000
1606135075.716,52.246,-28.320,-24.414,215.820,0.000
1606135075.720,0.488,-37.598,-26.367,87.402,0.000
1606135075.723,-94.727,-57.129,-31.250,-199.219,0.000
1606135075.727,-111.328,-43.945,-33.691,-284.180,0.000
1606135075.731,-16.113,-32.715,-29.785,-32.715,0.000
1606135075.735,59.082,-26.367,-26.855,201.172,0.000
1606135075.739,15.625,-27.832,-31.738,111.816,0.000
1606135075.743,-83.984,-38.574,-41.504,-182.617,0.000
1606135075.747,-106.934,-35.156,-36.133,-293.945,0.000
1606135075.751,-19.043,-27.344,-20.508,-62.012,0.000
1606135075.755,62.012,-17.090,-18.066,193.359,0.000
1606135075.759,36.133,-23.438,-27.344,141.113,0.000
1606135075.763,-70.312,-49.316,-38.574,-165.527,0.000
1606135075.766,-108.398,-44.434,-39.062,-309.082,0.000
1606135075.770,-28.809,-26.855,-33.691,-107.422,0.000
1606135075.774,56.152,-24.414,-29.297,161.133,0.000
1606135075.778,41.992,-28.809,-31.738,158.691,0.000
1606135075.782,-54.688,-31.738,-36.133,-118.164,0.000
1606135075.786,-102.051,-26.855,-33.203,-288.574,0.000
1606135075.790,-35.645,-24.902,-24.902,-132.324,0.000
1606135075.794,62.988,-23.438,-18.555,158.203,0.000
1606135075.798,63.477,-22.461,-21.484,211.914,0.000
1606135075.802,-37.598,-37.109,-31.250,-59.570,0.000
1606135075.805,-104.980,-49.805,-38.086,-279.297,0.000
1606135075.809,-58.105,-45.410,-35.156,-173.828,0.000
1606135075.813,37.109,-33.691,-32.227,114.746,0.000
1606135075.817,49.805,-26.367,-22.461,203.613,0.000
1606135075.821,-37.109,-31.250,-22.949,-33.691,0.000
1606135075.825,-110.840,-36.621,-37.598,-277.344,0.000
1606135075.829,-79.590,-36.621,-39.062,-208.984,0.000
1606135075.833,21.484,-34.180,-30.762,95.703,0.000
1606135075.837,48.340,-31.738,-29.785,210.938,0.000
1606135075.841,-37.109,-46.875,-27.344,4.395,0.000
1606135075.845,-113.770,-51.270,-30.762,-240.723,0.000
1606135075.848,-89.844,-42.480,-33.691,-229.980,0.000
1606135075.852,7.324,-36.133,-25.879,57.129,0.000
1606135075.856,49.316,-25.879,-22.949,210.449,0.000
1606135075.860,-20.020,-43.457,-23.438,29.297,0.000
1606135075.864,-110.840,-51.270,-34.180,-242.188,0.000
1606135075.868,-101.562,-32.227,-36.133,-262.207,0.000
1606135075.872,-1.953,-27.344,-21.973,20.020,0.000
1606135075.876,50.781,-24.414,-23.438,210.449,0.000
1606135075.880,-11.719,-29.785,-32.227,61.035,0.000
1606135075.884,-104.980,-33.203,-31.738,-232.910,0.000
1606135075.888,-105.957,-29.297,-31.738,-285.156,0.000
1606135075.891,-8.301,-20.020,-35.156,-8.301,0.000
1606135075.895,56.641,-13.672,-46.387,202.637,0.000
1606135075.899,1.465,-27.344,-54.199,81.055,0.000
1606135075.903,-96.680,-40.527,-49.805,-206.543,0.000
1606135075.907,-104.980,-35.645,-46.387,-286.621,0.000
1606135075.911,-18.555,-24.902,-37.109,-43.457,0.000
1606135075.915,47.852,-23.926,-31.250,196.289,0.000
1606135075.919,18.066,-23.438,-32.715,138.672,0.000
1606135075.923,-79.102,-25.879,-37.109,-154.785,0.000
1606135075.927,-111.816,-29.785,-39.551,-291.504,0.000
1606135075.930,-32.715,-25.391,-39.062,-85.449,0.000
1606135075.934,50.781,-19.043,-37.598,184.082,0.000
1606135075.938,36.621,-19.531,-31.738,177.246,0.000
1606135075.942,-65.918,-40.527,-40.039,-114.746,0.000
1606135075.946,-115.723,-41.992,-48.340,-285.156,0.000
1606135075.950,-50.781,-32.227,-36.133,-113.770,0.000
1606135075.954,38.086,-31.738,-31.738,163.086,0.000
1606135075.958,35.156,-31.738,-34.180,188.477,0.000
1606135075.962,-69.336,-39.062,-31.738,-98.633,0.000
1606135075.966,-137.695,-48.828,-33.691,-304.199,0.000
1606135075.970,-83.984,-47.363,-34.180,-163.086,0.000
1606135075.973,12.695,-38.574,-36.621,132.812,0.000
1606135075.977,27.344,-35.645,-33.691,207.520,0.000
1606135075.981,-62.012,-40.039,-29.297,-47.852,0.000
1606135075.985,-126.465,-41.504,-25.879,-272.949,0.000
1606135075.989,-82.520,-34.668,-27.832,-180.664,0.000
1606135075.993,7.324,-39.551,-34.180,105.469,0.000
1606135075.997,29.297,-35.156,-33.691,209.961,0.000
1606135076.001,-51.270,-49.316,-33.203,-19.531,0.000
1606135076.005,-120.605,-71.777,-38.086,-253.418,0.000
1606135076.009,-100.586,-52.246,-35.156,-207.520,0.000
1606135076.013,-15.625,-42.969,-24.414,65.430,0.000
1606135076.016,22.949,-41.992,-21.484,202.637,0.000
1606135076.020,-50.781,-44.434,-27.832,6.348,0.000
1606135076.024,-135.254,-50.781,-30.762,-254.883,0.000
1606135076.028,-112.793,-51.270,-28.320,-246.582,0.000
1606135076.032,-14.648,-45.410,-22.949,41.504,0.000
1606135076.036,25.879,-36.621,-24.414,212.891,0.000
1606135076.040,-33.691,-49.805,-20.508,53.223,0.000
1606135076.044,-118.652,-65.918,-16.113,-227.539,0.000
1606135076.048,-106.445,-48.828,-17.090,-260.254,0.000
1606135076.052,2.441,-35.156,-14.160,26.367,0.000
1606135076.055,56.641,-35.645,-22.461,222.168,0.000
1606135076.059,-0.977,-42.969,-32.715,88.379,0.000
1606135076.063,-89.355,-42.480,-34.668,-191.406,0.000
1606135076.067,-99.121,-36.621,-34.180,-259.277,0.000
1606135076.071,-5.859,-35.645,-20.020,-11.719,0.000
1606135076.075,63.477,-32.227,-14.160,211.914,0.000
1606135076.079,23.438,-26.367,-19.531,145.020,0.000
1606135076.083,-68.848,-42.969,-25.879,-150.391,0.000
1606135076.087,-97.656,-47.363,-24.902,-284.668,0.000
1606135076.091,-12.207,-27.344,-15.625,-50.293,0.000
1606135076.095,70.801,-19.043,-12.695,213.379,0.000
1606135076.098,38.086,-19.531,-18.555,166.992,0.000
1606135076.102,-65.430,-30.273,-21.484,-121.094,0.000
1606135076.106,-109.375,-41.992,-28.809,-277.832,0.000
1606135076.110,-35.645,-38.086,-23.438,-91.309,0.000
1606135076.114,52.246,-24.414,-21.484,183.594,0.000
1606135076.118,39.062,-25.879,-31.250,184.082,0.000
1606135076.122,-56.152,-39.062,-32.715,-95.703,0.000
1606135076.126,-102.051,-39.551,-35.156,-270.020,0.000
1606135076.130,-36.133,-35.645,-30.762,-118.652,0.000
1606135076.134,49.805,-31.738,-20.020,163.086,0.000
1606135076.138,41.992,-34.668,-23.926,198.242,0.000
1606135076.141,-48.828,-51.270,-30.762,-64.941,0.000
1606135076.145,-108.887,-48.340,-35.645,-265.625,0.000
1606135076.149,-58.594,-32.227,-34.668,-151.855,0.000
1606135076.153,35.645,-30.273,-28.809,141.113,0.000
1606135076.157,48.828,-24.414,-21.973,235.840,0.000
1606135076.161,-32.227,-24.902,-20.020,3.418,0.000
1606135076.165,-107.910,-29.785,-27.832,-247.559,0.000
1606135076.169,-78.613,-32.715,-27.832,-162.109,0.000
1606135076.173,19.531,-29.297,-24.902,144.043,0.000
1606135076.177,45.410,-20.996,-31.250,228.516,0.000
1606135076.180,-46.387,-42.969,-31.738,0.977,0.000
1606135076.184,-125.000,-63.477,-20.020,-254.883,0.000
1606135076.188,-94.727,-42.480,-24.902,-223.145,0.000
1606135076.192,5.371,-31.738,-32.715,65.430,0.000
1606135076.196,53.711,-30.273,-22.461,226.562,0.000
1606135076.200,-19.531,-33.691,-24.414,38.574,0.000
1606135076.204,-115.234,-41.992,-34.668,-243.164,0.000
1606135076.208,-109.375,-40.039,-33.203,-251.465,0.000
1606135076.212,-9.766,-37.109,-29.297,38.574,0.000
1606135076.216,45.410,-24.414,-29.297,226.562,0.000
1606135076.220,-12.695,-32.715,-33.203,80.078,0.000
1606135076.223,-101.074,-55.664,-36.621,-214.355,0.000
1606135076.227,-102.051,-43.457,-41.992,-275.879,0.000
1606135076.231,-15.625,-34.668,-31.250,-8.301,0.000
1606135076.235,40.527,-34.180,-21.973,211.426,0.000
1606135076.239,-2.441,-29.785,-31.738,102.539,0.000
1606135076.243,-95.703,-35.645,-41.504,-204.102,0.000
1606135076.247,-108.398,-40.527,-41.992,-302.246,0.000
1606135076.251,-14.648,-32.715,-37.109,-50.781,0.000
1606135076.255,58.105,-24.902,-28.320,195.801,0.000
1606135076.259,24.414,-28.809,-20.020,133.789,0.000
1606135076.263,-78.125,-37.598,-31.250,-166.016,0.000
1606135076.266,-107.422,-27.344,-38.086,-293.457,0.000
1606135076.270,-24.902,-14.648,-37.598,-82.031,0.000
1606135076.274,54.199,-20.020,-39.062,180.176,0.000
1606135076.278,32.715,-21.973,-40.527,159.668,0.000
1606135076.282,-69.336,-36.133,-44.922,-138.184,0.000
1606135076.286,-107.910,-47.852,-45.410,-295.410,0.000
1606135076.290,-31.250,-26.367,-40.039,-112.305,0.000
1606135076.294,58.594,-16.113,-34.668,174.316,0.000
1606135076.298,44.922,-18.555,-36.621,193.359,0.000
1606135076.302,-54.688,-17.578,-36.133,-91.797,0.000
1606135076.305,-104.004,-21.484,-29.297,-284.668,0.000
1606135076.309,-55.664,-22.461,-31.250,-150.391,0.000
1606135076.313,37.109,-18.066,-36.133,138.672,0.000
1606135076.317,49.316,-20.996,-30.762,197.754,0.000
1606135076.321,-53.223,-14.648,-30.762,-71.289,0.000
1606135076.325,-119.629,-18.066,-36.621,-292.480,0.000
1606135076.329,-69.824,-34.180,-31.738,-187.988,0.000
1606135076.333,38.086,-29.297,-27.344,126.953,0.000
1606135076.337,61.523,-24.902,-22.949,235.352,0.000
1606135076.341,-32.227,-28.320,-27.344,-16.602,0.000
1606135076.345,-109.375,-36.133,-33.691,-271.973,0.000
1606135076.348,-77.148,-35.156,-31.250,-214.355,0.000
1606135076.352,21.973,-29.297,-39.551,83.984,0.000
1606135076.356,60.547,-40.039,-38.574,226.562,0.000
1606135076.360,-8.301,-30.273,-31.738,32.227,0.000
1606135076.364,-101.562,-15.625,-38.086,-251.465,0.000
1606135076.368,-93.750,-32.227,-39.551,-260.254,0.000
1606135076.372,11.719,-35.645,-39.551,42.480,0.000
1606135076.376,54.688,-38.086,-39.551,224.609,0.000
1606135076.380,-22.461,-41.992,-32.227,47.852,0.000
1606135076.384,-117.676,-45.898,-33.691,-245.605,0.000
1606135076.388,-116.699,-49.316,-47.363,-281.738,0.000
1606135076.391,-18.555,-42.480,-41.504,12.695,0.000
1606135076.395,41.016,-43.945,-30.273,223.145,0.000
1606135076.399,-18.555,-47.852,-31.738,82.520,0.000
1606135076.403,-117.188,-41.992,-38.574,-216.309,0.000
1606135076.407,-132.812,-45.898,-41.016,-289.551,0.000
1606135076.411,-35.645,-48.828,-37.598,-27.344,0.000
1606135076.415,43.945,-38.574,-34.180,218.262,0.000
1606135076.419,-1.953,-39.062,-38.574,132.324,0.000
1606135076.423,-105.957,-33.203,-39.551,-176.270,0.000
1606135076.427,-127.930,-32.715,-34.668,-291.992,0.000
1606135076.430,-35.645,-32.715,-32.227,-54.199,0.000
1606135076.434,43.945,-29.297,-28.320,217.285,0.000
1606135076.438,15.137,-31.250,-25.879,181.152,0.000
1606135076.442,-90.820,-39.551,-28.809,-141.113,0.000
1606135076.446,-134.277,-44.434,-27.344,-322.754,0.000
1606135076.450,-49.805,-34.180,-24.414,-129.883,0.000
1606135076.454,50.781,-21.973,-24.902,165.039,0.000
1606135076.458,39.551,-37.109,-26.367,177.734,0.000
1606135076.462,-72.754,-2.930,-30.762,-129.395,0.000
1606135076.466,-124.023,16.602,-30.762,-318.359,0.000
1606135076.470,-52.734,-38.574,-31.250,-145.996,0.000
1606135076.473,51.270,-42.480,-24.902,166.016,0.000
1606135076.477,55.176,-31.250,-17.090,221.191,0.000
1606135076.481,-57.617,-36.133,-27.344,-82.520,0.000
1606135076.485,-116.211,-39.062,-37.598,-315.918,0.000
1606135076.489,-50.781,-39.551,-29.785,-184.570,0.000
1606135076.493,51.758,-33.203,-20.020,129.883,0.000
1606135076.497,64.941,-31.250,-24.414,231.934,0.000
1606135076.501,-34.180,-25.391,-34.180,-28.320,0.000
1606135076.505,-112.305,-25.391,-22.949,-283.203,0.000
1606135076.509,-72.266,-40.527,-17.578,-192.383,0.000
1606135076.513,29.297,-36.621,-30.762,126.953,0.000
1606135076.516,54.688,-39.551,-29.785,250.977,0.000
1606135076.520,-35.156,-47.852,-32.715,13.672,0.000
1606135076.524,-119.629,-45.410,-39.062,-264.160,0.000
1606135076.528,-89.355,-41.016,-33.203,-227.051,0.000
1606135076.532,28.809,-31.250,-18.066,109.375,0.000
1606135076.536,71.777,-26.367,-16.113,280.762,0.000
1606135076.540,-14.160,-31.250,-25.391,56.641,0.000
1606135076.544,-106.934,-38.086,-25.391,-241.211,0.000
1606135076.548,-91.797,-38.086,-31.250,-251.953,0.000
1606135076.552,19.043,-27.832,-33.691,44.922,0.000
1606135076.555,69.336,-24.414,-30.273,240.234,0.000
1606135076.559,-4.395,-23.926,-28.809,71.777,0.000
1606135076.563,-105.957,-21.484,-26.367,-229.980,0.000
1606135076.567,-107.910,-30.273,-33.203,-271.973,0.000
1606135076.571,-13.184,-33.203,-31.250,0.000,0.000
1606135076.575,42.969,-24.902,-33.203,193.359,0.000
1606135076.579,-1.953,-17.090,-40.039,70.801,0.000
1606135076.583,-91.797,-23.926,-37.598,-222.168,0.000
1606135076.587,-112.793,-35.156,-41.992,-319.336,0.000
1606135076.591,-25.879,-32.227,-37.109,-51.270,0.000
1606135076.595,55.664,-25.879,-22.949,222.656,0.000
1606135076.598,19.043,-25.879,-24.414,142.578,0.000
1606135076.602,-84.961,-22.461,-30.762,-172.852,0.000
1606135076.606,-115.723,-28.809,-39.062,-306.152,0.000
1606135076.610,-27.344,-32.715,-41.016,-83.008,0.000
1606135076.614,66.406,-21.484,-29.297,197.266,0.000
1606135076.618,46.875,-25.879,-23.926,178.711,0.000
1606135076.622,-57.617,-35.156,-25.879,-125.488,0.000
1606135076.626,-95.703,-29.785,-23.926,-284.180,0.000
1606135076.630,-21.484,-29.785,-17.090,-92.773,0.000
1606135076.634,62.500,-29.297,-22.461,190.918,0.000
1606135076.638,50.293,-24.414,-22.461,217.773,0.000
1606135076.641,-49.805,-23.438,-28.320,-67.871,0.000
1606135076.645,-107.422,-30.273,-38.574,-276.855,0.000
1606135076.649,-53.223,-40.527,-32.715,-141.113,0.000
1606135076.653,44.922,-35.645,-31.738,159.668,0.000
1606135076.657,58.594,-26.367,-27.832,239.746,0.000
1606135076.661,-36.133,-27.344,-22.461,-28.809,0.000
1606135076.665,-107.910,-34.668,-29.297,-267.090,0.000
1606135076.669,-56.641,-34.180,-28.809,-167.480,0.000
1606135076.673,47.852,-30.273,-26.855,139.648,0.000
1606135076.677,63.965,-26.855,-30.273,242.676,0.000
1606135076.680,-22.949,-28.809,-27.344,-7.812,0.000
1606135076.684,-100.098,-37.109,-26.367,-266.602,0.000
1606135076.688,-69.824,-36.621,-36.621,-208.984,0.000
1606135076.692,32.227,-35.645,-35.645,89.844,0.000
1606135076.696,68.848,-27.832,-22.949,232.422,0.000
1606135076.700,-8.301,-30.762,-16.113,30.762,0.000
1606135076.704,-100.586,-48.828,-30.273,-252.441,0.000
1606135076.708,-86.426,-44.434,-33.203,-252.930,0.000
1606135076.712,15.625,-39.551,-22.461,54.199,0.000
1606135076.716,62.500,-36.133,-25.879,237.305,0.000
1606135076.720,-4.395,-31.250,-25.879,59.082,0.000
1606135076.723,-95.703,-29.785,-29.785,-234.863,0.000
1606135076.727,-94.238,-32.227,-34.668,-273.926,0.000
1606135076.731,-0.488,-35.156,-33.203,4.395,0.000
1606135076.735,59.082,-24.902,-27.344,223.145,0.000
1606135076.739,3.418,-31.250,-25.391,96.191,0.000
1606135076.743,-97.656,-61.035,-34.668,-204.102,0.000
1606135076.747,-110.840,-58.594,-36.621,-279.297,0.000
1606135076.751,-14.648,-37.109,-32.227,-20.996,0.000
1606135076.755,61.035,-27.344,-26.367,220.703,0.000
1606135076.759,11.719,-30.273,-28.320,132.812,0.000
1606135076.763,-87.402,-34.180,-37.598,-171.875,0.000
1606135076.766,-110.352,-27.344,-31.250,-281.250,0.000
1606135076.770,-31.250,-25.879,-34.180,-43.945,0.000
1606135076.774,49.316,-28.320,-39.062,213.379,0.000
1606135076.778,23.926,-25.879,-31.738,175.293,0.000
1606135076.782,-77.637,-43.945,-38.574,-126.953,0.000
1606135076.786,-111.816,-50.293,-39.551,-285.645,0.000
1606135076.790,-39.551,-38.574,-34.180,-88.379,0.000
1606135076.794,43.945,-31.250,-33.203,187.012,0.000
1606135076.798,27.832,-23.926,-32.227,188.965,0.000
1606135076.802,-75.684,-29.297,-35.156,-106.934,0.000
1606135076.805,-117.676,-34.180,-31.738,-288.086,0.000
1606135076.809,-49.805,-32.715,-32.227,-126.953,0.000
1606135076.813,41.992,-24.902,-24.414,170.898,0.000
1606135076.817,39.062,-18.555,-15.137,222.656,0.000
1606135076.821,-66.895,-28.809,-29.785,-60.547,0.000
1606135076.825,-131.836,-37.109,-32.227,-272.461,0.000
1606135076.829,-73.730,-32.227,-16.113,-148.926,0.000
1606135076.833,17.578,-34.668,-22.949,143.066,0.000
1606135076.837,19.043,-35.156,-36.133,213.867,0.000
1606135076.841,-71.289,-66.406,-36.133,-53.711,0.000
1606135076.845,-136.230,-93.262,-44.922,-296.387,0.000
1606135076.848,-90.332,-61.035,-45.410,-212.891,0.000
1606135076.852,14.648,-34.180,-33.691,96.680,0.000
1606135076.856,43.457,-23.926,-28.320,219.727,0.000
1606135076.860,-43.457,-28.320,-33.203,-9.277,0.000
1606135076.864,-123.047,-31.738,-32.715,-269.531,0.000
1606135076.868,-98.633,-36.621,-30.273,-246.094,0.000
1606135076.872,1.465,-39.062,-34.668,53.223,0.000
1606135076.876,41.504,-27.344,-33.691,218.750,0.000
1606135076.880,-32.715,-44.922,-41.016,20.508,0.000
1606135076.884,-114.746,-64.941,-39.062,-252.441,0.000
1606135076.888,-105.469,-41.016,-34.180,-260.254,0.000
1606135076.891,-7.324,-27.344,-28.320,30.762,0.000
1606135076.895,50.293,-19.531,-23.926,224.609,0.000
1606135076.899,-7.324,-20.508,-23.926,71.289,0.000
1606135076.903,-100.586,-26.855,-27.832,-223.633,0.000
1606135076.907,-98.633,-22.949,-29.297,-275.391,0.000
1606135076.911,0.000,-21.484,-24.902,5.371,0.000
1606135076.915,57.617,-20.508,-24.414,223.145,0.000
1606135076.919,3.906,-24.902,-24.414,115.234,0.000
1606135076.923,-98.633,-39.062,-36.133,-181.641,0.000
1606135076.927,-111.816,-36.133,-42.969,-278.809,0.000
1606135076.930,-15.137,-26.855,-32.227,-31.250,0.000
1606135076.934,54.688,-26.855,-20.020,209.473,0.000
1606135076.938,18.555,-29.297,-20.508,143.066,0.000
1606135076.942,-84.473,-42.969,-30.273,-158.203,0.000
1606135076.946,-117.188,-41.992,-30.273,-282.227,0.000
1606135076.950,-35.156,-26.855,-28.320,-59.082,0.000
1606135076.954,43.945,-22.949,-30.762,208.496,0.000
1606135076.958,21.973,-24.414,-31.250,185.547,0.000
1606135076.962,-76.172,-29.785,-28.809,-123.535,0.000
1606135076.966,-117.188,-33.691,-34.668,-291.016,0.000
1606135076.970,-41.016,-35.645,-38.086,-102.539,0.000
1606135076.973,46.387,-27.344,-28.809,168.945,0.000
1606135076.977,36.621,-19.043,-25.879,183.594,0.000
1606135076.981,-62.500,-31.738,-35.645,-104.492,0.000
1606135076.985,-120.117,-44.434,-39.062,-305.176,0.000
1606135076.989,-55.664,-29.297,-38.086,-159.180,0.000
1606135076.993,44.434,-21.484,-29.297,149.414,0.000
1606135076.997,44.434,-29.785,-26.367,212.891,0.000
1606135077.001,-52.734,-32.715,-29.297,-59.570,0.000
1606135077.005,-113.770,-38.574,-35.156,-279.297,0.000
1606135077.009,-66.406,-36.133,-38.086,-182.617,0.000
1606135077.013,33.203,-31.738,-33.691,122.559,0.000
1606135077.016,52.734,-25.391,-29.297,235.352,0.000
1606135077.020,-38.574,-45.410,-29.297,-20.508,0.000
1606135077.024,-121.094,-81.543,-38.086,-291.016,0.000
1606135077.028,-90.332,-63.965,-42.969,-244.141,0.000
1606135077.032,7.324,-37.598,-35.156,62.988,0.000
1606135077.036,42.480,-31.738,-22.461,207.031,0.000
1606135077.040,-34.180,-33.691,-28.809,3.906,0.000
1606135077.044,-123.535,-41.016,-44.434,-269.043,0.000
1606135077.048,-104.980,-39.551,-33.691,-260.254,0.000
1606135077.052,-2.930,-38.086,-25.879,35.645,0.000
1606135077.055,38.086,-35.156,-33.203,201.660,0.000
1606135077.059,-24.902,-44.922,-36.621,42.480,0.000
1606135077.063,-105.469,-56.152,-32.715,-228.027,0.000
1606135077.067,-100.098,-41.504,-26.855,-262.695,0.000
1606135077.071,-7.812,-34.180,-30.762,17.578,0.000
1606135077.075,49.316,-28.809,-29.785,224.609,0.000
1606135077.079,-7.812,-29.297,-28.809,95.703,0.000
1606135077.083,-103.516,-42.969,-33.691,-201.172,0.000
1606135077.087,-109.375,-41.016,-26.367,-276.855,0.000
1606135077.091,-11.719,-30.273,-24.414,-14.160,0.000
1606135077.095,62.988,-22.949,-27.344,224.121,0.000
1606135077.098,26.855,-20.508,-23.438,143.555,0.000
1606135077.102,-74.219,-28.809,-23.438,-163.086,0.000
1606135077.106,-103.027,-35.645,-30.762,-283.691,0.000
1606135077.110,-11.719,-26.367,-24.414,-30.762,0.000
1606135077.114,60.547,-24.414,-27.344,224.121,0.000
1606135077.118,25.391,-30.273,-28.320,161.621,0.000
1606135077.122,-80.566,-33.691,-26.855,-143.555,0.000
1606135077.126,-119.141,-31.250,-40.039,-288.086,0.000
1606135077.130,-30.273,-23.926,-30.273,-80.566,0.000
1606135077.134,54.199,-17.578,-29.297,183.105,0.000
1606135077.138,24.414,-25.391,-31.738,174.805,0.000
1606135077.141,-79.590,-30.273,-19.531,-115.234,0.000
1606135077.145,-124.512,-33.203,-26.855,-298.828,0.000
1606135077.149,-58.594,-34.668,-33.691,-129.395,0.000
1606135077.153,38.574,-26.367,-20.996,168.457,0.000
1606135077.157,41.504,-19.531,-17.090,212.891,0.000
1606135077.161,-62.500,-31.738,-26.855,-67.383,0.000
1606135077.165,-123.047,-47.363,-31.738,-289.551,0.000
1606135077.169,-62.500,-41.016,-26.367,-164.551,0.000
1606135077.173,31.738,-34.668,-21.973,134.277,0.000
1606135077.177,44.922,-34.668,-27.344,208.496,0.000
1606135077.180,-47.363,-34.180,-36.133,-51.758,0.000
1606135077.184,-118.652,-34.668,-38.086,-285.645,0.000
1606135077.188,-78.613,-32.715,-41.016,-199.707,0.000
1606135077.192,25.391,-34.180,-25.879,112.793,0.000
1606135077.196,45.898,-37.109,-20.508,228.027,0.000
1606135077.200,-51.270,-47.363,-38.086,-10.254,0.000
1606135077.204,-125.977,-51.758,-38.086,-259.766,0.000
1606135077.208,-94.238,-39.062,-25.879,-223.633,0.000
1606135077.212,8.301,-33.691,-22.949,67.871,0.000
1606135077.216,44.922,-28.320,-25.879,224.121,0.000
1606135077.220,-27.832,-40.527,-23.438,32.715,0.000
1606135077.223,-108.398,-56.152,-30.273,-248.535,0.000
1606135077.227,-95.215,-42.480,-35.156,-254.883,0.000
1606135077.231,5.859,-27.832,-21.973,48.828,0.000
1606135077.235,55.176,-24.414,-21.484,236.328,0.000
1606135077.239,-20.020,-31.250,-33.203,67.383,0.000
1606135077.243,-112.793,-39.062,-29.297,-227.051,0.000
1606135077.247,-104.492,-34.668,-21.973,-267.578,0.000
1606135077.251,-6.348,-33.203,-30.273,12.695,0.000
1606135077.255,54.688,-36.133,-28.320,227.051,0.000
1606135077.259,4.883,-43.457,-25.391,108.887,0.000
1606135077.263,-99.609,-64.453,-29.785,-197.754,0.000
1606135077.266,-115.234,-49.316,-33.203,-283.203,0.000
1606135077.270,-19.043,-26.367,-34.180,-29.785,0.000
1606135077.274,54.688,-27.832,-23.438,217.773,0.000
1606135077.278,14.160,-26.855,-20.996,147.461,0.000
1606135077.282,-90.820,-29.297,-37.109,-166.016,0.000
1606135077.286,-117.676,-31.738,-38.574,-298.828,0.000
1606135077.290,-33.203,-28.809,-27.344,-74.707,0.000
1606135077.294,57.617,-17.090,-25.879,202.148,0.000
1606135077.298,36.133,-10.742,-22.949,181.641,0.000
1606135077.302,-73.242,-33.691,-22.949,-128.418,0.000
1606135077.305,-116.699,-50.781,-31.250,-306.152,0.000
1606135077.309,-39.062,-35.645,-36.133,-116.211,0.000
1606135077.313,53.223,-27.832,-29.785,177.246,0.000
1606135077.317,51.758,-23.438,-20.996,199.707,0.000
1606135077.321,-47.852,-24.414,-27.344,-92.773,0.000
1606135077.325,-105.469,-38.574,-39.062,-294.922,0.000
1606135077.329,-43.945,-33.691,-29.785,-148.438,0.000
1606135077.333,46.387,-16.602,-20.020,161.133,0.000
1606135077.337,45.410,-15.625,-19.043,230.469,0.000
1606135077.341,-52.734,-33.691,-25.879,-47.852,0.000
1606135077.345,-116.699,-39.551,-33.691,-274.414,0.000
1606135077.348,-68.359,-28.320,-29.297,-173.828,0.000
1606135077.352,37.598,-20.020,-17.090,129.883,0.000
1606135077.356,55.664,-19.043,-16.602,230.469,0.000
1606135077.360,-45.410,-38.574,-30.273,-22.461,0.000
1606135077.364,-118.652,-43.945,-27.344,-271.484,0.000
1606135077.368,-75.684,-22.949,-28.809,-206.543,0.000
1606135077.372,23.438,-17.090,-29.297,98.633,0.000
1606135077.376,54.199,-17.090,-21.973,242.188,0.000
1606135077.380,-25.391,-23.438,-26.367,28.320,0.000
1606135077.384,-113.770,-32.715,-35.645,-252.441,0.000
1606135077.388,-90.332,-29.297,-35.156,-241.211,0.000
1606135077.391,22.461,-21.973,-21.484,68.359,0.000
1606135077.395,66.895,-16.113,-16.113,247.559,0.000
1606135077.399,-5.859,-20.996,-20.996,59.082,0.000
1606135077.403,-95.703,-59.082,-19.043,-235.840,0.000
1606135077.407,-95.703,-55.664,-22.461,-265.137,0.000
1606135077.411,1.953,-26.367,-27.832,15.137,0.000
1606135077.415,60.547,-20.996,-25.391,213.867,0.000
1606135077.419,-2.441,-23.438,-21.973,78.613,0.000
1606135077.423,-102.051,-32.715,-23.438,-208.008,0.000
1606135077.427,-101.562,-27.832,-22.949,-268.555,0.000
1606135077.430,-13.184,-23.438,-22.461,-16.113,0.000
1606135077.434,42.969,-19.531,-21.484,211.914,0.000
1606135077.438,5.371,-21.484,-20.996,131.836,0.000
1606135077.442,-92.773,-43.457,-27.832,-177.734,0.000
1606135077.446,-115.723,-42.480,-33.691,-297.363,0.000
1606135077.450,-25.879,-23.438,-34.668,-56.152,0.000
1606135077.454,45.898,-23.926,-32.715,195.801,0.000
1606135077.458,10.254,-27.344,-27.832,140.625,0.000
1606135077.462,-89.844,-31.250,-34.668,-158.691,0.000
1606135077.466,-119.141,-31.738,-37.109,-297.363,0.000
1606135077.470,-39.062,-34.180,-30.762,-86.426,0.000
1606135077.473,44.922,-32.227,-27.344,188.477,0.000
1606135077.477,30.762,-26.855,-29.297,177.246,0.000
1606135077.481,-70.312,-42.480,-29.785,-116.211,0.000
1606135077.485,-113.770,-42.969,-24.414,-283.203,0.000
1606135077.489,-47.363,-29.297,-28.320,-133.789,0.000
1606135077.493,42.480,-27.832,-20.508,137.207,0.000
1606135077.497,36.133,-25.391,-26.367,181.152,0.000
1606135077.501,-60.059,-38.574,-42.969,-91.309,0.000
1606135077.505,-108.398,-50.293,-39.062,-288.574,0.000
1606135077.509,-47.363,-34.180,-24.902,-155.273,0.000
1606135077.513,51.758,-23.438,-17.578,145.996,0.000
1606135077.516,61.035,-17.090,-25.879,224.121,0.000
1606135077.520,-33.203,-19.043,-31.250,-31.738,0.000
1606135077.524,-106.445,-25.879,-32.715,-267.578,0.000
1606135077.528,-65.430,-23.926,-32.715,-183.594,0.000
1606135077.532,41.504,-20.508,-21.973,125.488,0.000
1606135077.536,60.547,-19.531,-24.414,235.840,0.000
1606135077.540,-31.738,-32.715,-36.133,3.906,0.000
1606135077.544,-110.840,-47.852,-35.156,-254.395,0.000
1606135077.548,-84.473,-35.645,-30.273,-219.238,0.000
1606135077.552,20.020,-22.461,-25.879,80.566,0.000
1606135077.555,57.617,-23.438,-30.762,225.586,0.000
1606135077.559,-17.090,-28.320,-26.367,36.133,0.000
1606135077.563,-104.004,-26.855,-24.902,-236.816,0.000
1606135077.567,-94.727,-27.344,-37.598,-238.281,0.000
1606135077.571,8.789,-24.902,-32.715,56.641,0.000
1606135077.575,60.547,-18.066,-19.043,243.164,0.000
1606135077.579,-3.418,-19.043,-12.695,91.309,0.000
1606135077.583,-97.656,-42.969,-18.555,-210.449,0.000
1606135077.587,-102.539,-47.363,-27.832,-274.414,0.000
1606135077.591,-3.906,-32.715,-28.809,-0.488,0.000
1606135077.595,64.453,-25.879,-24.902,222.656,0.000
1606135077.598,11.230,-19.531,-28.809,107.422,0.000
1606135077.602,-85.449,-23.438,-31.250,-194.336,0.000
1606135077.606,-99.609,-25.391,-25.879,-281.250,0.000
1606135077.610,-8.789,-23.926,-29.785,-26.855,0.000
1606135077.614,60.547,-24.414,-34.668,216.797,0.000
1606135077.618,14.160,-22.949,-31.250,141.113,0.000
1606135077.622,-87.402,-29.785,-26.855,-164.062,0.000
1606135077.626,-112.793,-32.715,-29.297,-287.598,0.000
1606135077.630,-33.691,-22.461,-41.016,-74.219,0.000
1606135077.634,50.781,-25.391,-37.109,179.688,0.000
1606135077.638,25.391,-31.738,-34.668,146.484,0.000
1606135077.641,-76.172,-21.484,-41.016,-146.484,0.000
1606135077.645,-111.328,-21.484,-40.039,-299.805,0.000
1606135077.649,-44.922,-27.344,-38.574,-116.211,0.000
1606135077.653,42.969,-21.484,-34.668,166.016,0.000
1606135077.657,32.227,-23.926,-30.762,187.988,0.000
1606135077.661,-76.660,-33.203,-34.668,-105.957,0.000
1606135077.665,-131.348,-30.762,-32.227,-304.688,0.000
1606135077.669,-65.918,-27.832,-32.227,-151.367,0.000
1606135077.673,30.273,-28.320,-36.621,149.902,0.000
1606135077.677,28.809,-21.484,-33.691,203.125,0.000
1606135077.680,-71.777,-39.062,-34.180,-80.078,0.000
1606135077.684,-138.184,-63.477,-34.180,-300.293,0.000
1606135077.688,-85.449,-47.363,-29.785,-187.988,0.000
1606135077.692,16.113,-30.762,-24.414,108.887,0.000
1606135077.696,33.203,-30.762,-20.020,199.219,0.000
1606135077.700,-51.270,-37.598,-26.367,-44.922,0.000
1606135077.704,-118.652,-41.992,-40.527,-284.180,0.000
1606135077.708,-83.496,-35.156,-39.551,-212.402,0.000
1606135077.712,18.555,-27.832,-30.762,95.215,0.000
1606135077.716,54.688,-23.926,-20.508,232.422,0.000
1606135077.720,-29.297,-39.551,-25.879,18.066,0.000
1606135077.723,-116.211,-50.781,-35.645,-251.953,0.000
1606135077.727,-93.750,-26.855,-27.832,-231.934,0.000
1606135077.731,4.395,-18.555,-21.484,51.758,0.000
1606135077.735,48.340,-19.043,-24.414,221.191,0.000
1606135077.739,-19.531,-30.762,-22.949,54.688,0.000
1606135077.743,-112.305,-35.645,-25.391,-223.145,0.000
1606135077.747,-110.840,-26.855,-30.273,-251.953,0.000
1606135077.751,-18.066,-25.879,-28.809,20.508,0.000
1606135077.755,41.016,-20.508,-25.879,218.262,0.000
1606135077.759,-9.277,-14.160,-26.367,82.031,0.000
1606135077.763,-101.562,-23.926,-32.715,-203.125,0.000
1606135077.766,-106.445,-29.785,-39.551,-253.906,0.000
1606135077.770,3.418,-22.461,-34.180,2.930,0.000
1606135077.774,66.895,-19.043,-20.996,214.844,0.000
1606135077.778,9.277,-24.902,-18.555,122.070,0.000
1606135077.782,-91.309,-33.691,-37.109,-174.316,0.000
1606135077.786,-110.840,-34.180,-47.852,-279.785,0.000
1606135077.790,-22.461,-24.414,-38.086,-48.828,0.000
1606135077.794,51.270,-21.484,-28.809,198.730,0.000
1606135077.798,21.484,-26.855,-28.809,146.973,0.000
1606135077.802,-71.777,-37.598,-31.738,-150.391,0.000
1606135077.805,-102.051,-42.480,-39.062,-291.016,0.000
1606135077.809,-32.715,-36.133,-41.504,-89.844,0.000
1606135077.813,47.852,-27.344,-36.133,181.152,0.000
1606135077.817,27.344,-30.273,-37.598,166.992,0.000
1606135077.821,-75.195,-48.340,-42.480,-123.535,0.000
1606135077.825,-115.234,-48.340,-36.133,-289.062,0.000
1606135077.829,-45.410,-31.738,-26.367,-117.188,0.000
1606135077.833,36.133,-25.879,-33.691,155.273,0.000
1606135077.837,37.598,-20.996,-35.156,187.500,0.000
1606135077.841,-53.711,-23.438,-32.715,-77.637,0.000
1606135077.845,-117.188,-32.227,-27.832,-272.949,0.000
1606135077.848,-59.570,-38.086,-29.785,-150.879,0.000
1606135077.852,38.086,-31.738,-32.227,139.160,0.000
1606135077.856,48.340,-25.391,-28.320,218.750,0.000
1606135077.860,-37.598,-37.598,-26.855,-31.738,0.000
1606135077.864,-102.539,-51.758,-35.645,-258.789,0.000
1606135077.868,-69.336,-41.992,-45.898,-189.453,0.000
1606135077.872,27.344,-25.879,-35.156,102.051,0.000
1606135077.876,62.988,-21.973,-31.738,229.004,0.000
1606135077.880,-15.625,-31.250,-33.203,4.395,0.000
1606135077.884,-93.750,-35.156,-27.344,-249.023,0.000
1606135077.888,-72.266,-31.738,-28.320,-214.355,0.000
1606135077.891,23.926,-30.273,-30.762,75.195,0.000
1606135077.895,56.152,-34.668,-25.391,221.191,0.000
1606135077.899,-21.484,-39.551,-32.715,27.344,0.000
1606135077.903,-102.051,-36.133,-39.551,-236.328,0.000
1606135077.907,-83.496,-28.809,-38.086,-235.352,0.000
1606135077.911,21.484,-21.973,-33.203,48.340,0.000
1606135077.915,66.406,-22.949,-32.715,214.844,0.000
1606135077.919,3.418,-27.832,-35.645,58.105,0.000
1606135077.923,-89.355,-38.086,-38.086,-218.750,0.000
1606135077.927,-98.633,-38.086,-37.109,-267.578,0.000
1606135077.930,-3.418,-26.367,-24.414,1.465,0.000
1606135077.934,52.246,-23.438,-20.996,200.684,0.000
1606135077.938,-1.953,-27.344,-33.691,78.125,0.000
1606135077.942,-92.285,-28.320,-38.574,-207.031,0.000
1606135077.946,-108.887,-28.809,-35.156,-282.715,0.000
1606135077.950,-25.879,-29.785,-31.250,-30.273,0.000
1606135077.954,46.387,-24.414,-20.508,208.984,0.000
1606135077.958,4.395,-20.020,-18.555,132.812,0.000
1606135077.962,-99.609,-38.574,-33.203,-163.086,0.000
1606135077.966,-124.023,-48.828,-36.621,-288.086,0.000
1606135077.970,-42.480,-37.109,-31.250,-66.406,0.000
1606135077.973,42.969,-28.320,-26.855,202.148,0.000
1606135077.977,21.484,-25.391,-24.414,168.945,0.000
1606135077.981,-83.984,-29.785,-31.738,-123.047,0.000
1606135077.985,-117.188,-27.832,-35.645,-279.297,0.000
1606135077.989,-37.109,-24.414,-33.203,-97.656,0.000
1606135077.993,48.340,-21.973,-27.344,172.852,0.000
1606135077.997,38.086,-17.090,-24.902,188.965,0.000
1606135078.001,-58.105,-23.438,-26.367,-81.543,0.000
1606135078.005,-106.445,-37.109,-26.367,-268.066,0.000
1606135078.009,-48.828,-37.598,-26.367,-133.301,0.000
1606135078.013,39.551,-28.320,-26.367,141.113,0.000
1606135078.016,44.922,-21.973,-27.344,201.660,0.000
1606135078.020,-46.387,-30.762,-29.297,-62.500,0.000
1606135078.024,-106.934,-39.062,-31.250,-279.785,0.000
1606135078.028,-55.176,-26.855,-23.926,-165.527,0.000
1606135078.032,39.062,-17.578,-24.414,131.836,0.000
1606135078.036,58.105,-24.414,-22.949,227.539,0.000
1606135078.040,-30.762,-30.273,-20.996,-6.836,0.000
1606135078.044,-113.770,-32.715,-33.691,-249.512,0.000
1606135078.048,-72.266,-25.391,-32.227,-186.035,0.000
1606135078.052,31.250,-18.555,-25.391,100.586,0.000
1606135078.055,59.082,-19.531,-26.855,219.727,0.000
1606135078.059,-21.973,-25.879,-25.879,8.789,0.000
1606135078.063,-108.398,-17.578,-35.156,-251.953,0.000
1606135078.067,-79.590,-18.555,-36.621,-229.004,0.000
1606135078.071,25.391,-28.320,-36.133,56.641,0.000
1606135078.075,60.547,-23.926,-33.203,215.820,0.000
1606135078.079,-13.184,-22.949,-30.273,44.434,0.000
1606135078.083,-106.445,-26.367,-33.203,-229.004,0.000
1606135078.087,-104.980,-29.785,-24.414,-257.812,0.000
1606135078.091,0.488,-28.320,-24.902,22.949,0.000
1606135078.095,62.500,-25.391,-29.785,226.074,0.000
1606135078.098,7.324,-23.438,-22.949,80.078,0.000
1606135078.102,-91.309,-24.414,-27.832,-218.750,0.000
1606135078.106,-105.957,-41.504,-36.133,-285.645,0.000
1606135078.110,-13.184,-41.016,-27.344,-22.949,0.000
1606135078.114,52.734,-28.809,-20.508,203.125,0.000
1606135078.118,7.812,-32.227,-18.066,107.422,0.000
1606135078.122,-92.285,-34.180,-25.391,-192.383,0.000
1606135078.126,-116.699,-38.086,-40.527,-295.410,0.000
1606135078.130,-28.809,-36.133,-33.203,-50.293,0.000
1606135078.134,44.434,-28.320,-16.602,197.266,0.000
1606135078.138,14.648,-32.715,-16.113,145.996,0.000
1606135078.141,-80.566,-26.855,-28.809,-134.277,0.000
1606135078.145,-118.164,-22.461,-37.598,-285.645,0.000
1606135078.149,-37.598,-34.668,-32.715,-100.586,0.000
1606135078.153,49.805,-35.156,-23.438,168.457,0.000
1606135078.157,31.250,-32.227,-23.438,159.668,0.000
1606135078.161,-65.918,-31.738,-24.414,-127.441,0.000
1606135078.165,-113.770,-41.504,-19.531,-299.805,0.000
1606135078.169,-51.270,-47.363,-27.832,-142.090,0.000
1606135078.173,41.016,-42.969,-23.438,148.926,0.000
1606135078.177,34.668,-42.480,-24.414,188.477,0.000
1606135078.180,-72.266,-41.992,-39.062,-91.309,0.000
1606135078.184,-127.441,-42.480,-39.062,-280.762,0.000
1606135078.188,-60.547,-38.086,-35.645,-151.367,0.000
1606135078.192,33.691,-29.297,-30.273,127.930,0.000
1606135078.196,35.156,-36.133,-26.367,189.453,0.000
1606135078.200,-58.105,-35.156,-29.785,-69.336,0.000
1606135078.204,-116.699,-24.902,-31.738,-287.109,0.000
1606135078.208,-65.430,-38.086,-20.996,-191.406,0.000
1606135078.212,30.762,-37.598,-20.508,100.098,0.000
1606135078.216,46.875,-20.996,-28.320,208.008,0.000
1606135078.220,-39.551,-19.531,-26.367,-12.207,0.000
1606135078.223,-121.582,-30.273,-31.738,-264.648,0.000
1606135078.227,-98.145,-32.715,-43.457,-221.680,0.000
1606135078.231,8.301,-25.391,-40.039,75.684,0.000
1606135078.235,48.828,-19.043,-27.344,227.539,0.000
1606135078.239,-24.902,-26.367,-26.855,27.344,0.000
1606135078.243,-109.863,-30.273,-29.297,-250.977,0.000
1606135078.247,-107.422,-30.273,-34.180,-257.812,0.000
1606135078.251,-10.254,-29.785,-36.621,22.949,0.000
1606135078.255,45.898,-25.391,-27.832,205.078,0.000
1606135078.259,-19.043,-33.203,-24.902,55.176,0.000
1606135078.263,-111.328,-39.062,-31.250,-224.609,0.000
1606135078.266,-107.422,-35.156,-36.133,-267.578,0.000
1606135078.270,-5.859,-21.973,-31.738,6.836,0.000
1606135078.274,60.547,-15.625,-14.648,222.656,0.000
1606135078.278,6.836,-26.367,-19.531,105.957,0.000
1606135078.282,-98.633,-20.020,-25.391,-187.988,0.000
1606135078.286,-105.957,-19.531,-21.973,-268.555,0.000
1606135078.290,-10.742,-31.250,-29.785,-22.461,0.000
1606135078.294,58.594,-30.762,-24.414,204.590,0.000
1606135078.298,34.668,-29.785,-23.926,135.254,0.000
1606135078.302,-68.848,-32.715,-31.738,-159.180,0.000
1606135078.305,-100.586,-32.715,-35.156,-278.809,0.000
1606135078.309,-13.184,-32.227,-29.785,-56.152,0.000
1606135078.313,55.176,-30.762,-25.391,196.289,0.000
1606135078.317,20.996,-28.809,-26.367,159.180,0.000
1606135078.321,-78.125,-40.039,-32.227,-140.137,0.000
1606135078.325,-113.281,-41.992,-34.668,-288.086,0.000
1606135078.329,-32.227,-30.273,-29.297,-90.820,0.000
1606135078.333,52.246,-25.879,-22.461,175.293,0.000
1606135078.337,35.156,-31.250,-20.508,176.758,0.000
1606135078.341,-60.547,-31.738,-33.203,-106.445,0.000
1606135078.345,-116.211,-17.090,-44.922,-286.133,0.000
1606135078.348,-53.711,-22.949,-40.039,-139.160,0.000
1606135078.352,44.434,-29.785,-36.133,136.719,0.000
1606135078.356,44.922,-32.715,-34.180,185.059,0.000
1606135078.360,-55.664,-36.133,-32.227,-73.242,0.000
1606135078.364,-112.793,-26.855,-30.762,-272.461,0.000
1606135078.368,-60.059,-23.926,-25.879,-172.363,0.000
1606135078.372,33.691,-25.391,-28.320,108.398,0.000
1606135078.376,51.270,-23.926,-26.367,200.684,0.000
1606135078.380,-40.527,-36.621,-25.879,-45.410,0.000
1606135078.384,-111.816,-41.992,-34.180,-278.809,0.000
1606135078.388,-77.148,-36.133,-32.715,-210.449,0.000
1606135078.391,21.484,-35.156,-28.320,86.426,0.000
1606135078.395,52.734,-26.855,-29.297,216.797,0.000
1606135078.399,-30.273,-32.227,-35.645,5.371,0.000
1606135078.403,-111.328,-43.457,-38.574,-246.582,0.000
1606135078.407,-86.914,-34.668,-31.250,-221.680,0.000
1606135078.411,13.184,-33.691,-29.297,62.500,0.000
1606135078.415,53.711,-38.574,-34.668,214.355,0.000
1606135078.419,-13.184,-33.691,-33.691,53.711,0.000
1606135078.423,-89.355,-32.715,-36.133,-193.359,0.000
1606135078.427,-81.543,-34.180,-39.062,-222.656,0.000
1606135078.430,10.254,-31.250,-35.156,41.504,0.000
1606135078.434,64.453,-28.320,-22.461,237.305,0.000
1606135078.438,6.836,-23.438,-19.531,102.539,0.000
1606135078.442,-85.449,-25.391,-32.227,-179.199,0.000
1606135078.446,-94.238,-27.832,-33.691,-244.629,0.000
1606135078.450,-6.348,-27.344,-27.344,7.812,0.000
1606135078.454,54.688,-27.344,-23.438,220.215,0.000
1606135078.458,8.789,-34.180,-19.531,112.793,0.000
1606135078.462,-83.496,-35.645,-32.227,-178.711,0.000
1606135078.466,-102.539,-31.250,-41.504,-269.531,0.000
1606135078.470,-21.973,-32.227,-32.227,-30.273,0.000
1606135078.473,47.363,-33.691,-23.926,208.008,0.000
1606135078.477,19.043,-36.621,-21.973,150.879,0.000
1606135078.481,-80.078,-34.180,-26.855,-141.602,0.000
1606135078.485,-120.117,-33.691,-35.156,-278.320,0.000
1606135078.489,-38.574,-34.180,-29.785,-75.195,0.000
1606135078.493,46.875,-26.855,-19.531,188.477,0.000
1606135078.497,24.902,-27.832,-18.555,171.875,0.000
1606135078.501,-72.754,-31.250,-20.508,-115.723,0.000
1606135078.505,-122.070,-39.551,-31.250,-280.762,0.000
1606135078.509,-63.477,-46.387,-34.180,-119.629,0.000
1606135078.513,21.484,-31.250,-23.926,154.785,0.000
1606135078.516,23.926,-24.902,-21.484,196.289,0.000
1606135078.520,-67.383,-24.902,-32.227,-75.195,0.000
1606135078.524,-128.418,-17.090,-37.598,-278.320,0.000
1606135078.528,-70.801,-24.414,-29.297,-152.344,0.000
1606135078.532,21.973,-25.391,-29.297,125.000,0.000
1606135078.536,28.320,-20.020,-27.832,189.941,0.000
1606135078.540,-56.641,-23.926,-23.438,-59.570,0.000
1606135078.544,-114.746,-27.344,-25.391,-278.320,0.000
1606135078.548,-68.848,-27.344,-19.531,-184.570,0.000
1606135078.552,21.484,-25.879,-24.414,101.074,0.000
1606135078.555,41.016,-32.715,-21.484,199.707,0.000
1606135078.559,-43.945,-25.391,-16.602,-15.137,0.000
1606135078.563,-118.652,-16.113,-27.344,-252.930,0.000
1606135078.567,-92.773,-33.691,-29.297,-212.891,0.000
1606135078.571,2.441,-35.156,-22.949,77.637,0.000
1606135078.575,41.504,-37.109,-25.391,208.496,0.000
1606135078.579,-27.344,-35.156,-29.297,14.160,0.000
1606135078.583,-106.934,-29.297,-33.203,-235.352,0.000
1606135078.587,-86.914,-34.668,-32.227,-225.098,0.000
1606135078.591,14.160,-36.133,-27.344,53.223,0.000
1606135078.595,59.570,-36.133,-30.273,225.586,0.000
1606135078.598,-4.883,-36.133,-28.809,73.242,0.000
1606135078.602,-95.703,-33.203,-31.250,-201.660,0.000
1606135078.606,-93.750,-31.250,-29.785,-232.422,0.000
1606135078.610,7.812,-26.367,-23.926,38.574,0.000
1606135078.614,62.012,-24.902,-32.227,229.004,0.000
1606135078.618,3.418,-32.715,-37.598,104.004,0.000
1606135078.622,-87.402,-35.645,-33.203,-177.734,0.000
1606135078.626,-96.680,-37.109,-28.320,-243.164,0.000
1606135078.630,-19.043,-29.785,-29.785,-5.859,0.000
1606135078.634,39.062,-24.902,-30.273,205.078,0.000
1606135078.638,-1.953,-30.273,-29.297,128.906,0.000
1606135078.641,-97.656,-37.109,-36.621,-155.762,0.000
1606135078.645,-115.234,-37.598,-38.574,-269.043,0.000
1606135078.649,-27.344,-29.297,-30.273,-55.664,0.000
1606135078.653,48.340,-25.879,-38.086,187.500,0.000
1606135078.657,33.691,-22.461,-43.457,155.762,0.000
1606135078.661,-61.035,-26.855,-38.574,-128.906,0.000
1606135078.665,-106.934,-42.480,-32.227,-278.809,0.000
1606135078.669,-29.297,-31.250,-27.832,-95.703,0.000
1606135078.673,60.547,-12.207,-29.785,166.992,0.000
1606135078.677,41.992,-16.602,-26.367,171.387,0.000
1606135078.680,-65.430,-28.809,-33.691,-113.281,0.000
1606135078.684,-114.258,-28.320,-31.738,-286.133,0.000
1606135078.688,-48.340,-24.414,-24.902,-129.395,0.000
1606135078.692,34.668,-23.926,-31.738,134.766,0.000
1606135078.696,29.297,-20.508,-32.715,169.922,0.000
1606135078.700,-57.617,-34.180,-31.738,-83.984,0.000
1606135078.704,-112.305,-45.410,-31.738,-273.926,0.000
1606135078.708,-69.824,-31.738,-29.785,-172.852,0.000
1606135078.712,22.461,-22.461,-27.344,100.098,0.000
1606135078.716,36.133,-21.484,-23.926,186.523,0.000
1606135078.720,-48.828,-28.320,-27.344,-44.922,0.000
1606135078.723,-111.328,-36.133,-25.391,-263.672,0.000
1606135078.727,-72.754,-36.133,-24.414,-195.801,0.000
1606135078.731,19.531,-27.832,-27.344,82.520,0.000
1606135078.735,45.410,-26.855,-20.020,208.008,0.000
1606135078.739,-32.715,-33.691,-15.137,3.418,0.000
1606135078.743,-110.840,-31.250,-27.344,-241.699,0.000
1606135078.747,-83.984,-29.297,-32.715,-208.496,0.000
1606135078.751,11.719,-29.785,-26.367,65.430,0.000
1606135078.755,51.270,-24.902,-18.066,208.984,0.000
1606135078.759,-21.973,-29.297,-19.531,26.367,0.000
1606135078.763,-114.258,-38.086,-32.715,-242.676,0.000
1606135078.766,-104.004,-34.180,-20.996,-249.023,0.000
1606135078.770,-1.953,-28.809,-17.090,27.344,0.000
1606135078.774,55.664,-24.902,-26.855,215.820,0.000
1606135078.778,-7.324,-27.832,-25.391,85.938,0.000
1606135078.782,-101.562,-33.691,-31.250,-188.477,0.000
1606135078.786,-96.680,-31.250,-31.250,-238.770,0.000
1606135078.790,0.488,-24.414,-20.996,8.301,0.000
1606135078.794,61.035,-23.926,-18.555,216.797,0.000
1606135078.798,12.207,-21.484,-24.902,125.000,0.000
1606135078.802,-89.355,-36.621,-30.273,-166.504,0.000
1606135078.805,-114.746,-54.199,-33.691,-270.508,0.000
1606135078.809,-21.973,-38.086,-29.297,-45.410,0.000
1606135078.813,53.711,-22.949,-14.160,187.500,0.000
1606135078.817,18.555,-24.902,-15.625,133.301,0.000
1606135078.821,-75.195,-32.715,-28.809,-151.367,0.000
1606135078.825,-111.328,-41.992,-26.855,-290.039,0.000
1606135078.829,-29.297,-40.039,-28.809,-87.402,0.000
1606135078.833,52.246,-34.668,-33.691,162.598,0.000
1606135078.837,27.344,-30.273,-32.715,141.113,0.000
1606135078.841,-60.547,-30.273,-32.227,-126.465,0.000
1606135078.845,-95.703,-30.273,-31.738,-278.320,0.000
1606135078.848,-29.297,-25.879,-33.691,-119.141,0.000
1606135078.852,53.223,-26.855,-23.438,150.391,0.000
1606135078.856,42.480,-27.832,-21.973,174.316,0.000
1606135078.860,-57.129,-44.922,-31.250,-94.238,0.000
1606135078.864,-116.211,-52.734,-39.551,-279.297,0.000
1606135078.868,-58.594,-36.133,-39.062,-153.320,0.000
1606135078.872,30.762,-32.227,-28.809,126.465,0.000
1606135078.876,33.203,-33.203,-29.297,189.941,0.000
1606135078.880,-52.246,-39.551,-29.297,-57.129,0.000
1606135078.884,-117.188,-47.852,-33.691,-272.949,0.000
1606135078.888,-77.148,-49.805,-41.016,-189.453,0.000
1606135078.891,20.996,-36.621,-37.598,96.680,0.000
1606135078.895,35.156,-28.809,-30.273,199.707,0.000
1606135078.899,-46.875,-36.621,-31.738,-19.043,0.000
1606135078.903,-123.535,-60.059,-41.016,-256.348,0.000
1606135078.907,-95.703,-50.293,-37.598,-205.566,0.000
1606135078.911,8.789,-28.809,-27.832,76.172,0.000
1606135078.915,41.504,-29.297,-15.137,199.707,0.000
1606135078.919,-33.691,-29.785,-15.137,13.184,0.000
1606135078.923,-107.422,-30.762,-30.273,-229.004,0.000
1606135078.927,-89.844,-34.180,-31.250,-225.098,0.000
1606135078.930,2.930,-34.668,-22.949,43.457,0.000
1606135078.934,52.734,-21.484,-23.438,212.891,0.000
1606135078.938,-8.789,-25.391,-25.391,54.688,0.000
1606135078.942,-103.027,-55.664,-29.785,-223.145,0.000
1606135078.946,-93.750,-46.875,-30.762,-252.441,0.000
1606135078.950,2.930,-30.762,-28.809,11.719,0.000
1606135078.954,53.711,-26.367,-27.344,202.148,0.000
1606135078.958,-6.348,-32.715,-25.879,83.496,0.000
1606135078.962,-105.957,-46.387,-39.551,-195.801,0.000
1606135078.966,-113.281,-38.574,-37.109,-269.043,0.000
1606135078.970,-16.113,-26.367,-27.344,-12.695,0.000
1606135078.973,43.945,-20.508,-23.926,200.684,0.000
1606135078.977,3.906,-25.879,-20.996,116.699,0.000
1606135078.981,-80.566,-29.785,-26.367,-149.902,0.000
1606135078.985,-102.539,-23.926,-25.391,-252.930,0.000
1606135078.989,-18.555,-22.461,-22.949,-40.039,0.000
1606135078.993,51.758,-28.809,-24.902,184.570,0.000
1606135078.997,20.996,-21.973,-17.578,141.113,0.000
1606135079.001,-78.125,-43.457,-20.508,-135.742,0.000
1606135079.005,-122.559,-68.848,-30.762,-278.320,0.000
1606135079.009,-46.875,-41.016,-25.391,-90.820,0.000
1606135079.013,36.621,-22.461,-20.020,166.504,0.000
1606135079.016,23.926,-19.043,-22.461,166.504,0.000
1606135079.020,-70.801,-26.855,-29.785,-108.887,0.000
1606135079.024,-122.559,-28.809,-36.133,-289.062,0.000
1606135079.028,-56.641,-21.973,-32.227,-136.719,0.000
1606135079.032,38.086,-17.578,-28.320,146.484,0.000
1606135079.036,35.645,-12.207,-24.414,187.500,0.000
1606135079.040,-55.664,-21.973,-25.391,-70.312,0.000
1606135079.044,-109.863,-33.691,-31.250,-267.578,0.000
1606135079.048,-50.781,-24.414,-26.367,-157.227,0.000
1606135079.052,42.969,-22.949,-17.090,116.699,0.000
1606135079.055,46.387,-19.531,-27.832,191.895,0.000
1606135079.059,-47.852,-25.879,-37.598,-47.363,0.000
1606135079.063,-115.234,-40.039,-38.086,-273.438,0.000
1606135079.067,-75.195,-36.133,-36.133,-202.637,0.000
1606135079.071,15.625,-21.484,-30.762,71.777,0.000
1606135079.075,41.016,-16.113,-33.203,187.012,0.000
1606135079.079,-27.344,-17.090,-31.250,2.930,0.000
1606135079.083,-106.445,-25.391,-37.109,-234.375,0.000
1606135079.087,-89.355,-36.133,-40.039,-214.844,0.000
1606135079.091,13.184,-36.133,-29.785,66.895,0.000
1606135079.095,59.082,-26.855,-26.855,226.562,0.000
1606135079.098,-10.742,-21.973,-28.809,56.152,0.000
1606135079.102,-104.004,-33.691,-33.691,-212.402,0.000
1606135079.106,-98.145,-40.039,-32.715,-227.051,0.000
1606135079.110,-3.418,-35.645,-27.344,50.293,0.000
1606135079.114,48.828,-33.203,-26.855,229.980,0.000
1606135079.118,-4.883,-38.086,-27.344,85.938,0.000
1606135079.122,-94.727,-34.180,-31.738,-181.641,0.000
1606135079.126,-97.656,-30.762,-36.621,-227.051,0.000
1606135079.130,-4.883,-29.785,-24.902,17.090,0.000
1606135079.134,54.199,-26.367,-16.113,214.844,0.000
1606135079.138,9.277,-26.367,-30.762,102.539,0.000
1606135079.141,-82.031,-38.574,-39.062,-174.805,0.000
1606135079.145,-100.586,-43.945,-36.621,-260.254,0.000
1606135079.149,-11.719,-29.785,-24.902,-33.203,0.000
1606135079.153,60.059,-24.902,-18.066,194.824,0.000
1606135079.157,22.949,-25.391,-22.949,138.672,0.000
1606135079.161,-70.312,-25.879,-27.344,-139.648,0.000
1606135079.165,-98.633,-22.949,-19.043,-262.207,0.000
1606135079.169,-25.879,-21.973,-10.254,-49.805,0.000
1606135079.173,56.641,-20.996,-11.719,200.684,0.000
1606135079.177,32.227,-17.578,-18.066,163.574,0.000
1606135079.180,-70.801,-43.945,-27.832,-131.836,0.000
1606135079.184,-112.793,-77.148,-35.645,-297.363,0.000
1606135079.188,-44.922,-46.387,-32.715,-118.652,0.000
1606135079.192,43.457,-16.602,-26.367,157.715,0.000
1606135079.196,36.133,-10.742,-22.461,174.805,0.000
1606135079.200,-60.547,-19.531,-27.832,-97.168,0.000
1606135079.204,-104.004,-30.273,-27.832,-276.367,0.000
1606135079.208,-44.434,-28.809,-20.508,-138.672,0.000
1606135079.212,37.109,-28.809,-17.578,138.184,0.000
1606135079.216,37.109,-19.531,-20.996,195.312,0.000
1606135079.220,-53.223,-33.691,-29.297,-51.270,0.000
1606135079.223,-114.258,-61.523,-33.691,-261.719,0.000
1606135079.227,-79.102,-41.992,-28.320,-173.828,0.000
1606135079.231,20.996,-23.438,-14.648,111.816,0.000
1606135079.235,41.992,-23.438,-12.207,206.055,0.000
1606135079.239,-50.781,-26.367,-22.461,-17.090,0.000
1606135079.243,-121.094,-30.273,-29.297,-249.023,0.000
1606135079.247,-88.867,-25.879,-29.297,-206.055,0.000
1606135079.251,17.090,-17.090,-21.484,85.449,0.000
1606135079.255,48.340,-24.414,-22.949,210.938,0.000
1606135079.259,-26.855,-31.250,-27.344,4.395,0.000
1606135079.263,-105.469,-32.227,-27.344,-232.910,0.000
1606135079.266,-87.891,-30.273,-26.367,-204.102,0.000
1606135079.270,4.883,-25.879,-18.066,64.453,0.000
1606135079.274,43.945,-24.902,-15.625,209.961,0.000
1606135079.278,-18.066,-28.809,-20.996,41.016,0.000
1606135079.282,-99.609,-50.781,-30.273,-218.262,0.000
1606135079.286,-97.168,-47.852,-30.273,-242.188,0.000
1606135079.290,-8.789,-23.438,-20.508,21.973,0.000
1606135079.294,50.293,-22.461,-26.855,217.285,0.000
1606135079.298,-5.859,-25.391,-28.320,86.426,0.000
1606135079.302,-99.121,-36.621,-25.879,-193.848,0.000
1606135079.305,-103.516,-39.062,-26.855,-252.441,0.000
1606135079.309,-13.672,-27.832,-28.320,4.395,0.000
1606135079.313,55.664,-21.484,-23.926,223.633,0.000
1606135079.317,15.137,-22.949,-23.926,129.395,0.000
1606135079.321,-77.637,-33.203,-32.227,-153.809,0.000
1606135079.325,-102.539,-41.992,-34.180,-263.184,0.000
1606135079.329,-21.484,-32.715,-28.809,-50.293,0.000
1606135079.333,56.152,-25.391,-23.438,189.941,0.000
1606135079.337,29.785,-33.203,-32.715,145.508,0.000
1606135079.341,-62.012,-32.715,-37.109,-133.301,0.000
1606135079.345,-91.309,-21.973,-27.832,-260.254,0.000
1606135079.348,-25.879,-22.461,-35.156,-78.613,0.000
1606135079.352,53.711,-17.090,-33.691,165.527,0.000
1606135079.356,40.039,-24.902,-24.902,157.227,0.000
1606135079.360,-56.152,-21.973,-27.832,-104.980,0.000
1606135079.364,-100.586,7.324,-30.762,-267.090,0.000
1606135079.368,-48.828,-20.508,-31.250,-126.953,0.000
1606135079.372,35.156,-42.480,-28.320,138.672,0.000
1606135079.376,32.227,-36.133,-29.297,175.781,0.000
1606135079.380,-63.477,-39.551,-35.156,-78.125,0.000
1606135079.384,-115.234,-38.086,-38.086,-267.578,0.000
1606135079.388,-65.918,-39.062,-40.039,-160.156,0.000
1606135079.391,32.227,-34.668,-34.668,126.953,0.000
1606135079.395,44.434,-31.738,-26.367,208.496,0.000
1606135079.399,-46.387,-39.062,-29.785,-39.551,0.000
1606135079.403,-106.934,-39.062,-34.668,-244.629,0.000
1606135079.407,-68.848,-36.133,-41.504,-166.504,0.000
1606135079.411,23.926,-34.668,-38.574,102.051,0.000
1606135079.415,50.293,-33.203,-32.227,216.797,0.000
1606135079.419,-27.832,-31.250,-31.250,14.648,0.000
1606135079.423,-98.145,-30.273,-23.926,-215.332,0.000
1606135079.427,-74.219,-34.180,-31.738,-188.477,0.000
1606135079.430,25.391,-32.715,-32.227,84.961,0.000
1606135079.434,60.059,-27.832,-20.996,227.051,0.000
1606135079.438,-15.137,-33.203,-24.902,47.852,0.000
1606135079.442,-88.867,-40.039,-29.785,-204.590,0.000
1606135079.446,-78.125,-38.086,-32.227,-219.727,0.000
1606135079.450,17.578,-26.367,-23.926,52.246,0.000
1606135079.454,68.359,-19.043,-16.113,234.863,0.000
1606135079.458,11.230,-29.785,-23.438,86.426,0.000
1606135079.462,-79.102,-31.250,-35.156,-201.172,0.000
1606135079.466,-85.938,-25.391,-40.039,-261.230,0.000
1606135079.470,6.836,-29.785,-36.133,0.000,0.000
1606135079.473,65.918,-29.297,-28.320,208.984,0.000
1606135079.477,20.996,-30.762,-15.137,102.051,0.000
1606135079.481,-84.961,-40.039,-28.809,-187.988,0.000
1606135079.485,-113.281,-44.434,-39.062,-269.531,0.000
1606135079.489,-21.484,-36.133,-29.297,-21.484,0.000
1606135079.493,49.805,-35.156,-28.320,206.055,0.000
1606135079.497,16.113,-36.133,-29.297,143.066,0.000
1606135079.501,-75.195,-40.527,-30.273,-135.742,0.000
1606135079.505,-106.445,-48.340,-33.203,-259.766,0.000
1606135079.509,-27.344,-35.156,-30.762,-48.340,0.000
1606135079.513,49.316,-26.367,-28.809,193.848,0.000
1606135079.516,24.414,-28.320,-29.297,153.320,0.000
1606135079.520,-74.219,-37.109,-31.250,-130.859,0.000
1606135079.524,-115.723,-41.504,-30.273,-279.785,0.000
1606135079.528,-42.969,-34.668,-32.715,-104.980,0.000
1606135079.532,45.898,-30.762,-35.156,160.645,0.000
1606135079.536,31.738,-32.227,-33.691,167.969,0.000
1606135079.540,-56.152,-24.414,-24.414,-103.027,0.000
1606135079.544,-101.562,-18.066,-20.996,-276.855,0.000
1606135079.548,-55.176,-21.973,-26.855,-145.508,0.000
1606135079.552,35.645,-24.902,-27.832,124.512,0.000
1606135079.555,40.527,-20.996,-27.832,172.852,0.000
1606135079.559,-51.758,-30.273,-27.832,-80.078,0.000
1606135079.563,-114.746,-72.754,-29.297,-279.297,0.000
1606135079.567,-72.754,-61.035,-29.297,-178.711,0.000
1606135079.571,19.043,-20.020,-24.414,97.656,0.000
1606135079.575,41.016,-22.461,-28.809,187.500,0.000
1606135079.579,-39.551,-31.738,-28.809,-33.691,0.000
1606135079.583,-117.188,-29.785,-33.691,-260.742,0.000
1606135079.587,-86.426,-32.227,-42.480,-204.102,0.000
1606135079.591,18.555,-24.902,-26.367,94.238,0.000
1606135079.595,56.152,-16.602,-20.508,225.586,0.000
1606135079.598,-26.367,-30.273,-27.832,10.742,0.000
1606135079.602,-111.328,-57.129,-31.738,-239.258,0.000
1606135079.606,-91.797,-53.223,-37.109,-217.773,0.000
1606135079.610,6.836,-25.391,-32.715,59.570,0.000
1606135079.614,49.316,-20.508,-30.762,210.938,0.000
1606135079.618,-18.555,-28.320,-35.156,41.016,0.000
1606135079.622,-101.074,-34.180,-38.086,-220.215,0.000
1606135079.626,-90.332,-35.156,-41.016,-238.770,0.000
1606135079.630,8.789,-35.645,-31.250,27.344,0.000
1606135079.634,65.430,-34.180,-22.949,205.566,0.000
1606135079.638,15.625,-21.973,-19.043,91.309,0.000
1606135079.641,-80.078,-43.945,-26.855,-172.363,0.000
1606135079.645,-102.539,-67.871,-39.551,-251.465,0.000
1606135079.649,-13.184,-39.062,-29.785,-15.137,0.000
1606135079.653,49.805,-22.949,-18.066,190.918,0.000
1606135079.657,4.395,-19.531,-28.320,102.539,0.000
1606135079.661,-87.891,-26.367,-37.598,-172.363,0.000
1606135079.665,-108.398,-37.109,-33.203,-275.391,0.000
1606135079.669,-24.902,-38.574,-27.832,-52.734,0.000
1606135079.673,45.898,-36.133,-22.949,193.848,0.000
1606135079.677,13.184,-35.156,-19.043,146.973,0.000
1606135079.680,-80.566,-33.691,-25.879,-138.184,0.000
1606135079.684,-108.398,-28.320,-29.785,-266.113,0.000
1606135079.688,-27.832,-20.508,-23.926,-62.500,0.000
1606135079.692,49.805,-18.066,-17.578,184.570,0.000
1606135079.696,22.949,-17.090,-18.555,164.062,0.000
1606135079.700,-66.406,-41.016,-19.043,-104.980,0.000
1606135079.704,-104.980,-62.012,-22.461,-272.949,0.000
1606135079.708,-40.039,-30.762,-20.020,-120.605,0.000
1606135079.712,42.480,-19.531,-19.043,142.578,0.000
1606135079.716,41.016,-29.297,-31.250,171.387,0.000
1606135079.720,-49.316,-32.227,-32.715,-76.660,0.000
1606135079.723,-104.980,-27.832,-28.320,-263.184,0.000
1606135079.727,-55.176,-23.926,-29.785,-153.320,0.000
1606135079.731,34.668,-20.508,-20.996,123.047,0.000
1606135079.735,46.387,-16.113,-20.508,204.590,0.000
1606135079.739,-44.922,-20.020,-29.297,-41.016,0.000
1606135079.743,-110.840,-65.918,-33.691,-256.836,0.000
1606135079.747,-72.266,-74.219,-31.250,-172.363,0.000
1606135079.751,23.438,-31.250,-22.461,106.445,0.000
1606135079.755,50.781,-22.461,-26.855,215.820,0.000
1606135079.759,-25.879,-31.738,-29.785,0.000,0.000
1606135079.763,-102.051,-38.574,-28.320,-233.887,0.000
1606135079.766,-71.289,-27.832,-23.438,-189.941,0.000
1606135079.770,32.227,-12.695,-21.973,83.008,0.000
1606135079.774,66.406,-7.812,-19.531,218.262,0.000
1606135079.778,-10.742,-11.230,-25.391,37.598,0.000
1606135079.782,-93.750,-41.992,-29.297,-212.402,0.000
1606135079.786,-82.031,-43.457,-27.832,-213.867,0.000
1606135079.790,13.672,-15.137,-29.297,50.781,0.000
1606135079.794,57.129,-18.555,-29.297,211.426,0.000
1606135079.798,-8.789,-25.391,-30.762,62.500,0.000
1606135079.802,-95.703,-29.297,-29.297,-197.266,0.000
1606135079.805,-101.074,-29.785,-32.715,-239.746,0.000
1606135079.809,-14.648,-28.809,-37.598,6.348,0.000
1606135079.813,54.688,-20.508,-32.227,205.078,0.000
1606135079.817,10.742,-20.996,-27.832,90.820,0.000
1606135079.821,-88.867,-30.762,-33.203,-188.965,0.000
1606135079.825,-98.145,-22.461,-27.344,-260.254,0.000
1606135079.829,-9.766,-13.184,-16.113,-15.137,0.000
1606135079.833,56.641,-22.461,-18.066,202.148,0.000
1606135079.837,20.996,-24.902,-17.578,120.605,0.000
1606135079.841,-78.613,-51.270,-28.809,-164.062,0.000
1606135079.845,-105.957,-77.148,-43.457,-277.832,0.000
1606135079.848,-25.879,-41.504,-34.668,-62.500,0.000
1606135079.852,51.758,-17.578,-18.066,180.664,0.000
1606135079.856,27.832,-22.461,-26.855,139.648,0.000
1606135079.860,-66.895,-24.902,-30.762,-124.023,0.000
1606135079.864,-108.398,-25.391,-28.320,-262.207,0.000
1606135079.868,-45.410,-24.902,-25.391,-109.863,0.000
1606135079.872,36.133,-24.902,-19.531,151.367,0.000
1606135079.876,23.438,-19.043,-28.809,170.898,0.000
1606135079.880,-79.590,-44.434,-36.133,-109.863,0.000
1606135079.884,-125.000,-68.848,-27.832,-289.062,0.000
1606135079.888,-53.223,-35.156,-20.996,-146.973,0.000
1606135079.891,30.273,-20.508,-18.066,133.789,0.000
1606135079.895,27.344,-23.438,-27.832,186.035,0.000
1606135079.899,-56.641,-24.414,-30.762,-68.848,0.000
1606135079.903,-118.164,-31.250,-20.996,-266.113,0.000
1606135079.907,-80.566,-32.715,-28.809,-175.293,0.000
1606135079.911,12.695,-30.762,-30.762,97.168,0.000
1606135079.915,35.156,-24.902,-21.484,185.547,0.000
1606135079.919,-47.363,-32.227,-23.438,-38.574,0.000
1606135079.923,-111.816,-58.105,-31.250,-252.930,0.000
1606135079.927,-78.613,-51.270,-30.273,-190.430,0.000
1606135079.930,18.066,-28.320,-25.879,83.984,0.000
1606135079.934,45.410,-21.973,-24.902,193.848,0.000
1606135079.938,-25.879,-22.461,-28.320,-5.859,0.000
1606135079.942,-96.680,-42.480,-31.738,-244.141,0.000
1606135079.946,-83.984,-41.992,-27.344,-223.145,0.000
1606135079.950,15.625,-22.949,-22.461,59.570,0.000
1606135079.954,58.105,-18.555,-30.273,217.773,0.000
1606135079.958,-15.625,-27.832,-38.086,48.828,0.000
1606135079.962,-95.703,-36.621,-38.086,-212.891,0.000
1606135079.966,-83.496,-24.902,-34.668,-230.957,0.000
1606135079.970,6.836,-15.137,-33.203,33.203,0.000
1606135079.973,55.664,-18.066,-30.273,204.102,0.000
1606135079.977,-4.395,-22.461,-27.344,68.359,0.000
1606135079.981,-93.262,-23.438,-28.809,-202.148,0.000
1606135079.985,-100.586,-23.926,-24.902,-264.160,0.000
1606135079.989,-18.066,-24.902,-27.832,-26.367,0.000
1606135079.993,47.852,-22.949,-29.297,180.664,0.000
1606135079.997,5.371,-22.461,-29.297,84.961,0.000
1606135080.001,-91.309,-54.688,-33.203,-186.523,0.000
1606135080.005,-106.445,-62.012,-34.668,-276.855,0.000
1606135080.009,-26.367,-20.508,-30.273,-60.059,0.000
1606135080.013,43.457,-13.672,-29.297,174.316,0.000
1606135080.016,15.625,-14.648,-29.785,125.488,0.000
1606135080.020,-77.148,-31.250,-31.250,-151.855,0.000
1606135080.024,-112.793,-63.477,-38.574,-287.109,0.000
1606135080.028,-43.945,-43.457,-37.109,-94.727,0.000
1606135080.032,37.109,-16.113,-30.273,155.273,0.000
1606135080.036,26.855,-20.020,-29.297,146.484,0.000
1606135080.040,-58.105,-27.832,-33.203,-106.445,0.000
1606135080.044,-102.051,-37.109,-37.598,-271.973,0.000
1606135080.048,-41.016,-40.527,-39.062,-116.211,0.000
1606135080.052,52.246,-30.762,-22.461,155.273,0.000
1606135080.055,52.246,-23.926,-15.625,188.477,0.000
1606135080.059,-43.457,-33.691,-26.855,-66.895,0.000
1606135080.063,-102.051,-47.363,-31.250,-252.930,0.000
1606135080.067,-57.129,-42.480,-31.250,-136.719,0.000
1606135080.071,35.156,-29.785,-27.344,130.859,0.000
1606135080.075,44.434,-27.344,-26.367,194.336,0.000
1606135080.079,-49.805,-39.551,-29.297,-44.922,0.000
1606135080.083,-113.281,-41.016,-35.645,-257.812,0.000
1606135080.087,-75.684,-35.645,-33.691,-182.617,0.000
1606135080.091,17.090,-34.180,-30.762,91.309,0.000
1606135080.095,35.156,-24.902,-33.691,198.242,0.000
1606135080.098,-46.387,-25.879,-38.574,-8.789,0.000
1606135080.102,-117.188,-37.598,-34.180,-242.188,0.000
1606135080.106,-110.352,-38.086,-27.344,-216.309,0.000
1606135080.110,-28.809,-30.273,-29.297,52.734,0.000
1606135080.114,16.113,-31.250,-26.367,189.941,0.000
1606135080.118,-52.246,-39.551,-25.391,-0.977,0.000
1606135080.122,-132.324,-69.336,-30.273,-250.000,0.000
1606135080.126,-112.793,-75.195,-30.273,-237.305,0.000
1606135080.130,-16.602,-42.480,-23.438,36.621,0.000
1606135080.134,27.832,-35.645,-22.461,202.637,0.000
1606135080.138,-35.156,-40.039,-24.902,54.688,0.000
1606135080.141,-119.141,-44.434,-30.273,-198.242,0.000
1606135080.145,-107.910,-39.551,-27.832,-224.609,0.000
1606135080.149,-7.812,-33.203,-25.879,28.320,0.000
1606135080.153,45.410,-41.016,-29.785,214.844,0.000
1606135080.157,-3.906,-37.109,-26.855,119.141,0.000
1606135080.161,-90.820,-56.152,-30.762,-159.668,0.000
1606135080.165,-101.074,-67.871,-33.691,-246.582,0.000
1606135080.169,-5.371,-34.668,-30.762,-2.930,0.000
1606135080.173,67.383,-28.320,-22.461,213.379,0.000
1606135080.177,28.320,-39.062,-24.902,126.953,0.000
1606135080.180,-65.918,-43.945,-28.809,-145.020,0.000
1606135080.184,-89.844,-38.574,-27.832,-251.953,0.000
1606135080.188,-13.672,-31.250,-24.902,-47.852,0.000
1606135080.192,51.758,-32.715,-21.484,191.406,0.000
1606135080.196,28.809,-30.762,-24.414,149.414,0.000
1606135080.200,-69.336,-45.410,-30.762,-127.930,0.000
1606135080.204,-104.004,-55.176,-24.902,-251.953,0.000
1606135080.208,-28.320,-23.926,-9.766,-77.148,0.000
1606135080.212,44.434,-21.484,-13.672,154.297,0.000
1606135080.216,31.250,-21.973,-22.949,164.551,0.000
1606135080.220,-60.059,-28.809,-21.484,-88.379,0.000
1606135080.223,-102.539,-43.457,-21.484,-256.348,0.000
1606135080.227,-44.434,-25.391,-25.391,-124.023,0.000
1606135080.231,47.852,-10.742,-18.066,135.254,0.000
1606135080.235,57.617,-13.184,-11.230,184.082,0.000
1606135080.239,-41.016,-18.555,-24.414,-70.801,0.000
1606135080.243,-101.074,-22.949,-26.855,-270.508,0.000
1606135080.247,-44.434,-22.461,-20.508,-158.691,0.000
1606135080.251,45.898,-17.090,-19.043,123.535,0.000
1606135080.255,52.246,-16.113,-18.555,191.406,0.000
1606135080.259,-32.227,-17.578,-23.438,-37.598,0.000
1606135080.263,-101.074,-39.062,-21.973,-248.047,0.000
1606135080.266,-64.941,-31.738,-29.785,-181.641,0.000
1606135080.270,31.250,-9.766,-33.691,103.516,0.000
1606135080.274,57.617,-9.766,-27.832,220.703,0.000
1606135080.278,-20.508,-16.113,-26.855,16.113,0.000
1606135080.282,-101.562,-23.926,-24.902,-222.656,0.000
1606135080.286,-84.961,-20.508,-18.066,-196.777,0.000
1606135080.290,10.254,-15.137,-16.113,70.801,0.000
1606135080.294,57.617,-13.672,-24.414,221.680,0.000
1606135080.298,-3.906,-12.207,-23.438,62.500,0.000
1606135080.302,-89.844,-34.180,-20.508,-199.219,0.000
1606135080.305,-84.961,-47.363,-25.879,-229.004,0.000
1606135080.309,7.812,-20.996,-15.137,33.203,0.000
1606135080.313,50.293,-17.578,-11.719,210.449,0.000
1606135080.317,-13.672,-25.879,-23.438,71.777,0.000
1606135080.321,-102.051,-29.297,-29.297,-200.195,0.000
1606135080.325,-104.980,-27.344,-28.320,-249.512,0.000
1606135080.329,-15.137,-16.113,-18.066,0.488,0.000
1606135080.333,41.504,-8.301,-16.602,196.777,0.000
1606135080.337,-6.348,-17.578,-23.926,93.750,0.000
1606135080.341,-94.238,-27.832,-29.297,-178.223,0.000
1606135080.345,-104.004,-24.902,-31.738,-259.277,0.000
1606135080.348,-24.902,-30.273,-28.320,-44.434,0.000
1606135080.352,42.969,-31.250,-25.879,178.711,0.000
1606135080.356,15.137,-24.902,-28.320,127.930,0.000
1606135080.360,-75.684,-51.758,-27.344,-133.789,0.000
1606135080.364,-95.215,-58.105,-32.227,-246.094,0.000
1606135080.368,-25.879,-28.320,-38.574,-65.918,0.000
1606135080.372,52.246,-14.648,-29.785,172.852,0.000
1606135080.376,41.992,-12.207,-23.926,172.363,0.000
1606135080.380,-62.988,-25.391,-24.902,-100.586,0.000
1606135080.384,-109.863,-27.344,-27.832,-260.742,0.000
1606135080.388,-46.387,-28.320,-30.273,-101.562,0.000
1606135080.391,32.227,-33.691,-28.320,159.180,0.000
1606135080.395,36.621,-27.832,-24.414,186.035,0.000
1606135080.399,-52.734,-32.227,-19.043,-79.590,0.000
1606135080.403,-115.234,-74.219,-28.809,-278.809,0.000
1606135080.407,-61.035,-62.988,-34.668,-153.320,0.000
1606135080.411,35.156,-25.391,-26.367,118.652,0.000
1606135080.415,42.969,-20.020,-22.461,176.758,0.000
1606135080.419,-46.387,-19.531,-25.879,-58.594,0.000
1606135080.423,-106.445,-20.508,-22.461,-258.789,0.000
1606135080.427,-62.500,-18.066,-17.090,-169.434,0.000
1606135080.430,37.109,-21.973,-7.324,100.586,0.000
1606135080.434,52.734,-22.949,-11.230,195.801,0.000
1606135080.438,-32.715,-23.438,-33.203,-19.043,0.000
1606135080.442,-105.469,-50.781,-44.922,-251.953,0.000
1606135080.446,-72.754,-56.152,-42.480,-202.637,0.000
1606135080.450,28.320,-27.832,-31.250,80.566,0.000
1606135080.454,59.082,-16.602,-23.926,208.496,0.000
1606135080.458,-12.207,-19.531,-23.926,18.555,0.000
1606135080.462,-88.379,-20.996,-21.973,-222.656,0.000
1606135080.466,-73.730,-20.020,-24.414,-212.891,0.000
1606135080.470,21.973,-24.414,-22.949,62.012,0.000
1606135080.473,69.824,-24.902,-18.555,228.516,0.000
1606135080.477,-2.441,-23.926,-32.715,61.523,0.000
1606135080.481,-95.703,-38.086,-37.109,-199.219,0.000
1606135080.485,-88.867,-40.039,-31.250,-218.750,0.000
1606135080.489,3.906,-24.414,-39.062,33.691,0.000
1606135080.493,55.664,-21.973,-30.762,212.402,0.000
1606135080.497,2.441,-17.090,-23.438,85.449,0.000
1606135080.501,-86.914,-55.176,-20.508,-179.688,0.000
1606135080.505,-103.516,-86.914,-22.949,-248.535,0.000
1606135080.509,-13.184,-37.598,-23.438,-4.395,0.000
1606135080.513,58.105,-18.066,-27.344,214.355,0.000
1606135080.516,22.949,-20.996,-29.297,130.859,0.000
1606135080.520,-69.824,-24.414,-25.391,-147.461,0.000
1606135080.524,-99.121,-27.832,-33.203,-251.953,0.000
1606135080.528,-18.555,-21.973,-27.832,-40.039,0.000
1606135080.532,60.059,-16.113,-23.438,190.430,0.000
1606135080.536,29.785,-10.742,-20.508,154.785,0.000
1606135080.540,-74.707,-29.785,-25.879,-125.000,0.000
1606135080.544,-111.328,-53.223,-31.738,-270.996,0.000
1606135080.548,-35.645,-27.344,-22.949,-90.332,0.000
1606135080.552,43.945,-13.672,-21.484,162.109,0.000
1606135080.555,34.180,-17.578,-19.043,162.109,0.000
1606135080.559,-60.059,-24.414,-19.043,-103.516,0.000
1606135080.563,-108.887,-26.367,-20.996,-269.043,0.000
1606135080.567,-47.363,-21.484,-19.043,-116.211,0.000
1606135080.571,47.852,-22.949,-20.020,149.414,0.000
1606135080.575,46.387,-26.367,-16.113,182.129,0.000
1606135080.579,-58.594,-22.461,-15.625,-68.359,0.000
1606135080.583,-126.953,-62.988,-24.414,-270.020,0.000
1606135080.587,-76.172,-66.895,-17.090,-165.527,0.000
1606135080.591,27.344,-13.184,-12.207,112.305,0.000
1606135080.595,42.969,-11.719,-15.625,188.477,0.000
1606135080.598,-46.875,-21.973,-20.508,-40.039,0.000
1606135080.602,-121.094,-31.250,-36.621,-270.996,0.000
1606135080.606,-85.938,-31.738,-39.062,-208.008,0.000
1606135080.610,11.719,-23.926,-33.691,82.031,0.000
1606135080.614,42.480,-18.066,-26.855,199.219,0.000
1606135080.618,-35.645,-17.090,-23.926,-5.371,0.000
1606135080.622,-110.840,-28.809,-31.250,-242.676,0.000
1606135080.626,-83.496,-28.809,-29.785,-210.938,0.000
1606135080.630,10.742,-21.973,-26.367,58.594,0.000
1606135080.634,36.133,-23.926,-27.832,185.059,0.000
1606135080.638,-35.645,-19.531,-28.320,7.812,0.000
1606135080.641,-110.840,-34.668,-25.879,-233.398,0.000
1606135080.645,-103.027,-43.457,-21.973,-234.863,0.000
1606135080.649,2.441,-27.344,-14.160,50.293,0.000
1606135080.653,61.523,-11.230,-15.625,229.492,0.000
1606135080.657,-4.395,-6.348,-25.391,69.824,0.000
1606135080.661,-103.516,-14.648,-36.133,-214.844,0.000
1606135080.665,-109.863,-18.066,-48.828,-272.461,0.000
1606135080.669,-11.230,-13.184,-44.922,-9.277,0.000
1606135080.673,51.758,-5.859,-36.133,204.102,0.000
1606135080.677,3.906,-7.324,-41.016,104.004,0.000
1606135080.680,-91.797,-34.668,-47.363,-184.082,0.000
1606135080.684,-111.328,-62.012,-44.922,-274.902,0.000
1606135080.688,-20.508,-32.715,-38.574,-37.109,0.000
1606135080.692,50.293,-14.160,-30.762,184.082,0.000
1606135080.696,12.695,-19.531,-27.832,120.605,0.000
1606135080.700,-77.148,-23.926,-34.668,-159.668,0.000
1606135080.704,-100.098,-22.461,-35.156,-275.879,0.000
1606135080.708,-18.555,-14.160,-20.020,-62.988,0.000
1606135080.712,59.082,-17.090,-20.508,182.129,0.000
1606135080.716,36.133,-12.207,-26.855,158.691,0.000
1606135080.720,-60.547,-26.855,-26.855,-119.629,0.000
1606135080.723,-101.562,-57.129,-37.598,-282.715,0.000
1606135080.727,-34.180,-31.250,-43.457,-118.164,0.000
1606135080.731,45.410,-13.184,-41.016,145.996,0.000
1606135080.735,40.039,-20.508,-35.645,172.363,0.000
1606135080.739,-53.711,-21.973,-38.086,-89.844,0.000
1606135080.743,-110.352,-23.438,-35.645,-269.531,0.000
1606135080.747,-52.246,-21.973,-26.367,-130.859,0.000
1606135080.751,47.363,-11.230,-20.996,140.137,0.000
1606135080.755,49.316,-8.789,-21.973,189.453,0.000
1606135080.759,-53.711,-23.926,-32.227,-62.500,0.000
1606135080.763,-114.258,-32.227,-39.551,-271.973,0.000
1606135080.766,-61.523,-24.414,-35.156,-169.434,0.000
1606135080.770,32.227,-24.902,-32.227,106.445,0.000
1606135080.774,49.316,-28.809,-25.879,197.266,0.000
1606135080.778,-38.086,-25.391,-24.902,-28.320,0.000
1606135080.782,-119.141,-66.895,-35.156,-263.184,0.000
1606135080.786,-89.844,-78.613,-34.668,-203.125,0.000
1606135080.790,10.742,-28.809,-29.297,78.125,0.000
1606135080.794,37.109,-27.832,-31.738,194.336,0.000
1606135080.798,-33.203,-31.738,-38.574,1.953,0.000
1606135080.802,-101.074,-31.738,-37.598,-232.422,0.000
1606135080.805,-84.473,-33.203,-32.715,-222.168,0.000
1606135080.809,7.812,-28.809,-19.043,57.129,0.000
1606135080.813,58.594,-26.367,-17.578,229.980,0.000
1606135080.817,-6.348,-20.020,-26.367,63.965,0.000
1606135080.821,-94.238,-61.035,-21.973,-202.637,0.000
1606135080.825,-90.332,-72.754,-22.461,-230.957,0.000
1606135080.829,7.324,-21.484,-20.020,31.250,0.000
1606135080.833,64.941,-17.090,-12.695,222.656,0.000
1606135080.837,4.883,-23.926,-17.090,101.562,0.000
1606135080.841,-87.402,-30.273,-25.879,-175.293,0.000
1606135080.845,-92.773,-28.320,-28.320,-244.629,0.000
1606135080.848,-5.371,-21.484,-29.785,-8.789,0.000
1606135080.852,57.129,-22.949,-28.320,194.336,0.000
1606135080.856,11.719,-14.648,-26.855,102.051,0.000
1606135080.860,-81.055,-37.598,-31.738,-162.109,0.000
1606135080.864,-107.422,-91.309,-38.086,-252.930,0.000
1606135080.868,-32.227,-54.688,-28.320,-42.480,0.000
1606135080.872,44.434,-9.277,-19.531,186.035,0.000
1606135080.876,23.438,-11.230,-22.949,146.973,0.000
1606135080.880,-71.289,-19.531,-29.785,-124.512,0.000
1606135080.884,-112.305,-22.461,-26.367,-265.137,0.000
1606135080.888,-41.016,-15.137,-25.391,-88.379,0.000
1606135080.891,47.363,-9.766,-23.438,173.828,0.000
1606135080.895,30.762,-6.348,-19.531,184.570,0.000
1606135080.899,-69.336,-20.020,-22.461,-97.168,0.000
1606135080.903,-109.863,-30.762,-21.484,-263.184,0.000
1606135080.907,-52.246,-28.809,-23.926,-106.934,0.000
1606135080.911,26.367,-29.297,-29.297,143.066,0.000
1606135080.915,24.414,-25.879,-33.203,172.363,0.000
1606135080.919,-71.289,-23.438,-37.598,-76.172,0.000
1606135080.923,-132.324,-54.688,-36.133,-266.602,0.000
1606135080.927,-83.008,-54.199,-33.203,-165.527,0.000
1606135080.930,8.789,-30.273,-30.762,102.051,0.000
1606135080.934,21.484,-26.855,-29.297,176.758,0.000
1606135080.938,-60.059,-26.367,-36.133,-50.293,0.000
1606135080.942,-121.582,-32.715,-44.434,-270.020,0.000
1606135080.946,-80.078,-28.320,-34.668,-194.824,0.000
1606135080.950,10.742,-19.531,-25.391,89.844,0.000
1606135080.954,33.691,-23.438,-27.832,197.266,0.000
1606135080.958,-37.109,-24.414,-36.621,-12.207,0.000
1606135080.962,-115.723,-53.223,-47.363,-252.441,0.000
1606135080.966,-93.262,-64.941,-40.039,-216.309,0.000
1606135080.970,7.324,-28.809,-31.738,64.941,0.000
1606135080.973,44.434,-21.484,-33.203,210.449,0.000
1606135080.977,-24.414,-25.879,-30.273,41.992,0.000
1606135080.981,-107.422,-30.762,-31.250,-209.473,0.000
1606135080.985,-91.797,-27.344,-30.762,-217.773,0.000
1606135080.989,7.812,-20.996,-26.367,50.293,0.000
1606135080.993,50.781,-21.973,-20.020,221.680,0.000
1606135080.997,-7.324,-22.461,-22.949,82.520,0.000
1606135081.001,-87.891,-41.992,-33.691,-181.152,0.000
1606135081.005,-90.332,-45.410,-33.203,-228.027,0.000
1606135081.009,-11.230,-25.391,-28.809,15.625,0.000
1606135081.013,47.852,-20.508,-21.973,199.707,0.000
1606135081.016,8.789,-14.648,-23.926,93.750,0.000
1606135081.020,-80.078,-22.949,-29.785,-173.828,0.000
1606135081.024,-92.773,-29.785,-38.086,-249.512,0.000
1606135081.028,-4.395,-19.531,-35.156,-25.391,0.000
1606135081.032,64.941,-13.184,-30.273,191.895,0.000
1606135081.036,25.879,-20.508,-36.621,124.512,0.000
1606135081.040,-74.707,-29.297,-41.992,-147.461,0.000
1606135081.044,-102.051,-25.391,-44.434,-263.184,0.000
1606135081.048,-21.973,-16.113,-35.645,-66.406,0.000
1606135081.052,53.711,-17.578,-29.297,170.898,0.000
1606135081.055,33.691,-20.020,-30.762,139.160,0.000
1606135081.059,-62.988,-25.879,-38.574,-132.324,0.000
1606135081.063,-117.676,-74.707,-45.898,-277.832,0.000
1606135081.067,-50.781,-70.801,-35.645,-104.980,0.000
1606135081.071,36.621,-24.414,-31.738,150.879,0.000
1606135081.075,25.879,-22.949,-30.273,158.203,0.000
1606135081.079,-63.965,-27.344,-20.020,-97.168,0.000
1606135081.083,-108.887,-32.227,-25.879,-274.902,0.000
1606135081.087,-58.105,-28.320,-30.273,-150.879,0.000
1606135081.091,11.719,-17.090,-24.902,122.559,0.000
1606135081.095,16.113,-14.160,-27.832,179.688,0.000
1606135081.098,-64.941,-26.855,-33.203,-69.824,0.000
1606135081.102,-131.348,-59.570,-35.645,-276.855,0.000
1606135081.106,-85.449,-51.758,-39.062,-184.570,0.000
1606135081.110,13.184,-23.926,-34.180,98.145,0.000
1606135081.114,30.273,-24.902,-31.250,193.359,0.000
1606135081.118,-51.758,-28.320,-26.855,-28.809,0.000
1606135081.122,-121.582,-30.273,-27.832,-255.371,0.000
1606135081.126,-93.750,-35.156,-32.227,-201.660,0.000
1606135081.130,0.000,-35.156,-30.762,72.266,0.000
1606135081.134,33.203,-30.762,-29.785,192.871,0.000
1606135081.138,-35.645,-26.367,-30.273,12.695,0.000
1606135081.141,-108.398,-47.852,-24.414,-210.938,0.000
1606135081.145,-94.238,-71.289,-28.809,-200.195,0.000
1606135081.149,-4.883,-38.574,-38.086,64.453,0.000
1606135081.153,45.898,-22.461,-25.879,213.867,0.000
1606135081.157,-7.812,-24.902,-19.531,57.129,0.000
1606135081.161,-96.680,-33.203,-28.809,-203.125,0.000
1606135081.165,-95.703,-40.039,-30.273,-229.980,0.000
1606135081.169,-7.324,-38.574,-28.809,36.621,0.000
1606135081.173,44.922,-35.156,-30.273,218.750,0.000
1606135081.177,-6.348,-24.902,-27.832,83.496,0.000
1606135081.180,-94.238,-27.344,-20.996,-175.781,0.000
1606135081.184,-96.191,-30.762,-20.996,-225.098,0.000
1606135081.188,-10.254,-22.949,-23.438,11.230,0.000
1606135081.192,43.457,-23.438,-22.949,202.637,0.000
1606135081.196,0.000,-27.344,-30.273,115.723,0.000
1606135081.200,-90.820,-35.645,-36.621,-150.391,0.000
1606135081.204,-114.258,-41.016,-38.086,-250.488,0.000
1606135081.208,-28.809,-26.855,-34.668,-34.180,0.000
1606135081.212,44.434,-18.066,-24.902,198.730,0.000
1606135081.216,22.949,-21.484,-25.879,157.227,0.000
1606135081.220,-64.453,-32.715,-28.809,-118.652,0.000
1606135081.223,-105.957,-34.668,-29.785,-258.789,0.000
1606135081.227,-35.156,-26.367,-28.809,-58.105,0.000
1606135081.231,50.781,-21.484,-20.996,198.242,0.000
1606135081.235,28.809,-16.602,-24.414,184.082,0.000
1606135081.239,-72.266,-28.320,-37.598,-90.332,0.000
1606135081.243,-113.281,-61.523,-41.992,-271.973,0.000
1606135081.247,-48.828,-51.758,-39.551,-124.512,0.000
1606135081.251,36.133,-18.555,-25.391,143.066,0.000
1606135081.255,28.320,-16.602,-21.484,180.664,0.000
1606135081.259,-66.406,-29.785,-33.203,-80.566,0.000
1606135081.263,-118.164,-36.133,-36.133,-263.184,0.000
1606135081.266,-58.105,-23.438,-34.668,-133.789,0.000
1606135081.270,36.621,-16.113,-23.438,135.742,0.000
1606135081.274,45.410,-14.160,-15.625,209.473,0.000
1606135081.278,-40.527,-13.672,-25.391,-24.414,0.000
1606135081.282,-112.793,-44.922,-40.527,-256.836,0.000
1606135081.286,-83.008,-55.176,-41.504,-195.312,0.000
1606135081.290,13.672,-30.273,-37.598,85.938,0.000
1606135081.294,39.551,-29.785,-31.738,190.430,0.000
1606135081.298,-45.898,-33.691,-33.203,-25.879,0.000
1606135081.302,-115.723,-37.598,-41.016,-252.930,0.000
1606135081.305,-80.078,-32.715,-38.086,-202.148,0.000
1606135081.309,15.625,-21.973,-32.715,69.824,0.000
1606135081.313,49.805,-23.926,-25.391,210.449,0.000
1606135081.317,-17.578,-26.855,-27.344,37.598,0.000
1606135081.321,-95.703,-35.156,-32.715,-211.426,0.000
1606135081.325,-83.984,-39.062,-33.691,-221.680,0.000
1606135081.329,6.348,-26.367,-31.250,47.852,0.000
1606135081.333,48.340,-21.484,-26.855,217.773,0.000
1606135081.337,-8.789,-22.461,-25.879,63.965,0.000
1606135081.341,-96.191,-43.457,-26.367,-216.309,0.000
1606135081.345,-94.727,-62.988,-20.996,-243.164,0.000
1606135081.348,-0.488,-37.109,-11.230,31.738,0.000
1606135081.352,46.875,-15.137,-13.184,217.285,0.000
1606135081.356,-7.812,-20.020,-20.508,99.609,0.000
1606135081.360,-93.262,-27.344,-30.762,-180.176,0.000
1606135081.364,-103.516,-28.809,-34.180,-268.555,0.000
1606135081.368,-14.648,-27.832,-26.367,-31.250,0.000
1606135081.372,56.641,-19.531,-28.809,193.359,0.000
1606135081.376,16.113,-18.066,-31.250,126.465,0.000
1606135081.380,-90.820,-30.762,-29.785,-161.133,0.000
1606135081.384,-113.770,-34.180,-40.039,-278.320,0.000
1606135081.388,-35.156,-33.691,-45.410,-74.707,0.000
1606135081.391,41.992,-21.973,-25.879,173.340,0.000
1606135081.395,26.367,-18.555,-17.090,152.344,0.000
1606135081.399,-77.637,-29.785,-29.785,-137.207,0.000
1606135081.403,-120.605,-33.203,-36.621,-281.738,0.000
1606135081.407,-50.293,-32.715,-35.645,-106.445,0.000
1606135081.411,30.762,-30.762,-26.855,152.832,0.000
1606135081.415,17.090,-35.156,-27.832,160.645,0.000
1606135081.419,-75.195,-41.992,-38.574,-114.258,0.000
1606135081.423,-113.281,-20.020,-39.062,-275.879,0.000
1606135081.427,-42.969,-14.160,-34.180,-136.230,0.000
1606135081.430,44.922,-25.391,-36.133,124.512,0.000
1606135081.434,50.293,-21.484,-31.250,181.152,0.000
1606135081.438,-41.992,-26.367,-24.414,-62.012,0.000
1606135081.442,-102.539,-27.344,-25.391,-261.230,0.000
1606135081.446,-51.758,-27.832,-25.879,-158.691,0.000
1606135081.450,32.715,-31.250,-24.414,113.281,0.000
1606135081.454,46.387,-30.273,-23.438,196.289,0.000
1606135081.458,-34.668,-33.691,-25.391,-21.484,0.000
1606135081.462,-104.492,-40.527,-35.156,-238.281,0.000
1606135081.466,-71.777,-31.738,-35.156,-186.523,0.000
1606135081.470,19.531,-22.949,-25.391,70.312,0.000
1606135081.473,49.805,-23.926,-35.156,183.105,0.000
1606135081.477,-23.926,-40.527,-40.527,2.930,0.000
1606135081.481,-97.656,-9.277,-35.645,-231.445,0.000
1606135081.485,-77.637,4.883,-38.086,-211.426,0.000
1606135081.489,4.883,-34.668,-33.203,62.988,0.000
1606135081.493,40.527,-31.250,-23.926,208.008,0.000
1606135081.497,-10.254,-36.621,-23.926,45.410,0.000
1606135081.501,-89.355,-38.574,-29.785,-209.473,0.000
1606135081.505,-91.309,-37.598,-26.367,-228.027,0.000
1606135081.509,5.371,-37.598,-29.785,28.809,0.000
1606135081.513,62.012,-34.668,-28.809,206.055,0.000
1606135081.516,13.184,-38.086,-24.902,88.379,0.000
1606135081.520,-70.312,-24.902,-36.133,-172.852,0.000
1606135081.524,-87.891,-1.465,-42.480,-250.000,0.000
1606135081.528,-4.883,-23.926,-39.062,-11.230,0.000
1606135081.532,65.918,-38.574,-27.344,207.031,0.000
1606135081.536,16.113,-35.156,-26.367,112.305,0.000
1606135081.540,-86.426,-41.016,-40.039,-172.363,0.000
1606135081.544,-91.797,-41.016,-41.504,-269.043,0.000
1606135081.548,-4.395,-36.621,-32.715,-48.828,0.000
1606135081.552,59.570,-32.227,-23.926,183.105,0.000
1606135081.555,26.855,-33.691,-23.438,136.230,0.000
1606135081.559,-75.195,-37.598,-32.715,-130.859,0.000
1606135081.563,-108.887,-42.480,-35.156,-255.371,0.000
1606135081.567,-30.273,-37.598,-30.762,-78.613,0.000
1606135081.571,53.223,-30.273,-33.203,174.805,0.000
1606135081.575,29.785,-34.180,-36.133,158.691,0.000
1606135081.579,-62.012,-38.086,-35.645,-122.559,0.000
1606135081.583,-96.191,-38.574,-32.715,-270.020,0.000
1606135081.587,-40.527,-35.645,-29.785,-114.258,0.000
1606135081.591,36.621,-34.180,-33.691,144.043,0.000
1606135081.595,40.527,-28.809,-26.367,183.105,0.000
1606135081.598,-49.316,-33.203,-30.273,-81.055,0.000
1606135081.602,-117.188,-40.039,-38.086,-285.156,0.000
1606135081.606,-69.824,-39.551,-33.203,-159.668,0.000
1606135081.610,32.715,-29.785,-26.367,130.371,0.000
1606135081.614,48.340,-25.391,-24.902,199.707,0.000
1606135081.618,-44.434,-28.809,-32.227,-48.828,0.000
1606135081.622,-115.234,-59.570,-35.645,-264.648,0.000
1606135081.626,-74.707,-75.195,-31.250,-171.387,0.000
1606135081.630,19.531,-41.504,-28.809,100.098,0.000
1606135081.634,44.434,-25.879,-34.180,190.430,0.000
1606135081.638,-35.156,-31.738,-37.109,-17.090,0.000
1606135081.641,-112.305,-38.086,-35.645,-245.605,0.000
1606135081.645,-80.078,-36.133,-33.691,-205.078,0.000
1606135081.649,15.137,-27.832,-29.297,63.477,0.000
1606135081.653,45.898,-21.484,-28.809,194.824,0.000
1606135081.657,-21.484,-24.902,-26.855,21.973,0.000
1606135081.661,-104.492,-33.691,-34.180,-221.680,0.000
1606135081.665,-96.191,-36.621,-38.574,-224.609,0.000
1606135081.669,4.395,-26.855,-29.785,44.922,0.000
1606135081.673,54.688,-19.531,-20.020,216.309,0.000
1606135081.677,-10.742,-24.902,-24.414,60.547,0.000
1606135081.680,-90.332,-37.109,-33.203,-200.195,0.000
1606135081.684,-83.008,-37.109,-33.691,-225.586,0.000
1606135081.688,3.418,-27.344,-30.762,25.879,0.000
1606135081.692,53.223,-28.320,-23.438,205.078,0.000
1606135081.696,2.441,-25.391,-26.367,90.332,0.000
1606135081.700,-83.496,-41.504,-31.738,-170.410,0.000
1606135081.704,-90.820,-48.828,-30.273,-231.445,0.000
1606135081.708,-5.371,-23.926,-31.738,-10.254,0.000
1606135081.712,51.758,-26.855,-25.879,186.035,0.000
1606135081.716,11.230,-27.832,-27.832,112.793,0.000
1606135081.720,-81.543,-37.598,-35.645,-152.344,0.000
1606135081.723,-105.469,-54.199,-36.133,-259.766,0.000
1606135081.727,-23.438,-31.738,-36.621,-66.406,0.000
1606135081.731,45.410,-25.879,-39.062,155.762,0.000
1606135081.735,15.137,-35.156,-41.504,124.512,0.000
1606135081.739,-81.543,-38.086,-36.621,-135.742,0.000
1606135081.743,-117.188,-31.250,-31.738,-274.414,0.000
1606135081.747,-42.480,-23.926,-32.227,-105.469,0.000
1606135081.751,36.621,-25.391,-34.180,148.438,0.000
1606135081.755,25.391,-29.785,-32.227,163.086,0.000
1606135081.759,-65.918,-32.715,-37.598,-99.609,0.000
1606135081.763,-114.258,-53.223,-41.504,-269.531,0.000
1606135081.766,-49.805,-48.340,-35.156,-132.324,0.000
1606135081.770,37.598,-21.973,-32.715,126.953,0.000
1606135081.774,35.156,-22.949,-36.133,171.875,0.000
1606135081.778,-56.641,-30.273,-40.039,-77.148,0.000
1606135081.782,-111.328,-27.344,-35.156,-264.648,0.000
1606135081.786,-59.570,-22.949,-25.391,-155.762,0.000
1606135081.790,24.414,-21.484,-24.414,114.746,0.000
1606135081.794,37.598,-17.578,-26.855,197.266,0.000
1606135081.798,-41.016,-13.184,-29.297,-22.461,0.000
1606135081.802,-110.352,-50.293,-30.273,-241.211,0.000
1606135081.805,-74.707,-81.543,-32.715,-190.918,0.000
1606135081.809,19.531,-44.922,-27.832,74.219,0.000
1606135081.813,48.340,-17.578,-28.809,199.707,0.000
1606135081.817,-24.414,-18.066,-28.809,12.207,0.000
1606135081.821,-112.305,-34.180,-21.484,-226.562,0.000
1606135081.825,-98.145,-38.574,-26.367,-215.820,0.000
1606135081.829,2.930,-25.879,-31.250,48.828,0.000
1606135081.833,41.016,-23.438,-31.738,196.289,0.000
1606135081.837,-31.738,-30.762,-33.691,29.297,0.000
1606135081.841,-106.934,-40.039,-35.645,-213.867,0.000
1606135081.845,-83.496,-36.133,-35.156,-221.191,0.000
1606135081.848,-4.395,-31.250,-42.480,18.555,0.000
1606135081.852,37.598,-28.320,-42.969,188.477,0.000
1606135081.856,-6.348,-18.555,-34.668,68.848,0.000
1606135081.860,-89.355,-40.527,-41.504,-187.500,0.000
1606135081.864,-96.680,-59.082,-38.574,-236.328,0.000
1606135081.868,-12.695,-32.227,-26.367,-1.953,0.000
1606135081.872,43.945,-23.438,-31.738,177.734,0.000
1606135081.876,3.418,-23.438,-33.691,96.680,0.000
1606135081.880,-83.008,-27.344,-34.668,-165.527,0.000
1606135081.884,-98.633,-31.250,-40.039,-266.113,0.000
1606135081.888,-18.555,-22.949,-36.133,-35.156,0.000
1606135081.891,60.059,-14.160,-36.621,202.148,0.000
1606135081.895,30.762,-12.695,-42.480,145.996,0.000
1606135081.899,-70.312,-23.926,-36.133,-136.230,0.000
1606135081.903,-106.934,-64.941,-31.738,-262.207,0.000
1606135081.907,-35.156,-58.594,-32.715,-75.195,0.000
1606135081.911,45.898,-18.555,-23.926,166.992,0.000
1606135081.915,18.555,-22.461,-29.297,143.555,0.000
1606135081.919,-81.543,-30.762,-39.551,-127.930,0.000
1606135081.923,-109.375,-34.180,-32.227,-270.996,0.000
1606135081.927,-44.434,-33.203,-31.250,-120.117,0.000
1606135081.930,22.949,-26.855,-34.180,132.812,0.000
1606135081.934,20.996,-20.020,-27.344,170.410,0.000
1606135081.938,-60.547,-21.973,-38.086,-76.660,0.000
1606135081.942,-116.699,-41.504,-48.828,-264.648,0.000
1606135081.946,-60.059,-36.133,-39.062,-142.090,0.000
1606135081.950,34.668,-17.090,-34.180,121.582,0.000
1606135081.954,35.645,-20.508,-36.621,177.734,0.000
1606135081.958,-52.246,-25.391,-42.480,-61.523,0.000
1606135081.962,-110.840,-34.180,-40.527,-264.160,0.000
1606135081.966,-67.383,-38.574,-37.109,-175.781,0.000
1606135081.970,19.531,-34.180,-41.016,95.703,0.000
1606135081.973,44.434,-26.367,-27.832,203.125,0.000
1606135081.977,-32.227,-25.879,-22.461,1.465,0.000
1606135081.981,-105.469,-41.504,-39.062,-224.609,0.000
1606135081.985,-71.289,-40.039,-41.504,-182.129,0.000
1606135081.989,21.973,-25.879,-27.344,84.473,0.000
1606135081.993,42.480,-32.227,-23.438,204.590,0.000
1606135081.997,-26.367,-28.809,-33.691,12.207,0.000
1606135082.001,-95.703,-43.457,-38.086,-230.957,0.000
1606135082.005,-76.172,-67.383,-36.621,-221.680,0.000
1606135082.009,24.414,-36.621,-31.738,42.969,0.000
1606135082.013,65.430,-20.020,-22.949,204.102,0.000
1606135082.016,2.441,-24.414,-18.066,62.500,0.000
1606135082.020,-79.590,-26.367,-27.832,-190.430,0.000
1606135082.024,-78.125,-31.738,-41.016,-234.863,0.000
1606135082.028,7.324,-19.043,-27.832,11.230,0.000
1606135082.032,52.734,-10.254,-26.855,202.637,0.000
1606135082.036,-4.883,-20.508,-37.598,88.379,0.000
1606135082.040,-97.168,-41.016,-35.645,-177.734,0.000
1606135082.044,-110.352,-56.641,-31.738,-262.207,0.000
1606135082.048,-24.414,-32.227,-22.949,-31.250,0.000
1606135082.052,50.781,-13.672,-20.996,193.359,0.000
1606135082.055,20.020,-16.113,-21.484,125.000,0.000
1606135082.059,-69.336,-19.043,-20.508,-150.391,0.000
1606135082.063,-90.820,-20.996,-30.273,-256.836,0.000
1606135082.067,-20.020,-19.043,-34.180,-44.434,0.000
1606135082.071,55.176,-17.578,-26.855,186.035,0.000
1606135082.075,32.227,-16.602,-21.973,150.391,0.000
1606135082.079,-57.129,-21.973,-25.879,-105.957,0.000
1606135082.083,-97.168,-39.062,-33.203,-257.324,0.000
1606135082.087,-34.180,-32.227,-24.414,-97.656,0.000
1606135082.091,43.457,-30.273,-20.020,156.738,0.000
1606135082.095,31.738,-30.762,-23.926,171.387,0.000
1606135082.098,-56.152,-22.949,-26.855,-86.914,0.000
1606135082.102,-107.910,-44.434,-27.344,-264.648,0.000
1606135082.106,-51.270,-42.969,-27.832,-126.465,0.000
1606135082.110,35.645,-21.973,-32.715,137.207,0.000
1606135082.114,36.133,-25.879,-34.180,175.781,0.000
1606135082.118,-51.758,-28.809,-35.645,-75.195,0.000
1606135082.122,-106.445,-35.156,-34.180,-269.043,0.000
1606135082.126,-60.547,-37.598,-31.738,-164.062,0.000
1606135082.130,31.250,-25.879,-30.273,100.586,0.000
1606135082.134,43.457,-20.020,-29.297,180.664,0.000
1606135082.138,-41.504,-24.414,-35.156,-45.410,0.000
1606135082.141,-113.281,-41.992,-41.504,-265.137,0.000
1606135082.145,-79.102,-44.922,-32.227,-189.453,0.000
1606135082.149,19.531,-25.879,-17.578,91.797,0.000
1606135082.153,45.410,-27.832,-26.367,198.730,0.000
1606135082.157,-29.785,-29.785,-38.086,3.418,0.000
1606135082.161,-104.492,-32.227,-37.598,-231.445,0.000
1606135082.165,-88.379,-39.551,-39.551,-217.285,0.000
1606135082.169,12.695,-28.320,-29.785,64.453,0.000
1606135082.173,60.547,-22.461,-25.879,229.004,0.000
1606135082.177,-9.766,-23.438,-19.043,54.199,0.000
1606135082.180,-95.703,-36.621,-20.020,-216.797,0.000
1606135082.184,-95.215,-61.035,-34.180,-247.559,0.000
1606135082.188,-2.930,-42.480,-36.621,20.508,0.000
1606135082.192,51.758,-28.320,-39.551,202.637,0.000
1606135082.196,0.000,-28.320,-30.273,74.707,0.000
1606135082.200,-94.238,-28.809,-32.227,-190.430,0.000
1606135082.204,-104.004,-36.133,-41.504,-245.605,0.000
1606135082.208,-12.207,-32.715,-29.297,12.207,0.000
1606135082.212,45.410,-33.691,-20.508,214.355,0.000
1606135082.216,8.789,-33.203,-16.602,121.582,0.000
1606135082.220,-74.219,-32.715,-24.414,-155.762,0.000
1606135082.223,-93.750,-44.434,-34.180,-256.836,0.000
1606135082.227,-19.531,-37.109,-33.203,-39.062,0.000
1606135082.231,55.664,-21.484,-22.461,196.289,0.000
1606135082.235,28.320,-20.508,-19.531,151.855,0.000
1606135082.239,-69.824,-30.273,-23.926,-125.488,0.000
1606135082.243,-104.980,-37.109,-22.949,-256.836,0.000
1606135082.247,-35.156,-32.715,-27.832,-75.195,0.000
1606135082.251,39.551,-29.785,-30.273,173.340,0.000
1606135082.255,24.414,-22.949,-28.809,164.551,0.000
1606135082.259,-62.012,-17.578,-32.715,-104.980,0.000
1606135082.263,-95.703,-26.855,-35.156,-256.348,0.000
1606135082.266,-42.969,-32.227,-27.832,-103.516,0.000
1606135082.270,25.879,-25.391,-20.020,143.066,0.000
1606135082.274,5.859,-33.203,-14.160,156.250,0.000
1606135082.278,-85.938,-40.039,-18.066,-108.398,0.000
1606135082.282,-123.047,-52.734,-22.949,-279.297,0.000
1606135082.286,-69.336,-60.059,-15.137,-143.555,0.000
1606135082.290,16.113,-31.738,-7.812,133.301,0.000
1606135082.294,21.973,-29.297,-12.207,185.059,0.000
1606135082.298,-62.988,-37.598,-16.113,-62.988,0.000
1606135082.302,-124.023,-38.574,-16.113,-264.160,0.000
1606135082.305,-82.520,-36.621,-19.043,-176.270,0.000
1606135082.309,9.766,-31.738,-23.438,102.539,0.000
1606135082.313,36.133,-34.668,-27.832,202.148,0.000
1606135082.317,-46.387,-36.133,-33.203,-19.043,0.000
1606135082.321,-111.328,-60.547,-25.391,-241.211,0.000
1606135082.325,-66.406,-73.730,-23.438,-189.453,0.000
1606135082.329,28.320,-34.668,-25.391,88.379,0.000
1606135082.333,60.547,-23.926,-14.648,222.656,0.000
1606135082.337,-14.648,-31.738,-23.926,36.133,0.000
1606135082.341,-95.215,-36.133,-35.156,-217.285,0.000
1606135082.345,-81.543,-36.133,-37.109,-228.027,0.000
1606135082.348,9.277,-32.715,-37.598,36.133,0.000
1606135082.352,54.199,-34.668,-33.203,194.336,0.000
1606135082.356,-0.488,-22.949,-29.785,49.316,0.000
1606135082.360,-82.520,-39.551,-37.109,-190.430,0.000
1606135082.364,-85.449,-97.168,-39.551,-227.051,0.000
1606135082.368,6.836,-67.383,-23.438,23.926,0.000
1606135082.372,61.523,-20.508,-13.184,221.680,0.000
1606135082.376,15.137,-24.414,-17.090,111.328,0.000
1606135082.380,-69.336,-29.785,-13.184,-164.551,0.000
1606135082.384,-88.379,-32.227,-15.625,-244.629,0.000
1606135082.388,-12.207,-23.438,-30.762,-13.672,0.000
1606135082.391,58.105,-11.230,-23.438,199.707,0.000
1606135082.395,16.602,-25.879,-26.855,120.117,0.000
1606135082.399,-80.078,-47.363,-36.621,-154.785,0.000
1606135082.403,-94.727,-34.668,-35.645,-256.836,0.000
1606135082.407,-12.207,-19.531,-26.855,-42.969,0.000
1606135082.411,62.500,-15.625,-19.531,195.801,0.000
1606135082.415,34.180,-17.090,-17.578,159.180,0.000
1606135082.419,-63.477,-24.414,-19.043,-113.770,0.000
1606135082.423,-94.238,-47.852,-20.508,-247.559,0.000
1606135082.427,-29.297,-40.039,-19.043,-73.242,0.000
1606135082.430,51.758,-16.602,-19.043,177.246,0.000
1606135082.434,41.504,-17.578,-24.902,176.758,0.000
1606135082.438,-60.547,-20.996,-36.133,-97.168,0.000
1606135082.442,-109.863,-32.715,-38.086,-258.789,0.000
1606135082.446,-51.270,-32.715,-33.203,-118.164,0.000
1606135082.450,39.062,-18.066,-23.438,150.879,0.000
1606135082.454,41.992,-16.602,-25.391,203.125,0.000
1606135082.458,-49.805,-20.996,-34.668,-57.617,0.000
1606135082.462,-104.004,-60.547,-28.320,-254.395,0.000
1606135082.466,-61.523,-86.426,-26.855,-154.297,0.000
1606135082.470,22.461,-36.133,-28.809,117.676,0.000
1606135082.473,41.016,-14.160,-30.273,202.637,0.000
1606135082.477,-37.598,-17.090,-34.668,-29.785,0.000
1606135082.481,-102.051,-27.344,-34.668,-247.559,0.000
1606135082.485,-52.734,-24.414,-29.297,-171.875,0.000
1606135082.489,35.156,-12.695,-20.020,106.445,0.000
1606135082.493,42.969,-23.926,-22.949,209.961,0.000
1606135082.497,-25.879,-21.484,-27.832,12.207,0.000
1606135082.501,-100.098,-57.617,-27.832,-224.121,0.000
1606135082.505,-95.215,-83.984,-31.738,-210.449,0.000
1606135082.509,1.465,-36.621,-28.320,68.848,0.000
1606135082.513,47.363,-20.996,-22.949,220.703,0.000
1606135082.516,-12.207,-22.461,-20.996,46.875,0.000
1606135082.520,-92.773,-27.832,-27.832,-208.496,0.000
1606135082.524,-89.355,-29.297,-32.227,-226.074,0.000
1606135082.528,7.812,-19.043,-24.414,37.598,0.000
1606135082.532,61.035,-15.625,-22.461,222.656,0.000
1606135082.536,3.418,-24.414,-31.250,82.520,0.000
1606135082.540,-87.891,-26.855,-30.762,-197.754,0.000
1606135082.544,-94.238,-25.391,-33.203,-250.977,0.000
1606135082.548,-0.488,-21.973,-27.832,4.395,0.000
1606135082.552,56.152,-18.066,-18.555,200.684,0.000
1606135082.555,7.812,-25.391,-32.227,92.285,0.000
1606135082.559,-84.473,-28.809,-43.457,-187.012,0.000
1606135082.563,-108.398,-14.648,-43.945,-264.648,0.000
1606135082.567,-25.391,-15.625,-35.645,-30.762,0.000
1606135082.571,49.805,-22.949,-27.344,194.336,0.000
1606135082.575,16.602,-27.832,-35.156,125.977,0.000
1606135082.579,-83.496,-37.109,-39.062,-158.691,0.000
1606135082.583,-107.422,-30.273,-36.133,-272.461,0.000
1606135082.587,-28.809,-24.414,-36.133,-79.590,0.000
1606135082.591,49.316,-20.020,-31.250,169.922,0.000
1606135082.595,28.320,-21.973,-21.484,159.180,0.000
1606135082.598,-81.543,-35.645,-22.461,-125.488,0.000
1606135082.602,-125.488,-40.039,-32.715,-278.809,0.000
1606135082.606,-52.246,-32.227,-32.715,-113.770,0.000
1606135082.610,36.133,-26.855,-25.391,150.879,0.000
1606135082.614,37.598,-27.344,-19.043,182.617,0.000
1606135082.618,-60.059,-31.738,-18.066,-77.637,0.000
1606135082.622,-121.094,-39.062,-22.461,-265.625,0.000
1606135082.626,-54.688,-32.227,-20.508,-130.371,0.000
1606135082.630,33.691,-26.855,-17.090,141.113,0.000
1606135082.634,34.180,-31.738,-19.043,191.895,0.000
1606135082.638,-47.363,-30.273,-23.438,-48.340,0.000
1606135082.641,-95.215,-31.250,-23.926,-249.023,0.000
1606135082.645,-55.664,-38.574,-24.414,-165.039,0.000
1606135082.649,29.785,-25.879,-26.367,111.328,0.000
1606135082.653,57.617,-16.602,-26.367,209.473,0.000
1606135082.657,-21.973,-20.508,-22.949,-4.395,0.000
1606135082.661,-98.633,-31.250,-30.273,-240.234,0.000
1606135082.665,-69.336,-32.227,-40.527,-199.707,0.000
1606135082.669,30.273,-22.949,-38.086,80.078,0.000
1606135082.673,62.988,-18.066,-25.879,209.961,0.000
1606135082.677,-9.766,-18.066,-24.414,27.832,0.000
1606135082.680,-93.262,-30.762,-28.809,-227.539,0.000
1606135082.684,-79.102,-30.762,-29.785,-217.773,0.000
1606135082.688,16.113,-20.508,-29.297,67.871,0.000
1606135082.692,57.617,-23.438,-25.879,220.215,0.000
1606135082.696,-6.836,-26.855,-29.785,51.270,0.000
1606135082.700,-92.285,-37.109,-28.320,-209.473,0.000
1606135082.704,-89.844,-44.434,-24.902,-236.328,0.000
1606135082.708,0.977,-34.180,-21.484,28.809,0.000
1606135082.712,60.059,-27.344,-19.043,213.867,0.000
1606135082.716,6.348,-29.785,-25.391,83.984,0.000
1606135082.720,-88.867,-32.715,-36.133,-184.570,0.000
1606135082.723,-97.656,-35.645,-39.062,-250.488,0.000
1606135082.727,-14.648,-32.227,-34.180,-18.066,0.000
1606135082.731,49.805,-29.297,-26.855,201.660,0.000
1606135082.735,12.207,-33.691,-27.344,133.301,0.000
1606135082.739,-89.355,-42.969,-29.785,-155.273,0.000
1606135082.743,-114.258,-57.617,-28.320,-258.789,0.000
1606135082.747,-33.203,-52.246,-30.762,-42.969,0.000
1606135082.751,42.969,-32.715,-27.344,179.199,0.000
1606135082.755,20.996,-33.203,-28.809,142.578,0.000
1606135082.759,-80.566,-41.016,-40.039,-127.930,0.000
1606135082.763,-119.629,-42.969,-43.457,-265.625,0.000
1606135082.766,-41.992,-39.551,-36.621,-75.684,0.000
1606135082.770,45.410,-35.156,-23.926,185.059,0.000
1606135082.774,29.297,-31.250,-21.973,187.500,0.000
1606135082.778,-67.871,-42.480,-33.203,-78.613,0.000
1606135082.782,-117.188,-35.156,-39.551,-250.000,0.000
1606135082.786,-58.105,-22.461,-33.203,-108.887,0.000
1606135082.790,26.367,-29.297,-31.738,156.738,0.000
1606135082.794,25.879,-26.855,-26.367,201.172,0.000
1606135082.798,-68.359,-30.762,-31.738,-60.547,0.000
1606135082.802,-123.047,-34.668,-43.945,-255.371,0.000
1606135082.805,-65.918,-36.133,-37.109,-144.531,0.000
1606135082.809,22.461,-31.250,-32.227,119.141,0.000
1606135082.813,39.062,-22.949,-29.785,200.684,0.000
1606135082.817,-42.480,-25.879,-32.715,-28.809,0.000
1606135082.821,-112.793,-35.645,-46.387,-260.254,0.000
1606135082.825,-72.754,-34.180,-45.410,-181.152,0.000
1606135082.829,25.879,-22.949,-35.156,116.699,0.000
1606135082.833,42.969,-20.508,-33.691,221.680,0.000
1606135082.837,-39.062,-29.785,-35.156,0.977,0.000
1606135082.841,-111.328,-32.715,-36.133,-244.141,0.000
1606135082.845,-85.449,-19.043,-40.039,-203.125,0.000
1606135082.848,7.324,-23.926,-39.551,80.566,0.000
1606135082.852,44.434,-28.320,-29.785,219.238,0.000
1606135082.856,-20.020,-25.879,-28.809,38.086,0.000
1606135082.860,-99.121,-29.785,-37.109,-209.473,0.000
1606135082.864,-91.797,-32.227,-41.504,-225.586,0.000
1606135082.868,-2.441,-29.785,-28.809,35.156,0.000
1606135082.872,48.828,-20.020,-16.113,227.539,0.000
1606135082.876,-3.418,-21.484,-18.555,85.938,0.000
1606135082.880,-92.773,-27.344,-23.438,-194.336,0.000
1606135082.884,-95.215,-19.531,-27.832,-239.746,0.000
1606135082.888,0.488,-20.508,-25.391,16.602,0.000
1606135082.891,59.570,-28.809,-23.438,217.285,0.000
1606135082.895,10.742,-33.691,-27.344,111.328,0.000
1606135082.899,-79.102,-36.621,-28.320,-162.598,0.000
1606135082.903,-96.680,-39.062,-37.109,-251.953,0.000
1606135082.907,-18.555,-35.156,-36.133,-23.438,0.000
1606135082.911,53.223,-34.180,-26.855,207.520,0.000
1606135082.915,20.508,-32.227,-28.809,143.066,0.000
1606135082.919,-72.266,-32.227,-30.273,-130.371,0.000
1606135082.923,-97.168,-34.668,-24.902,-244.629,0.000
1606135082.927,-30.762,-33.203,-20.508,-51.270,0.000
1606135082.930,35.645,-31.738,-19.531,181.641,0.000
1606135082.934,18.555,-33.203,-22.461,153.320,0.000
1606135082.938,-72.266,-37.109,-27.832,-121.582,0.000
1606135082.942,-109.863,-39.062,-24.414,-268.066,0.000
1606135082.946,-41.992,-31.738,-13.672,-85.449,0.000
1606135082.950,47.363,-28.809,-9.766,185.059,0.000
1606135082.954,47.852,-25.879,-18.555,203.125,0.000
1606135082.958,-53.223,-20.020,-31.250,-83.496,0.000
1606135082.962,-113.770,-20.996,-39.551,-290.527,0.000
1606135082.966,-53.711,-19.531,-34.180,-145.996,0.000
1606135082.970,37.598,-14.648,-26.367,149.902,0.000
1606135082.973,39.062,-15.625,-24.414,204.102,0.000
1606135082.977,-56.152,-21.973,-32.227,-55.664,0.000
1606135082.981,-119.629,-26.367,-42.969,-265.625,0.000
1606135082.985,-67.871,-20.996,-39.551,-166.016,0.000
1606135082.989,29.785,-21.484,-31.738,120.117,0.000
1606135082.993,45.410,-21.973,-33.203,214.355,0.000
1606135082.997,-39.551,-26.367,-38.086,-9.766,0.000
1606135083.001,-107.910,-31.250,-39.551,-236.816,0.000
1606135083.005,-81.055,-28.320,-38.086,-178.223,0.000
1606135083.009,6.836,-31.738,-39.551,90.820,0.000
1606135083.013,46.387,-27.832,-39.062,222.656,0.000
1606135083.016,-19.043,-21.484,-34.180,44.434,0.000
1606135083.020,-97.656,-33.691,-30.273,-212.891,0.000
1606135083.024,-75.684,-54.688,-35.156,-207.031,0.000
1606135083.028,13.184,-41.016,-36.133,66.406,0.000
1606135083.032,55.664,-18.555,-31.738,229.004,0.000
1606135083.036,-7.324,-22.461,-31.738,64.941,0.000
1606135083.040,-100.098,-30.762,-38.086,-206.543,0.000
1606135083.044,-99.121,-34.668,-37.598,-246.094,0.000
1606135083.048,-6.348,-30.273,-27.344,19.043,0.000
1606135083.052,45.898,-28.809,-25.391,215.820,0.000
1606135083.055,-14.648,-33.691,-30.762,82.031,0.000
1606135083.059,-104.492,-40.039,-33.203,-190.918,0.000
1606135083.063,-108.887,-50.781,-28.320,-254.395,0.000
1606135083.067,-28.320,-46.387,-21.973,-18.066,0.000
1606135083.071,29.785,-38.574,-20.996,193.848,0.000
1606135083.075,-8.789,-36.621,-23.926,97.656,0.000
1606135083.079,-100.098,-40.039,-32.715,-181.152,0.000
1606135083.083,-123.047,-44.922,-36.621,-284.668,0.000
1606135083.087,-45.898,-42.480,-27.344,-61.523,0.000
1606135083.091,30.762,-39.062,-23.926,184.570,0.000
1606135083.095,10.254,-37.598,-25.879,150.879,0.000
1606135083.098,-74.219,-36.621,-25.879,-126.953,0.000
1606135083.102,-108.887,-32.715,-21.973,-275.391,0.000
1606135083.106,-45.410,-28.809,-27.832,-87.891,0.000
1606135083.110,35.645,-24.414,-30.762,168.457,0.000
1606135083.114,21.484,-28.320,-25.879,154.785,0.000
1606135083.118,-81.543,-35.156,-27.832,-129.395,0.000
1606135083.122,-129.395,-41.504,-27.832,-289.062,0.000
1606135083.126,-61.523,-46.387,-32.227,-131.348,0.000
1606135083.130,28.809,-33.203,-32.715,140.137,0.000
1606135083.134,28.809,-31.738,-35.156,179.199,0.000
1606135083.138,-70.801,-39.551,-44.922,-93.750,0.000
1606135083.141,-130.859,-35.156,-39.551,-280.273,0.000
1606135083.145,-71.289,-29.297,-31.250,-151.855,0.000
1606135083.149,31.250,-23.926,-26.855,126.465,0.000
1606135083.153,52.246,-21.484,-30.762,203.613,0.000
1606135083.157,-34.180,-22.461,-32.715,-27.344,0.000
1606135083.161,-103.027,-32.227,-32.227,-243.652,0.000
1606135083.165,-65.430,-40.039,-32.227,-182.617,0.000
1606135083.169,32.715,-23.926,-25.879,99.121,0.000
1606135083.173,61.523,-12.695,-27.344,219.238,0.000
1606135083.177,-19.043,-16.113,-28.809,5.859,0.000
1606135083.180,-97.168,-24.414,-24.902,-242.676,0.000
1606135083.184,-79.102,-24.414,-30.762,-210.938,0.000
1606135083.188,16.602,-17.090,-23.926,80.078,0.000
1606135083.192,54.688,-13.184,-16.602,229.492,0.000
1606135083.196,-21.484,-23.438,-29.785,34.668,0.000
1606135083.200,-105.469,-31.250,-34.180,-223.633,0.000
1606135083.204,-92.285,-24.902,-32.715,-233.398,0.000
1606135083.208,0.977,-23.438,-29.785,34.180,0.000
1606135083.212,53.711,-23.926,-27.832,217.773,0.000
1606135083.216,-2.441,-24.902,-26.855,80.566,0.000
1606135083.220,-93.750,-30.273,-32.715,-196.777,0.000
1606135083.223,-93.750,-37.598,-35.645,-252.441,0.000
1606135083.227,-2.930,-30.762,-26.367,9.766,0.000
1606135083.231,47.363,-25.879,-22.949,204.590,0.000
1606135083.235,-2.930,-34.180,-29.297,83.496,0.000
1606135083.239,-92.773,-34.668,-34.668,-193.359,0.000
1606135083.243,-110.840,-34.668,-32.715,-271.484,0.000
1606135083.247,-23.438,-28.809,-31.250,-29.297,0.000
1606135083.251,42.480,-22.461,-28.809,191.406,0.000
1606135083.255,-1.953,-26.855,-25.391,109.863,0.000
1606135083.259,-87.402,-29.785,-36.621,-169.922,0.000
1606135083.263,-103.027,-38.574,-41.016,-276.367,0.000
1606135083.266,-29.297,-38.574,-24.902,-61.035,0.000
1606135083.270,30.762,-30.273,-14.160,176.758,0.000
1606135083.274,1.465,-34.668,-17.090,148.926,0.000
1606135083.278,-87.402,-41.504,-20.508,-126.465,0.000
1606135083.282,-129.395,-43.457,-23.438,-288.574,0.000
1606135083.286,-60.547,-37.109,-18.066,-116.699,0.000
1606135083.290,24.902,-30.762,-12.207,148.438,0.000
1606135083.294,15.137,-31.738,-11.719,164.062,0.000
1606135083.298,-71.289,-27.832,-13.672,-90.820,0.000
1606135083.302,-125.977,-36.621,-22.461,-275.391,0.000
1606135083.305,-65.918,-52.734,-22.949,-143.066,0.000
1606135083.309,24.902,-40.527,-13.184,140.625,0.000
1606135083.313,31.738,-28.320,-9.277,208.984,0.000
1606135083.317,-55.176,-32.715,-21.973,-50.781,0.000
1606135083.321,-119.629,-35.645,-27.344,-266.113,0.000
1606135083.325,-77.148,-38.086,-22.461,-167.480,0.000
1606135083.329,20.508,-32.227,-19.043,115.234,0.000
1606135083.333,47.363,-22.949,-11.230,225.098,0.000
1606135083.337,-42.480,-29.297,-20.020,-7.812,0.000
1606135083.341,-113.281,-41.016,-27.832,-246.094,0.000
1606135083.345,-80.566,-36.621,-22.949,-182.617,0.000
1606135083.348,19.531,-20.996,-22.461,104.004,0.000
1606135083.352,51.270,-22.461,-23.926,229.492,0.000
1606135083.356,-24.414,-28.809,-20.996,25.879,0.000
1606135083.360,-95.703,-33.203,-20.020,-219.727,0.000
1606135083.364,-72.266,-39.551,-21.973,-210.938,0.000
1606135083.368,25.879,-32.227,-20.508,67.383,0.000
1606135083.372,58.594,-25.391,-19.043,227.539,0.000
1606135083.376,-6.836,-27.832,-21.484,62.012,0.000
1606135083.380,-83.984,-30.273,-30.273,-197.266,0.000
1606135083.384,-76.172,-31.250,-36.621,-215.332,0.000
1606135083.388,16.602,-24.414,-26.855,57.129,0.000
1606135083.391,65.430,-16.602,-22.949,241.699,0.000
1606135083.395,5.859,-19.531,-31.250,116.211,0.000
1606135083.399,-86.426,-30.762,-27.832,-174.316,0.000
1606135083.403,-92.285,-36.621,-22.949,-240.723,0.000
