timestamps,TP9,AF7,AF8,TP10,Right AUX
1606130326.845,0.000,0.000,0.000,0.000,0.000
1606130326.849,0.000,0.000,0.000,0.488,0.000
1606130326.853,-3.418,-1.465,-1.465,-6.348,0.000
1606130326.857,5.859,1.953,2.441,11.719,0.000
1606130326.861,-26.367,-12.207,-12.207,-49.805,0.000
1606130326.865,-87.891,-33.691,-33.691,-161.133,0.000
1606130326.869,-59.082,-33.691,-28.320,-91.309,0.000
1606130326.872,10.742,-26.855,-26.855,64.453,0.000
1606130326.876,27.832,-25.879,-33.203,101.562,0.000
1606130326.880,-30.762,-27.832,-34.180,-34.668,0.000
1606130326.884,-82.031,-24.414,-32.715,-150.391,0.000
1606130326.888,-55.664,-21.484,-33.691,-95.215,0.000
1606130326.892,23.926,-22.461,-24.902,59.082,0.000
1606130326.896,34.668,-22.461,-19.531,123.535,0.000
1606130326.900,-28.809,-22.949,-25.391,4.395,0.000
1606130326.904,-80.078,-32.715,-32.715,-139.648,0.000
1606130326.908,-73.730,-31.738,-35.156,-115.234,0.000
1606130326.912,-7.812,-24.902,-22.461,50.781,0.000
1606130326.915,20.508,-27.832,-20.996,120.117,0.000
1606130326.919,-25.391,-30.762,-31.250,6.836,0.000
1606130326.923,-82.520,-29.297,-25.391,-132.324,0.000
1606130326.927,-81.055,-32.715,-26.855,-140.137,0.000
1606130326.931,-9.766,-29.297,-31.250,0.488,0.000
1606130326.935,30.273,-20.508,-33.203,104.004,0.000
1606130326.939,-7.812,-24.414,-32.227,37.598,0.000
1606130326.943,-60.547,-24.902,-33.203,-108.398,0.000
1606130326.947,-67.871,-21.484,-34.668,-147.461,0.000
1606130326.951,-5.371,-15.625,-24.902,-12.207,0.000
1606130326.955,37.598,-14.160,-23.438,102.051,0.000
1606130326.958,3.418,-16.602,-31.738,36.133,0.000
1606130326.962,-55.664,-34.180,-35.645,-116.211,0.000
1606130326.966,-76.172,-51.270,-37.598,-166.504,0.000
1606130326.970,-31.250,-35.156,-31.738,-52.734,0.000
1606130326.974,25.879,-20.020,-22.949,81.055,0.000
1606130326.978,17.090,-18.066,-23.438,62.988,0.000
1606130326.982,-50.781,-21.973,-25.391,-93.262,0.000
1606130326.986,-80.078,-24.902,-24.414,-166.016,0.000
1606130326.990,-26.855,-24.414,-22.949,-70.312,0.000
1606130326.994,29.297,-19.531,-21.973,67.383,0.000
1606130326.997,13.672,-22.949,-24.902,72.754,0.000
1606130327.001,-48.340,-30.273,-29.785,-77.148,0.000
1606130327.005,-80.078,-28.809,-24.902,-159.668,0.000
1606130327.009,-38.574,-34.668,-19.531,-78.125,0.000
1606130327.013,22.949,-42.969,-27.344,60.547,0.000
1606130327.017,20.508,-29.297,-39.062,83.496,0.000
1606130327.021,-47.852,-26.367,-42.480,-61.523,0.000
1606130327.025,-94.727,-34.180,-39.551,-162.109,0.000
1606130327.029,-64.453,-30.273,-34.668,-101.074,0.000
1606130327.033,-0.977,-22.461,-31.738,32.227,0.000
1606130327.037,20.508,-25.391,-31.738,81.543,0.000
1606130327.040,-29.785,-30.273,-36.133,-35.645,0.000
1606130327.044,-84.473,-27.344,-37.598,-157.227,0.000
1606130327.048,-57.129,-24.414,-26.855,-118.164,0.000
1606130327.052,11.230,-21.973,-25.391,36.621,0.000
1606130327.056,31.738,-11.230,-25.391,103.027,0.000
1606130327.060,-14.648,-24.902,-27.832,-9.766,0.000
1606130327.064,-83.008,-47.852,-36.133,-158.203,0.000
1606130327.068,-78.613,-32.715,-30.273,-145.996,0.000
1606130327.072,-9.277,-17.578,-24.414,11.719,0.000
1606130327.076,17.090,-22.949,-26.367,90.820,0.000
1606130327.080,-23.926,-29.785,-31.738,0.977,0.000
1606130327.083,-79.102,-31.738,-33.691,-139.648,0.000
1606130327.087,-81.543,-27.832,-35.156,-149.902,0.000
1606130327.091,-24.414,-26.855,-32.227,-3.906,0.000
1606130327.095,13.672,-23.438,-28.320,93.262,0.000
1606130327.099,-19.043,-25.391,-35.645,28.809,0.000
1606130327.103,-78.125,-35.156,-40.527,-112.305,0.000
1606130327.107,-89.844,-34.668,-35.645,-157.715,0.000
1606130327.111,-40.039,-35.645,-38.086,-33.203,0.000
1606130327.115,9.766,-35.156,-34.180,92.285,0.000
1606130327.119,-12.695,-24.902,-25.391,55.176,0.000
1606130327.122,-72.754,-20.996,-23.926,-100.098,0.000
1606130327.126,-89.844,-26.855,-23.438,-157.715,0.000
1606130327.130,-44.922,-34.180,-22.461,-48.340,0.000
1606130327.134,11.230,-25.391,-27.344,74.707,0.000
1606130327.138,-3.906,-23.438,-21.973,66.406,0.000
1606130327.142,-69.824,-26.855,-20.508,-77.148,0.000
1606130327.146,-81.055,-25.879,-29.297,-141.113,0.000
1606130327.150,-33.691,-29.297,-23.926,-43.945,0.000
1606130327.154,14.648,-26.367,-14.160,68.848,0.000
1606130327.158,11.230,-29.297,-21.484,71.289,0.000
1606130327.162,-58.105,-51.270,-33.691,-71.777,0.000
1606130327.165,-96.680,-48.828,-30.762,-164.062,0.000
1606130327.169,-55.176,-28.809,-24.902,-79.102,0.000
1606130327.173,8.789,-22.949,-25.879,66.406,0.000
1606130327.177,15.625,-23.926,-24.902,91.309,0.000
1606130327.181,-40.527,-27.344,-26.367,-38.086,0.000
1606130327.185,-85.449,-27.344,-28.809,-139.648,0.000
1606130327.189,-66.406,-29.297,-20.020,-91.797,0.000
1606130327.193,-5.859,-27.832,-15.137,46.875,0.000
1606130327.197,9.766,-19.531,-20.996,97.656,0.000
1606130327.201,-39.062,-26.367,-23.926,-14.648,0.000
1606130327.205,-81.055,-34.668,-29.297,-131.348,0.000
1606130327.208,-67.871,-31.250,-25.391,-106.934,0.000
1606130327.212,-4.395,-33.203,-22.461,40.527,0.000
1606130327.216,21.484,-28.320,-25.391,98.633,0.000
1606130327.220,-31.250,-31.738,-33.203,-10.254,0.000
1606130327.224,-88.867,-37.109,-36.133,-128.906,0.000
1606130327.228,-86.426,-32.227,-31.738,-123.047,0.000
1606130327.232,-23.926,-26.367,-26.855,9.766,0.000
1606130327.236,13.184,-25.391,-23.438,99.121,0.000
1606130327.240,-18.555,-22.949,-22.461,23.438,0.000
1606130327.244,-68.848,-22.461,-23.438,-115.723,0.000
1606130327.247,-76.660,-32.227,-25.879,-138.672,0.000
1606130327.251,-25.879,-33.691,-25.391,-9.277,0.000
1606130327.255,13.184,-32.715,-21.973,92.285,0.000
1606130327.259,-9.277,-27.832,-21.484,36.133,0.000
1606130327.263,-64.453,-27.344,-24.902,-108.887,0.000
1606130327.267,-77.148,-25.879,-23.438,-156.250,0.000
1606130327.271,-25.391,-26.855,-19.043,-27.832,0.000
1606130327.275,18.555,-28.809,-18.066,91.309,0.000
1606130327.279,8.789,-22.461,-12.695,46.387,0.000
1606130327.283,-60.547,-32.227,-21.484,-110.352,0.000
1606130327.287,-104.004,-32.715,-33.691,-165.039,0.000
1606130327.290,-36.133,-33.203,-31.250,-35.645,0.000
1606130327.294,29.297,-33.203,-26.855,92.285,0.000
1606130327.298,8.789,-21.973,-22.949,74.219,0.000
1606130327.302,-64.453,-23.926,-23.926,-74.707,0.000
1606130327.306,-83.496,-30.273,-25.391,-170.898,0.000
1606130327.310,-47.363,-31.738,-23.438,-86.426,0.000
1606130327.314,4.395,-25.879,-19.043,63.965,0.000
1606130327.318,10.254,-30.273,-22.949,73.242,0.000
1606130327.322,-53.711,-34.668,-33.203,-73.242,0.000
1606130327.326,-88.379,-31.738,-36.133,-174.316,0.000
1606130327.330,-55.664,-29.297,-28.320,-103.516,0.000
1606130327.333,3.418,-20.508,-22.461,47.852,0.000
1606130327.337,7.324,-19.043,-25.391,81.055,0.000
1606130327.341,-52.734,-31.250,-31.738,-56.152,0.000
1606130327.345,-102.539,-39.551,-33.203,-167.480,0.000
1606130327.349,-83.008,-34.180,-28.809,-117.676,0.000
1606130327.353,-18.555,-32.715,-31.250,25.391,0.000
1606130327.357,5.371,-36.621,-32.227,82.520,0.000
1606130327.361,-31.738,-37.598,-28.809,-20.996,0.000
1606130327.365,-79.102,-39.062,-32.715,-151.855,0.000
1606130327.369,-70.312,-35.156,-35.645,-137.207,0.000
1606130327.372,-2.930,-32.715,-27.344,10.254,0.000
1606130327.376,27.832,-29.297,-22.949,92.773,0.000
1606130327.380,-14.160,-31.738,-24.902,9.766,0.000
1606130327.384,-65.430,-33.691,-30.273,-125.977,0.000
1606130327.388,-65.918,-33.691,-32.227,-134.766,0.000
1606130327.392,-7.812,-35.645,-28.809,10.742,0.000
1606130327.396,32.227,-28.809,-27.832,97.656,0.000
1606130327.400,-0.977,-27.344,-29.297,23.438,0.000
1606130327.404,-68.848,-32.715,-33.691,-122.070,0.000
1606130327.408,-75.195,-26.855,-28.320,-151.855,0.000
1606130327.412,-8.301,-20.020,-20.508,-16.113,0.000
1606130327.415,30.273,-14.648,-16.602,101.562,0.000
1606130327.419,11.230,-13.184,-14.648,57.617,0.000
1606130327.423,-53.223,-26.855,-28.809,-106.934,0.000
1606130327.427,-80.078,-32.227,-32.715,-167.480,0.000
1606130327.431,-22.949,-11.719,-21.973,-39.551,0.000
1606130327.435,29.785,-7.812,-19.043,86.914,0.000
1606130327.439,4.883,-21.973,-20.996,58.594,0.000
1606130327.443,-66.406,-25.879,-32.715,-102.051,0.000
1606130327.447,-94.238,-28.320,-40.527,-172.852,0.000
1606130327.451,-52.734,-27.832,-34.668,-65.430,0.000
1606130327.455,9.766,-22.949,-29.297,76.660,0.000
1606130327.458,10.742,-20.996,-26.367,77.637,0.000
1606130327.462,-49.805,-22.949,-20.508,-67.871,0.000
1606130327.466,-75.684,-26.367,-23.926,-156.250,0.000
1606130327.470,-43.457,-29.785,-28.320,-80.078,0.000
1606130327.474,6.348,-26.855,-27.344,62.500,0.000
1606130327.478,5.859,-21.973,-29.785,81.055,0.000
1606130327.482,-46.387,-30.273,-36.133,-61.523,0.000
1606130327.486,-80.566,-35.645,-31.738,-167.480,0.000
1606130327.490,-60.547,-30.273,-20.996,-102.539,0.000
1606130327.494,-12.695,-25.391,-20.508,52.734,0.000
1606130327.497,0.977,-31.738,-28.809,99.609,0.000
1606130327.501,-45.410,-37.598,-36.621,-23.438,0.000
1606130327.505,-85.938,-40.039,-38.086,-138.184,0.000
1606130327.509,-62.012,-36.621,-34.668,-109.375,0.000
1606130327.513,-0.488,-30.273,-29.297,32.227,0.000
1606130327.517,28.320,-25.391,-23.926,102.539,0.000
1606130327.521,-19.043,-27.832,-26.855,0.977,0.000
1606130327.525,-74.707,-32.715,-24.902,-122.559,0.000
1606130327.529,-68.359,-39.062,-25.879,-114.258,0.000
1606130327.533,-7.324,-45.898,-30.273,20.996,0.000
1606130327.537,33.203,-30.762,-26.855,99.121,0.000
1606130327.540,-4.395,-24.414,-30.762,22.461,0.000
1606130327.544,-73.242,-31.738,-32.715,-121.094,0.000
1606130327.548,-78.613,-28.320,-29.297,-151.855,0.000
1606130327.552,-16.602,-24.414,-20.508,-13.184,0.000
1606130327.556,29.297,-20.508,-15.137,91.797,0.000
1606130327.560,6.836,-18.066,-18.555,31.250,0.000
1606130327.564,-62.500,-20.508,-27.344,-119.141,0.000
1606130327.568,-76.172,-26.367,-35.645,-151.367,0.000
1606130327.572,-18.066,-27.344,-36.133,-22.949,0.000
1606130327.576,29.785,-18.066,-30.762,85.449,0.000
1606130327.580,7.812,-19.043,-31.250,54.199,0.000
1606130327.583,-55.664,-24.414,-41.016,-98.145,0.000
1606130327.587,-73.242,-20.996,-29.297,-145.508,0.000
1606130327.591,-26.367,-16.113,-20.996,-32.227,0.000
1606130327.595,29.785,-9.277,-32.227,83.008,0.000
1606130327.599,16.602,-13.184,-33.203,69.336,0.000
1606130327.603,-52.246,-18.555,-31.250,-83.008,0.000
1606130327.607,-75.195,-21.973,-41.016,-163.574,0.000
1606130327.611,-26.855,-19.043,-44.922,-68.359,0.000
1606130327.615,29.785,-12.695,-38.086,72.754,0.000
1606130327.619,37.109,-13.184,-35.156,91.797,0.000
1606130327.622,-29.785,-21.484,-35.645,-51.270,0.000
1606130327.626,-79.590,-27.344,-32.715,-166.016,0.000
1606130327.630,-45.898,-29.785,-25.879,-98.633,0.000
1606130327.634,9.766,-27.832,-26.367,53.711,0.000
1606130327.638,19.043,-21.973,-32.715,81.543,0.000
1606130327.642,-29.785,-31.738,-35.645,-45.898,0.000
1606130327.646,-77.637,-35.645,-29.785,-153.320,0.000
1606130327.650,-58.594,-32.715,-29.297,-108.887,0.000
1606130327.654,6.836,-26.855,-33.203,47.852,0.000
1606130327.658,20.508,-29.297,-35.645,104.492,0.000
1606130327.662,-29.297,-32.227,-37.109,-16.113,0.000
1606130327.665,-72.754,-25.391,-33.203,-137.207,0.000
1606130327.669,-64.453,-33.691,-28.809,-114.746,0.000
1606130327.673,-3.906,-33.691,-25.391,41.504,0.000
1606130327.677,29.297,-26.855,-27.344,115.723,0.000
1606130327.681,-10.254,-24.414,-28.809,15.137,0.000
1606130327.685,-68.359,-26.855,-22.461,-119.629,0.000
1606130327.689,-64.453,-24.902,-18.066,-120.117,0.000
1606130327.693,-3.906,-23.438,-19.531,19.531,0.000
1606130327.697,31.250,-20.508,-20.996,108.398,0.000
1606130327.701,-16.602,-28.809,-31.250,35.645,0.000
1606130327.705,-90.332,-42.480,-39.062,-128.906,0.000
1606130327.708,-83.496,-43.945,-33.691,-157.227,0.000
1606130327.712,-10.742,-40.527,-24.902,-1.465,0.000
1606130327.716,31.250,-26.367,-19.043,104.492,0.000
1606130327.720,5.371,-26.367,-27.832,42.480,0.000
1606130327.724,-69.824,-37.109,-34.180,-113.281,0.000
1606130327.728,-95.215,-38.574,-34.180,-162.109,0.000
1606130327.732,-30.273,-39.062,-29.785,-41.016,0.000
1606130327.736,29.785,-29.785,-26.855,82.520,0.000
1606130327.740,13.184,-26.855,-33.203,52.734,0.000
1606130327.744,-60.547,-34.180,-34.180,-94.727,0.000
1606130327.747,-91.309,-39.551,-33.691,-165.039,0.000
1606130327.751,-40.527,-37.109,-33.691,-62.012,0.000
1606130327.755,24.902,-28.320,-35.156,79.590,0.000
1606130327.759,17.090,-27.344,-40.527,74.219,0.000
1606130327.763,-48.340,-37.109,-39.062,-83.008,0.000
1606130327.767,-89.844,-42.480,-34.180,-178.223,0.000
1606130327.771,-52.734,-35.156,-40.039,-95.215,0.000
1606130327.775,12.207,-27.344,-34.180,57.617,0.000
1606130327.779,11.230,-27.344,-26.367,85.938,0.000
1606130327.783,-48.828,-31.250,-35.156,-59.082,0.000
1606130327.787,-85.938,-35.645,-37.109,-167.480,0.000
1606130327.790,-53.223,-37.109,-32.715,-108.398,0.000
1606130327.794,10.254,-34.668,-27.344,41.016,0.000
1606130327.798,30.273,-36.133,-26.367,82.520,0.000
1606130327.802,-28.809,-37.109,-28.320,-43.457,0.000
1606130327.806,-75.684,-36.133,-31.250,-153.320,0.000
1606130327.810,-54.199,-25.879,-39.062,-117.188,0.000
1606130327.814,1.465,-14.160,-37.109,23.926,0.000
1606130327.818,20.508,-28.320,-34.180,80.078,0.000
1606130327.822,-24.414,-35.156,-37.109,-17.578,0.000
1606130327.826,-66.895,-37.109,-32.715,-145.508,0.000
1606130327.830,-64.941,-43.457,-36.133,-144.043,0.000
1606130327.833,-6.836,-42.969,-36.621,10.742,0.000
1606130327.837,26.855,-38.086,-30.273,97.656,0.000
1606130327.841,-17.090,-36.621,-35.645,13.184,0.000
1606130327.845,-73.730,-41.504,-40.039,-136.230,0.000
1606130327.849,-82.031,-44.922,-33.203,-158.203,0.000
1606130327.853,-18.066,-33.691,-24.902,-3.418,0.000
1606130327.857,23.438,-31.738,-25.879,101.562,0.000
1606130327.861,-16.113,-38.574,-33.203,26.367,0.000
1606130327.865,-80.566,-41.016,-41.016,-134.766,0.000
1606130327.869,-94.238,-42.969,-41.504,-172.363,0.000
1606130327.872,-36.133,-35.156,-37.598,-35.156,0.000
1606130327.876,18.555,-30.762,-27.832,90.332,0.000
1606130327.880,-10.742,-35.645,-28.809,46.875,0.000
1606130327.884,-74.707,-36.133,-27.832,-103.027,0.000
1606130327.888,-95.215,-34.180,-24.414,-161.621,0.000
1606130327.892,-53.223,-34.668,-24.902,-51.270,0.000
1606130327.896,6.348,-23.438,-18.555,83.496,0.000
1606130327.900,-4.883,-22.949,-27.344,66.895,0.000
1606130327.904,-74.219,-36.621,-31.738,-80.078,0.000
1606130327.908,-100.586,-38.574,-31.738,-170.410,0.000
1606130327.912,-56.152,-50.781,-41.504,-81.543,0.000
1606130327.915,6.348,-47.852,-39.062,72.754,0.000
1606130327.919,8.789,-29.297,-35.156,69.336,0.000
1606130327.923,-50.293,-30.762,-40.039,-78.613,0.000
1606130327.927,-88.867,-33.691,-39.062,-170.898,0.000
1606130327.931,-62.012,-31.738,-38.574,-96.191,0.000
1606130327.935,0.000,-28.809,-36.133,59.570,0.000
1606130327.939,1.953,-27.832,-29.785,82.031,0.000
1606130327.943,-49.805,-30.273,-30.762,-44.434,0.000
1606130327.947,-85.449,-30.273,-37.598,-148.438,0.000
1606130327.951,-68.359,-45.898,-41.016,-110.352,0.000
1606130327.955,2.441,-41.992,-34.668,49.805,0.000
1606130327.958,20.508,-33.691,-26.855,105.469,0.000
1606130327.962,-37.598,-42.969,-29.785,-16.113,0.000
1606130327.966,-75.684,-36.133,-41.016,-139.160,0.000
1606130327.970,-55.176,-36.133,-41.992,-121.094,0.000
1606130327.974,4.883,-36.133,-35.156,23.926,0.000
1606130327.978,27.344,-25.391,-28.809,104.492,0.000
1606130327.982,-19.531,-25.879,-29.785,-1.465,0.000
1606130327.986,-77.637,-31.250,-35.645,-141.602,0.000
1606130327.990,-71.777,-33.691,-33.203,-131.836,0.000
1606130327.994,-10.742,-30.273,-32.715,8.301,0.000
1606130327.997,24.902,-23.926,-34.668,88.867,0.000
1606130328.001,-10.742,-29.785,-37.598,3.418,0.000
1606130328.005,-74.219,-33.203,-35.156,-139.648,0.000
1606130328.009,-83.496,-33.691,-31.250,-162.109,0.000
1606130328.013,-14.160,-37.109,-26.855,-18.066,0.000
1606130328.017,29.297,-29.785,-19.531,91.797,0.000
1606130328.021,-12.207,-28.320,-21.484,32.715,0.000
1606130328.025,-69.336,-32.715,-28.320,-117.676,0.000
1606130328.029,-85.938,-37.109,-36.621,-174.316,0.000
1606130328.033,-34.180,-33.203,-32.227,-41.016,0.000
1606130328.037,27.832,-20.996,-25.391,88.379,0.000
1606130328.040,9.766,-23.438,-24.414,47.852,0.000
1606130328.044,-58.105,-32.227,-25.879,-104.004,0.000
1606130328.048,-84.473,-34.180,-21.484,-167.969,0.000
1606130328.052,-41.504,-41.992,-19.531,-55.176,0.000
1606130328.056,12.207,-29.297,-17.090,77.148,0.000
1606130328.060,6.836,-20.020,-21.484,59.082,0.000
1606130328.064,-60.059,-29.785,-39.062,-88.867,0.000
1606130328.068,-101.562,-28.320,-38.574,-168.945,0.000
1606130328.072,-63.477,-18.555,-33.691,-81.543,0.000
1606130328.076,-0.488,-16.602,-34.668,64.941,0.000
1606130328.080,2.441,-20.020,-33.203,82.031,0.000
1606130328.083,-61.523,-21.484,-37.598,-58.594,0.000
1606130328.087,-96.191,-18.066,-38.574,-154.785,0.000
1606130328.091,-65.918,-38.574,-32.715,-92.285,0.000
1606130328.095,-10.254,-46.387,-29.297,44.922,0.000
1606130328.099,10.254,-23.926,-26.367,79.590,0.000
1606130328.103,-41.016,-25.391,-27.832,-49.316,0.000
1606130328.107,-88.867,-29.297,-28.320,-165.039,0.000
1606130328.111,-67.383,-28.809,-31.250,-121.582,0.000
1606130328.115,-4.883,-26.855,-30.273,29.785,0.000
1606130328.119,23.438,-21.484,-26.367,89.844,0.000
1606130328.122,-23.926,-20.020,-29.785,-19.531,0.000
1606130328.126,-74.707,-25.391,-34.668,-154.785,0.000
1606130328.130,-58.594,-33.691,-34.668,-131.836,0.000
1606130328.134,11.719,-30.762,-26.855,25.879,0.000
1606130328.138,37.109,-28.320,-22.461,102.051,0.000
1606130328.142,-8.301,-32.715,-22.949,12.695,0.000
1606130328.146,-69.824,-35.645,-22.461,-125.488,0.000
1606130328.150,-77.148,-51.270,-23.926,-135.742,0.000
1606130328.154,-9.766,-50.293,-24.902,5.859,0.000
1606130328.158,32.227,-31.250,-32.715,105.957,0.000
1606130328.162,-7.812,-32.715,-34.180,38.086,0.000
1606130328.165,-59.570,-33.691,-30.762,-105.957,0.000
1606130328.169,-65.918,-33.691,-34.180,-144.043,0.000
1606130328.173,-31.250,-33.691,-34.180,-21.484,0.000
1606130328.177,14.648,-27.832,-27.344,94.238,0.000
1606130328.181,-0.977,-26.855,-23.926,52.246,0.000
1606130328.185,-64.453,-29.297,-25.879,-101.562,0.000
1606130328.189,-86.914,-36.133,-30.273,-157.227,0.000
1606130328.193,-31.738,-68.359,-35.645,-38.086,0.000
1606130328.197,24.902,-53.711,-26.855,94.238,0.000
1606130328.201,5.371,-26.367,-23.926,65.430,0.000
1606130328.205,-67.383,-37.109,-36.621,-95.215,0.000
1606130328.208,-88.867,-37.109,-33.691,-161.133,0.000
1606130328.212,-37.598,-30.273,-30.762,-62.988,0.000
1606130328.216,20.020,-25.879,-29.297,73.242,0.000
1606130328.220,18.066,-28.320,-26.367,73.730,0.000
1606130328.224,-48.340,-25.391,-23.926,-72.754,0.000
1606130328.228,-91.309,-27.832,-25.391,-160.156,0.000
1606130328.232,-59.082,-47.852,-32.715,-88.379,0.000
1606130328.236,5.859,-33.691,-26.367,58.105,0.000
1606130328.240,18.555,-19.531,-21.484,86.426,0.000
1606130328.244,-43.457,-31.250,-31.250,-52.246,0.000
1606130328.247,-85.449,-37.598,-29.297,-161.133,0.000
1606130328.251,-50.293,-34.180,-23.438,-92.285,0.000
1606130328.255,1.953,-24.414,-29.785,63.965,0.000
1606130328.259,13.184,-20.508,-29.785,95.215,0.000
1606130328.263,-32.715,-22.461,-27.344,-29.297,0.000
1606130328.267,-78.125,-26.855,-31.738,-151.367,0.000
1606130328.271,-62.988,-31.250,-28.809,-121.094,0.000
1606130328.275,-9.766,-27.832,-28.320,39.551,0.000
1606130328.279,17.578,-24.414,-32.715,102.539,0.000
1606130328.283,-30.273,-34.668,-34.180,-13.184,0.000
1606130328.287,-87.402,-35.645,-38.574,-151.855,0.000
1606130328.290,-74.219,-41.016,-37.109,-138.672,0.000
1606130328.294,-7.324,-44.922,-25.391,18.066,0.000
1606130328.298,32.227,-25.879,-22.461,102.539,0.000
1606130328.302,-9.277,-21.973,-32.227,16.602,0.000
1606130328.306,-80.566,-25.879,-38.574,-127.930,0.000
1606130328.310,-88.867,-32.715,-41.016,-154.785,0.000
1606130328.314,-25.879,-30.273,-35.156,-21.484,0.000
1606130328.318,18.066,-18.555,-31.250,92.285,0.000
1606130328.322,-2.930,-18.555,-32.227,37.109,0.000
1606130328.326,-67.383,-30.273,-34.180,-118.652,0.000
1606130328.330,-88.379,-44.922,-34.668,-163.086,0.000
1606130328.333,-28.809,-42.480,-31.738,-36.621,0.000
1606130328.337,38.086,-21.484,-27.832,87.402,0.000
1606130328.341,29.297,-20.020,-25.879,51.758,0.000
1606130328.345,-41.504,-26.367,-36.621,-107.910,0.000
1606130328.349,-69.336,-28.320,-43.457,-166.992,0.000
1606130328.353,-20.508,-25.391,-43.945,-45.410,0.000
1606130328.357,34.180,-25.391,-48.828,83.008,0.000
1606130328.361,15.625,-31.250,-47.852,65.918,0.000
1606130328.365,-52.734,-32.227,-45.898,-82.520,0.000
1606130328.369,-83.496,-36.621,-41.016,-165.527,0.000
1606130328.372,-46.875,-52.246,-39.062,-75.684,0.000
1606130328.376,12.207,-39.551,-41.504,74.219,0.000
1606130328.380,10.742,-26.367,-38.086,71.289,0.000
1606130328.384,-57.617,-30.762,-35.645,-84.961,0.000
1606130328.388,-91.309,-34.180,-30.273,-164.062,0.000
1606130328.392,-59.570,-40.039,-33.691,-99.609,0.000
1606130328.396,5.371,-37.109,-43.457,51.758,0.000
1606130328.400,18.066,-36.621,-40.527,90.332,0.000
1606130328.404,-39.062,-39.062,-36.621,-51.270,0.000
1606130328.408,-98.633,-41.504,-39.062,-169.922,0.000
1606130328.412,-71.289,-42.480,-38.086,-119.629,0.000
1606130328.415,12.695,-37.109,-36.621,44.434,0.000
1606130328.419,43.945,-30.762,-36.133,106.445,0.000
1606130328.423,-21.973,-35.645,-36.133,-16.113,0.000
1606130328.427,-88.867,-36.133,-36.133,-157.715,0.000
1606130328.431,-67.383,-32.715,-34.668,-138.184,0.000
1606130328.435,2.441,-31.738,-39.062,28.320,0.000
1606130328.439,30.762,-30.273,-43.457,114.258,0.000
1606130328.443,-12.695,-35.645,-38.086,12.207,0.000
1606130328.447,-64.453,-35.645,-31.250,-131.348,0.000
1606130328.451,-65.430,-35.156,-30.762,-145.508,0.000
1606130328.455,-2.441,-33.691,-26.855,-3.906,0.000
1606130328.458,38.086,-30.762,-29.785,97.656,0.000
1606130328.462,-4.883,-31.250,-40.527,16.602,0.000
1606130328.466,-78.125,-41.016,-45.898,-133.789,0.000
1606130328.470,-91.797,-54.199,-45.898,-167.969,0.000
1606130328.474,-29.785,-55.176,-38.086,-35.156,0.000
1606130328.478,22.461,-40.527,-32.227,87.402,0.000
1606130328.482,1.953,-34.668,-41.992,29.785,0.000
1606130328.486,-66.406,-39.551,-43.945,-135.254,0.000
1606130328.490,-94.238,-40.527,-38.086,-185.547,0.000
1606130328.494,-41.992,-27.344,-34.668,-53.223,0.000
1606130328.497,20.020,-21.973,-33.203,84.473,0.000
1606130328.501,4.883,-29.297,-32.227,62.012,0.000
1606130328.505,-63.477,-31.250,-30.762,-95.215,0.000
1606130328.509,-87.891,-38.574,-37.598,-174.805,0.000
1606130328.513,-46.875,-41.016,-37.109,-81.055,0.000
1606130328.517,9.277,-26.367,-25.391,73.242,0.000
1606130328.521,10.742,-22.949,-22.461,82.031,0.000
1606130328.525,-51.270,-30.273,-26.367,-82.520,0.000
1606130328.529,-92.285,-34.180,-33.691,-185.059,0.000
1606130328.533,-59.570,-33.691,-41.504,-103.516,0.000
1606130328.537,13.184,-28.809,-40.527,51.758,0.000
1606130328.540,22.461,-28.809,-31.250,80.566,0.000
1606130328.544,-49.805,-33.691,-31.738,-65.430,0.000
1606130328.548,-94.727,-37.109,-38.574,-182.617,0.000
1606130328.552,-55.664,-32.227,-33.691,-108.887,0.000
1606130328.556,12.695,-24.902,-27.832,62.012,0.000
1606130328.560,23.926,-28.320,-27.832,97.656,0.000
1606130328.564,-32.715,-33.691,-27.832,-37.598,0.000
1606130328.568,-79.590,-36.133,-25.391,-165.039,0.000
1606130328.572,-65.918,-49.805,-22.461,-140.137,0.000
1606130328.576,-12.207,-47.363,-26.367,17.090,0.000
1606130328.580,17.578,-28.320,-29.297,86.426,0.000
1606130328.583,-29.785,-31.738,-33.691,-19.531,0.000
1606130328.587,-86.426,-38.574,-39.062,-152.344,0.000
1606130328.591,-71.777,-39.062,-43.945,-149.414,0.000
1606130328.595,-6.348,-30.762,-36.621,2.441,0.000
1606130328.599,25.879,-25.879,-32.715,96.191,0.000
1606130328.603,-16.602,-33.691,-38.086,6.836,0.000
1606130328.607,-81.055,-38.086,-44.434,-143.066,0.000
1606130328.611,-81.055,-49.805,-46.387,-156.738,0.000
1606130328.615,-10.254,-49.316,-41.504,-13.184,0.000
1606130328.619,30.273,-27.832,-35.645,94.727,0.000
1606130328.622,-16.602,-29.297,-30.762,39.062,0.000
1606130328.626,-83.496,-33.203,-34.668,-125.000,0.000
1606130328.630,-92.285,-30.273,-31.738,-171.875,0.000
1606130328.634,-35.645,-27.344,-33.691,-30.762,0.000
1606130328.638,13.184,-28.809,-40.039,83.008,0.000
1606130328.642,-3.418,-35.645,-35.156,49.805,0.000
1606130328.646,-53.711,-33.203,-36.133,-90.820,0.000
1606130328.650,-80.566,-34.668,-40.527,-154.297,0.000
1606130328.654,-40.039,-47.852,-37.598,-45.410,0.000
1606130328.658,12.695,-42.480,-36.621,80.566,0.000
1606130328.662,-0.977,-29.297,-36.621,60.547,0.000
1606130328.665,-63.477,-27.832,-36.133,-95.215,0.000
1606130328.669,-90.332,-31.250,-38.086,-169.922,0.000
1606130328.673,-43.945,-26.855,-30.762,-60.059,0.000
1606130328.677,19.531,-20.020,-22.949,80.566,0.000
1606130328.681,8.789,-26.367,-26.367,77.148,0.000
1606130328.685,-62.988,-39.551,-35.156,-79.102,0.000
1606130328.689,-100.586,-44.922,-34.180,-181.641,0.000
1606130328.693,-64.453,-40.039,-33.691,-94.727,0.000
1606130328.697,0.000,-28.320,-33.691,52.734,0.000
1606130328.701,1.953,-32.227,-37.109,69.824,0.000
1606130328.705,-58.594,-41.992,-43.457,-73.242,0.000
1606130328.708,-93.262,-46.875,-42.969,-182.129,0.000
1606130328.712,-62.988,-60.547,-32.227,-119.629,0.000
1606130328.716,-13.184,-48.828,-19.043,29.785,0.000
1606130328.720,12.695,-34.668,-25.879,77.148,0.000
1606130328.724,-31.250,-36.133,-30.273,-38.086,0.000
1606130328.728,-96.191,-33.203,-24.414,-153.809,0.000
1606130328.732,-77.148,-36.133,-30.273,-123.535,0.000
1606130328.736,-14.160,-33.691,-33.691,28.809,0.000
1606130328.740,15.137,-28.809,-26.855,102.539,0.000
1606130328.744,-27.832,-36.133,-37.109,-1.953,0.000
1606130328.747,-88.379,-41.992,-39.062,-144.531,0.000
1606130328.751,-82.031,-73.730,-42.480,-144.043,0.000
1606130328.755,-21.973,-76.172,-36.621,17.090,0.000
1606130328.759,11.719,-36.133,-21.484,104.980,0.000
1606130328.763,-17.578,-33.203,-24.414,14.648,0.000
1606130328.767,-74.219,-32.715,-24.902,-123.047,0.000
1606130328.771,-76.660,-32.227,-25.391,-144.043,0.000
1606130328.775,-12.207,-30.273,-25.879,-5.371,0.000
1606130328.779,15.137,-30.762,-22.461,96.680,0.000
1606130328.783,-15.137,-38.086,-27.344,32.227,0.000
1606130328.787,-73.242,-40.527,-38.574,-114.746,0.000
1606130328.790,-92.773,-58.105,-41.016,-154.297,0.000
1606130328.794,-47.363,-58.594,-30.273,-40.039,0.000
1606130328.798,8.301,-31.738,-26.367,80.078,0.000
1606130328.802,0.000,-24.414,-30.273,57.129,0.000
1606130328.806,-75.684,-31.738,-32.227,-96.191,0.000
1606130328.810,-104.980,-38.574,-35.156,-165.527,0.000
1606130328.814,-50.293,-37.109,-34.668,-61.523,0.000
1606130328.818,15.137,-31.738,-29.785,64.941,0.000
1606130328.822,2.930,-34.668,-33.203,68.848,0.000
1606130328.826,-74.219,-43.457,-38.574,-73.730,0.000
1606130328.830,-92.773,-41.992,-35.645,-161.621,0.000
1606130328.833,-54.688,-38.086,-35.645,-75.195,0.000
1606130328.837,-6.836,-37.598,-37.598,67.871,0.000
1606130328.841,5.371,-38.574,-36.133,73.730,0.000
1606130328.845,-52.246,-42.480,-31.738,-71.777,0.000
1606130328.849,-91.309,-43.945,-31.738,-164.551,0.000
1606130328.853,-52.734,-43.945,-35.156,-93.750,0.000
1606130328.857,2.441,-41.016,-34.180,49.316,0.000
1606130328.861,3.906,-37.109,-38.086,85.449,0.000
1606130328.865,-30.273,-34.668,-39.062,-46.387,0.000
1606130328.869,-73.242,-30.273,-36.133,-160.156,0.000
1606130328.872,-65.430,-27.344,-39.062,-116.211,0.000
1606130328.876,-7.324,-28.320,-35.156,32.227,0.000
1606130328.880,11.719,-28.320,-30.762,104.492,0.000
1606130328.884,-38.574,-28.320,-37.598,-11.719,0.000
1606130328.888,-92.773,-36.621,-44.434,-151.855,0.000
1606130328.892,-85.449,-51.758,-40.039,-133.789,0.000
1606130328.896,-24.414,-42.969,-30.762,20.996,0.000
1606130328.900,15.625,-23.926,-27.832,97.656,0.000
1606130328.904,-26.855,-26.855,-36.133,0.488,0.000
1606130328.908,-90.332,-42.969,-47.852,-138.184,0.000
1606130328.912,-92.285,-48.828,-43.945,-152.344,0.000
1606130328.915,-30.762,-38.086,-30.273,-0.488,0.000
1606130328.919,11.719,-31.738,-30.762,95.703,0.000
1606130328.923,-17.090,-31.738,-41.016,12.695,0.000
1606130328.927,-74.707,-32.715,-43.457,-129.395,0.000
1606130328.931,-81.543,-50.293,-43.945,-151.367,0.000
1606130328.935,-28.809,-53.711,-34.180,-32.715,0.000
1606130328.939,10.254,-28.320,-24.414,69.824,0.000
1606130328.943,-20.020,-20.020,-32.227,28.809,0.000
1606130328.947,-82.031,-26.367,-35.156,-111.328,0.000
1606130328.951,-95.703,-37.598,-36.133,-168.457,0.000
1606130328.955,-48.828,-37.598,-37.109,-54.688,0.000
1606130328.958,2.930,-28.809,-32.715,75.684,0.000
1606130328.962,-6.348,-27.832,-32.715,50.293,0.000
1606130328.966,-70.312,-37.109,-34.668,-93.262,0.000
1606130328.970,-103.027,-43.457,-36.133,-163.086,0.000
1606130328.974,-61.035,-42.480,-36.621,-78.125,0.000
1606130328.978,4.883,-32.227,-33.691,59.570,0.000
1606130328.982,-0.977,-36.133,-32.715,61.035,0.000
1606130328.986,-73.730,-38.574,-41.504,-84.961,0.000
1606130328.990,-104.980,-49.805,-49.316,-178.223,0.000
1606130328.994,-65.918,-54.199,-37.598,-93.750,0.000
1606130328.997,-5.859,-30.762,-26.367,64.453,0.000
1606130329.001,3.418,-26.367,-32.227,80.566,0.000
1606130329.005,-50.293,-32.715,-33.203,-58.105,0.000
1606130329.009,-93.262,-34.668,-36.621,-151.855,0.000
1606130329.013,-65.918,-31.738,-38.574,-96.191,0.000
1606130329.017,3.418,-26.367,-32.227,43.457,0.000
1606130329.021,23.926,-22.461,-26.367,89.844,0.000
1606130329.025,-26.367,-23.926,-30.762,-21.484,0.000
1606130329.029,-84.961,-36.133,-36.621,-150.391,0.000
1606130329.033,-66.406,-49.805,-35.645,-122.070,0.000
1606130329.037,1.465,-38.574,-41.016,27.344,0.000
1606130329.040,17.578,-26.855,-42.969,80.078,0.000
1606130329.044,-19.043,-26.855,-36.621,-16.602,0.000
1606130329.048,-70.801,-33.691,-32.715,-137.695,0.000
1606130329.052,-71.289,-35.156,-27.832,-124.023,0.000
1606130329.056,-6.348,-22.461,-22.949,20.020,0.000
1606130329.060,34.668,-19.531,-27.832,95.215,0.000
1606130329.064,-9.766,-20.020,-35.645,11.230,0.000
1606130329.068,-77.637,-21.973,-41.016,-128.906,0.000
1606130329.072,-77.148,-38.086,-42.969,-127.441,0.000
1606130329.076,-20.996,-34.668,-36.621,15.137,0.000
1606130329.080,17.090,-22.461,-28.809,93.750,0.000
1606130329.083,-4.883,-21.973,-29.785,28.320,0.000
1606130329.087,-64.453,-30.273,-34.180,-121.094,0.000
1606130329.091,-87.891,-36.621,-33.203,-152.832,0.000
1606130329.095,-37.598,-30.762,-32.715,-20.996,0.000
1606130329.099,10.742,-30.273,-31.250,80.566,0.000
1606130329.103,-4.395,-31.250,-32.227,40.039,0.000
1606130329.107,-62.012,-32.227,-30.273,-104.004,0.000
1606130329.111,-92.285,-41.504,-33.691,-166.992,0.000
1606130329.115,-45.410,-41.016,-40.039,-61.523,0.000
1606130329.119,6.836,-27.832,-35.156,72.266,0.000
1606130329.122,0.977,-29.297,-36.621,52.246,0.000
1606130329.126,-59.082,-28.320,-37.109,-104.492,0.000
1606130329.130,-90.332,-58.105,-32.227,-170.898,0.000
1606130329.134,-50.293,-88.379,-33.203,-76.660,0.000
1606130329.138,12.207,-41.504,-32.715,58.105,0.000
1606130329.142,14.648,-19.043,-27.832,68.848,0.000
1606130329.146,-51.758,-29.785,-32.715,-74.707,0.000
1606130329.150,-83.008,-33.691,-28.320,-161.133,0.000
1606130329.154,-52.734,-33.691,-19.531,-93.262,0.000
1606130329.158,1.953,-30.273,-31.250,38.574,0.000
1606130329.162,18.555,-28.809,-35.156,80.078,0.000
1606130329.165,-30.762,-23.926,-33.691,-35.645,0.000
1606130329.169,-70.801,-46.387,-34.668,-152.832,0.000
1606130329.173,-54.688,-69.824,-33.691,-113.770,0.000
1606130329.177,2.930,-41.016,-24.902,35.645,0.000
1606130329.181,20.996,-30.273,-25.879,94.727,0.000
1606130329.185,-36.133,-33.203,-32.715,-21.973,0.000
1606130329.189,-85.938,-36.621,-34.668,-147.949,0.000
1606130329.193,-63.477,-41.016,-38.574,-131.836,0.000
1606130329.197,0.488,-28.320,-33.203,2.930,0.000
1606130329.201,31.738,-20.020,-21.973,95.215,0.000
1606130329.205,-11.230,-21.973,-21.973,14.648,0.000
1606130329.208,-68.848,-30.762,-35.156,-133.301,0.000
1606130329.212,-71.777,-51.758,-43.457,-137.695,0.000
1606130329.216,4.883,-38.574,-38.086,8.789,0.000
1606130329.220,34.180,-24.414,-41.504,84.473,0.000
1606130329.224,-26.855,-31.738,-40.527,-0.977,0.000
1606130329.228,-77.637,-34.180,-34.180,-135.254,0.000
1606130329.232,-83.984,-41.504,-30.273,-143.555,0.000
1606130329.236,-19.043,-31.738,-19.531,-2.441,0.000
1606130329.240,23.438,-23.438,-19.043,98.145,0.000
1606130329.244,-16.602,-33.203,-27.832,40.039,0.000
1606130329.247,-62.500,-34.668,-31.250,-111.816,0.000
1606130329.251,-76.660,-35.156,-28.809,-158.203,0.000
1606130329.255,-35.645,-30.273,-24.414,-27.344,0.000
1606130329.259,26.367,-21.973,-30.273,89.355,0.000
1606130329.263,13.672,-26.855,-38.086,57.617,0.000
1606130329.267,-56.641,-29.297,-35.156,-82.520,0.000
1606130329.271,-84.961,-54.199,-33.203,-160.645,0.000
1606130329.275,-44.434,-61.035,-27.832,-60.059,0.000
1606130329.279,3.418,-32.227,-21.484,65.430,0.000
1606130329.283,4.883,-31.738,-30.273,71.777,0.000
1606130329.287,-45.410,-40.527,-36.621,-55.664,0.000
1606130329.290,-74.707,-42.480,-33.691,-163.086,0.000
1606130329.294,-25.879,-32.715,-26.367,-85.938,0.000
1606130329.298,30.762,-21.484,-20.996,67.871,0.000
1606130329.302,31.250,-22.949,-27.832,85.449,0.000
1606130329.306,-26.367,-22.949,-30.273,-51.758,0.000
1606130329.310,-79.102,-47.363,-33.203,-155.273,0.000
1606130329.314,-58.105,-72.754,-30.273,-105.469,0.000
1606130329.318,2.441,-39.062,-19.043,33.203,0.000
1606130329.322,20.996,-20.508,-20.996,78.613,0.000
1606130329.326,-30.273,-30.273,-24.414,-41.016,0.000
1606130329.330,-75.684,-36.621,-17.578,-158.691,0.000
1606130329.333,-55.176,-31.738,-16.602,-118.164,0.000
1606130329.337,-1.953,-28.320,-12.695,46.875,0.000
1606130329.341,16.113,-26.367,-20.020,101.562,0.000
1606130329.345,-28.809,-24.414,-32.227,-28.320,0.000
1606130329.349,-73.730,-28.809,-29.785,-143.066,0.000
1606130329.353,-63.477,-36.621,-30.762,-119.629,0.000
1606130329.357,-5.859,-29.785,-27.344,31.738,0.000
1606130329.361,42.480,-24.902,-19.531,115.723,0.000
1606130329.365,-9.766,-29.785,-21.973,20.020,0.000
1606130329.369,-79.102,-34.668,-33.691,-119.141,0.000
1606130329.372,-70.312,-27.344,-32.227,-138.184,0.000
1606130329.376,-20.508,-21.973,-20.996,2.930,0.000
1606130329.380,18.066,-23.438,-24.414,91.309,0.000
1606130329.384,7.324,-20.020,-33.203,29.785,0.000
1606130329.388,-53.223,-25.391,-36.133,-94.238,0.000
1606130329.392,-81.055,-33.203,-37.109,-144.531,0.000
1606130329.396,-29.785,-27.832,-36.621,-28.809,0.000
1606130329.400,21.484,-21.484,-30.762,99.121,0.000
1606130329.404,-1.953,-26.367,-27.832,57.129,0.000
1606130329.408,-62.500,-33.691,-39.551,-101.562,0.000
1606130329.412,-80.566,-45.410,-47.852,-165.039,0.000
1606130329.415,-44.922,-49.805,-39.551,-41.504,0.000
1606130329.419,7.324,-28.809,-29.297,98.633,0.000
1606130329.423,7.324,-27.344,-34.180,81.543,0.000
1606130329.427,-65.430,-46.875,-36.621,-67.871,0.000
1606130329.431,-86.426,-45.898,-36.621,-148.926,0.000
1606130329.435,-51.758,-36.133,-43.945,-53.223,0.000
1606130329.439,-6.348,-34.668,-38.574,82.031,0.000
1606130329.443,-0.977,-33.691,-34.180,83.984,0.000
1606130329.447,-62.012,-33.203,-42.969,-41.504,0.000
1606130329.451,-93.262,-45.410,-40.527,-124.023,0.000
1606130329.455,-62.988,-46.387,-32.715,-67.383,0.000
1606130329.458,-6.836,-29.297,-28.320,71.777,0.000
1606130329.462,8.301,-27.344,-21.973,110.840,0.000
1606130329.466,-40.527,-33.203,-23.438,-22.949,0.000
1606130329.470,-84.961,-33.203,-26.367,-142.090,0.000
1606130329.474,-60.059,-26.855,-30.273,-97.168,0.000
1606130329.478,11.230,-17.578,-26.367,60.547,0.000
1606130329.482,26.367,-15.625,-16.113,117.676,0.000
1606130329.486,-37.109,-19.531,-23.926,-15.137,0.000
1606130329.490,-85.449,-32.715,-30.762,-138.184,0.000
1606130329.494,-55.176,-33.203,-29.785,-98.145,0.000
1606130329.497,3.906,-22.949,-25.879,51.270,0.000
1606130329.501,14.648,-28.809,-25.879,106.934,0.000
1606130329.505,-24.414,-27.344,-32.227,-6.348,0.000
1606130329.509,-81.543,-33.691,-39.551,-141.113,0.000
1606130329.513,-77.637,-41.016,-40.527,-132.812,0.000
1606130329.517,-13.672,-31.738,-31.738,22.461,0.000
1606130329.521,16.113,-30.762,-28.809,112.793,0.000
1606130329.525,-15.137,-28.809,-30.273,29.297,0.000
1606130329.529,-73.242,-28.809,-36.621,-108.398,0.000
1606130329.533,-88.379,-34.180,-40.527,-134.766,0.000
1606130329.537,-20.996,-27.344,-35.645,11.719,0.000
1606130329.540,22.461,-22.461,-35.156,120.117,0.000
1606130329.544,-17.090,-27.832,-37.598,37.598,0.000
1606130329.548,-77.148,-36.133,-35.645,-110.840,0.000
1606130329.552,-85.449,-40.039,-30.273,-145.508,0.000
1606130329.556,-25.391,-29.297,-27.344,-13.184,0.000
1606130329.560,20.508,-24.414,-25.879,115.723,0.000
1606130329.564,0.488,-28.809,-26.367,78.125,0.000
1606130329.568,-69.336,-30.762,-33.203,-86.426,0.000
1606130329.572,-86.426,-30.762,-35.645,-156.250,0.000
1606130329.576,-26.855,-28.809,-37.598,-59.082,0.000
1606130329.580,12.695,-26.367,-36.621,77.148,0.000
1606130329.583,1.465,-24.902,-35.645,79.590,0.000
1606130329.587,-54.199,-25.391,-39.551,-68.359,0.000
1606130329.591,-92.773,-42.480,-40.527,-160.156,0.000
1606130329.595,-49.805,-48.828,-38.574,-83.496,0.000
1606130329.599,9.766,-34.668,-34.180,71.289,0.000
1606130329.603,5.371,-28.809,-31.250,83.984,0.000
1606130329.607,-49.316,-32.227,-34.668,-67.871,0.000
1606130329.611,-84.473,-36.133,-39.062,-164.551,0.000
1606130329.615,-60.547,-33.203,-33.203,-90.820,0.000
1606130329.619,0.488,-29.297,-29.785,56.152,0.000
1606130329.622,16.602,-23.926,-26.367,92.285,0.000
1606130329.626,-35.645,-25.879,-19.531,-40.039,0.000
1606130329.630,-82.520,-27.344,-23.926,-162.598,0.000
1606130329.634,-65.918,-22.461,-32.227,-118.164,0.000
1606130329.638,3.906,-15.625,-32.227,29.297,0.000
1606130329.642,29.785,-12.695,-29.785,85.938,0.000
1606130329.646,-31.738,-16.602,-33.691,-29.297,0.000
1606130329.650,-91.797,-25.391,-37.109,-163.574,0.000
1606130329.654,-71.777,-27.344,-35.156,-136.719,0.000
1606130329.658,-5.371,-20.508,-29.297,21.484,0.000
1606130329.662,10.742,-30.762,-28.809,96.680,0.000
1606130329.665,-37.109,-36.621,-29.297,6.348,0.000
1606130329.669,-86.914,-32.715,-33.203,-134.766,0.000
1606130329.673,-87.402,-30.762,-33.203,-147.461,0.000
1606130329.677,-25.391,-25.879,-31.738,0.000,0.000
1606130329.681,19.043,-23.926,-27.344,95.703,0.000
1606130329.685,-15.137,-24.902,-26.367,24.902,0.000
1606130329.689,-83.984,-35.156,-32.227,-124.512,0.000
1606130329.693,-101.074,-54.688,-28.320,-166.504,0.000
1606130329.697,-39.551,-44.922,-24.902,-26.855,0.000
1606130329.701,8.789,-25.391,-27.832,85.938,0.000
1606130329.705,-14.648,-28.809,-29.785,25.879,0.000
1606130329.708,-80.078,-38.086,-30.762,-120.605,0.000
1606130329.712,-104.004,-41.992,-32.715,-163.086,0.000
1606130329.716,-44.922,-36.133,-35.156,-47.363,0.000
1606130329.720,16.113,-31.738,-29.297,79.590,0.000
1606130329.724,10.742,-29.785,-17.090,73.242,0.000
1606130329.728,-41.016,-31.738,-20.996,-73.730,0.000
1606130329.732,-75.684,-41.016,-30.762,-152.832,0.000
1606130329.736,-35.156,-31.738,-28.809,-49.316,0.000
1606130329.740,27.344,-19.043,-20.508,96.680,0.000
1606130329.744,15.137,-24.414,-21.973,92.285,0.000
1606130329.747,-49.316,-35.645,-32.715,-56.152,0.000
1606130329.751,-82.031,-41.992,-29.297,-143.555,0.000
1606130329.755,-49.316,-36.621,-26.855,-70.801,0.000
1606130329.759,12.207,-24.902,-30.273,79.590,0.000
1606130329.763,17.578,-25.879,-27.832,101.074,0.000
1606130329.767,-45.410,-35.645,-35.645,-52.734,0.000
1606130329.771,-92.285,-35.645,-36.621,-162.109,0.000
1606130329.775,-65.918,-30.762,-28.809,-96.191,0.000
1606130329.779,-1.465,-28.320,-32.715,50.293,0.000
1606130329.783,6.348,-27.344,-36.621,88.867,0.000
1606130329.787,-51.270,-32.227,-32.715,-34.668,0.000
1606130329.790,-101.562,-37.598,-36.133,-156.738,0.000
1606130329.794,-85.938,-39.062,-35.156,-122.559,0.000
1606130329.798,-15.625,-35.645,-29.785,36.133,0.000
1606130329.802,13.672,-36.621,-32.227,102.539,0.000
1606130329.806,-40.039,-35.645,-31.250,-11.230,0.000
1606130329.810,-98.633,-34.180,-32.227,-153.320,0.000
1606130329.814,-85.449,-39.062,-34.668,-141.602,0.000
1606130329.818,-12.207,-33.691,-28.320,16.113,0.000
1606130329.822,21.973,-26.367,-27.832,94.727,0.000
1606130329.826,-18.555,-28.809,-32.227,11.230,0.000
1606130329.830,-85.449,-39.062,-40.527,-136.230,0.000
1606130329.833,-88.379,-39.062,-40.527,-159.668,0.000
1606130329.837,-16.602,-31.738,-33.203,-11.230,0.000
1606130329.841,25.391,-30.273,-35.156,95.215,0.000
1606130329.845,-11.719,-34.180,-34.668,25.879,0.000
1606130329.849,-73.242,-41.992,-40.039,-130.371,0.000
1606130329.853,-83.008,-37.109,-45.898,-166.504,0.000
1606130329.857,-28.809,-29.785,-38.086,-27.832,0.000
1606130329.861,31.250,-25.879,-35.156,92.773,0.000
1606130329.865,11.230,-26.367,-37.109,44.922,0.000
1606130329.869,-60.059,-33.203,-41.016,-106.445,0.000
1606130329.872,-82.520,-21.973,-50.781,-166.504,0.000
1606130329.876,-32.715,-20.996,-42.480,-56.152,0.000
1606130329.880,27.832,-34.668,-24.414,84.473,0.000
1606130329.884,19.531,-29.785,-25.879,76.172,0.000
1606130329.888,-37.109,-30.273,-41.016,-81.543,0.000
1606130329.892,-71.777,-30.273,-43.457,-162.598,0.000
1606130329.896,-44.434,-26.367,-28.809,-58.594,0.000
1606130329.900,15.625,-28.320,-21.484,78.125,0.000
1606130329.904,8.301,-28.320,-24.902,80.566,0.000
1606130329.908,-56.152,-32.715,-25.879,-64.453,0.000
1606130329.912,-90.820,-32.227,-24.902,-168.945,0.000
1606130329.915,-59.570,-26.855,-28.320,-91.309,0.000
1606130329.919,7.324,-28.320,-26.855,61.523,0.000
1606130329.923,18.066,-25.879,-24.414,88.379,0.000
1606130329.927,-38.574,-29.297,-31.250,-51.270,0.000
1606130329.931,-80.566,-31.738,-33.203,-158.203,0.000
1606130329.935,-64.941,-29.785,-30.762,-109.863,0.000
1606130329.939,2.930,-24.902,-23.926,40.527,0.000
1606130329.943,33.691,-22.949,-16.602,104.980,0.000
1606130329.947,-33.203,-31.250,-26.367,-16.113,0.000
1606130329.951,-85.938,-39.062,-34.180,-146.973,0.000
1606130329.955,-70.801,-43.457,-25.391,-120.117,0.000
1606130329.958,-6.836,-34.668,-23.438,33.203,0.000
1606130329.962,24.414,-24.414,-21.973,112.793,0.000
1606130329.966,-28.809,-35.645,-25.391,7.324,0.000
1606130329.970,-93.262,-36.133,-33.203,-151.367,0.000
1606130329.974,-88.379,-28.320,-29.785,-154.297,0.000
1606130329.978,-19.043,-35.156,-24.902,12.695,0.000
1606130329.982,24.902,-32.227,-31.738,105.957,0.000
1606130329.986,-20.020,-30.273,-35.156,15.137,0.000
1606130329.990,-86.426,-31.250,-41.992,-140.137,0.000
1606130329.994,-90.820,-32.715,-41.992,-163.574,0.000
1606130329.997,-28.320,-33.203,-27.832,-19.043,0.000
1606130330.001,26.855,-32.715,-24.902,94.727,0.000
1606130330.005,1.465,-29.785,-30.762,38.086,0.000
1606130330.009,-56.152,-23.926,-34.668,-106.934,0.000
1606130330.013,-62.500,-26.367,-34.668,-151.367,0.000
1606130330.017,-6.348,-26.855,-31.250,-35.156,0.000
1606130330.021,51.758,-23.438,-30.273,90.820,0.000
1606130330.025,23.438,-30.762,-39.062,56.152,0.000
1606130330.029,-58.105,-45.898,-42.969,-97.656,0.000
1606130330.033,-83.496,-41.016,-44.922,-163.574,0.000
1606130330.037,-40.039,-30.762,-44.434,-55.176,0.000
1606130330.040,20.996,-25.879,-34.180,80.566,0.000
1606130330.044,13.672,-24.414,-27.832,67.871,0.000
1606130330.048,-55.664,-32.715,-32.715,-77.148,0.000
1606130330.052,-77.637,-34.180,-32.227,-156.250,0.000
1606130330.056,-37.598,-26.855,-28.320,-65.430,0.000
1606130330.060,8.789,-26.367,-27.344,71.289,0.000
1606130330.064,8.301,-35.156,-28.809,82.031,0.000
1606130330.068,-44.434,-35.645,-32.227,-54.688,0.000
1606130330.072,-73.242,-42.969,-34.180,-148.926,0.000
1606130330.076,-50.781,-47.363,-34.180,-89.355,0.000
1606130330.080,5.859,-31.738,-26.855,57.617,0.000
1606130330.083,23.926,-32.227,-19.531,98.633,0.000
1606130330.087,-36.621,-37.598,-27.344,-33.203,0.000
1606130330.091,-83.496,-37.598,-29.785,-145.020,0.000
1606130330.095,-65.918,-40.039,-30.762,-115.234,0.000
1606130330.099,-2.930,-35.645,-30.762,28.320,0.000
1606130330.103,26.367,-28.320,-26.367,105.957,0.000
1606130330.107,-21.484,-26.367,-23.438,6.348,0.000
1606130330.111,-75.684,-40.527,-26.367,-139.160,0.000
1606130330.115,-67.383,-49.316,-29.297,-134.277,0.000
1606130330.119,-9.766,-39.062,-30.762,17.578,0.000
1606130330.122,14.648,-30.762,-30.762,98.145,0.000
1606130330.126,-29.297,-34.180,-29.297,6.348,0.000
1606130330.130,-90.820,-46.387,-29.297,-142.578,0.000
1606130330.134,-88.867,-44.434,-29.785,-153.320,0.000
1606130330.138,-25.879,-35.156,-24.414,-7.324,0.000
1606130330.142,8.301,-34.668,-20.996,94.727,0.000
1606130330.146,-20.020,-32.715,-23.926,26.855,0.000
1606130330.150,-83.496,-41.504,-31.738,-125.000,0.000
1606130330.154,-100.098,-55.176,-33.691,-162.598,0.000
1606130330.158,-37.109,-42.480,-26.367,-23.438,0.000
1606130330.162,18.555,-32.227,-16.113,96.191,0.000
1606130330.165,-18.555,-28.809,-16.602,52.734,0.000
1606130330.169,-87.402,-31.250,-23.438,-102.051,0.000
1606130330.173,-90.820,-43.457,-25.879,-161.133,0.000
1606130330.177,-34.668,-37.598,-25.879,-43.457,0.000
1606130330.181,16.113,-17.578,-27.832,81.543,0.000
1606130330.185,7.812,-14.648,-27.832,51.758,0.000
1606130330.189,-54.199,-25.391,-33.691,-101.074,0.000
1606130330.193,-85.938,-29.785,-31.738,-175.293,0.000
1606130330.197,-48.828,-29.297,-25.879,-74.707,0.000
1606130330.201,5.371,-30.273,-31.738,58.105,0.000
1606130330.205,1.465,-27.344,-33.691,62.500,0.000
1606130330.208,-62.012,-34.668,-34.180,-96.191,0.000
1606130330.212,-96.680,-49.805,-40.527,-195.312,0.000
1606130330.216,-63.477,-42.480,-38.086,-112.793,0.000
1606130330.220,0.000,-30.762,-34.180,30.273,0.000
1606130330.224,12.207,-31.250,-39.551,58.594,0.000
1606130330.228,-45.410,-34.180,-41.992,-68.848,0.000
1606130330.232,-87.402,-42.480,-44.922,-170.898,0.000
1606130330.236,-60.547,-42.969,-37.598,-120.605,0.000
1606130330.240,3.906,-28.809,-31.738,32.227,0.000
1606130330.244,27.832,-25.391,-37.109,89.844,0.000
1606130330.247,-22.461,-34.180,-39.551,-40.039,0.000
1606130330.251,-80.566,-40.527,-37.598,-164.062,0.000
1606130330.255,-71.289,-35.156,-33.203,-129.395,0.000
1606130330.259,-5.859,-29.785,-30.762,24.902,0.000
1606130330.263,21.973,-32.227,-34.180,96.680,0.000
1606130330.267,-23.926,-30.762,-34.180,3.906,0.000
1606130330.271,-75.684,-33.691,-30.762,-122.070,0.000
1606130330.275,-66.895,-33.691,-34.668,-126.465,0.000
1606130330.279,-4.883,-24.902,-38.574,20.508,0.000
1606130330.283,28.809,-27.344,-30.762,120.117,0.000
1606130330.287,-5.371,-32.715,-26.855,40.527,0.000
1606130330.290,-68.848,-37.109,-37.109,-111.816,0.000
1606130330.294,-78.125,-42.969,-43.457,-143.555,0.000
1606130330.298,-15.137,-34.668,-31.738,4.883,0.000
1606130330.302,27.344,-26.367,-29.297,114.258,0.000
1606130330.306,0.000,-29.297,-33.203,38.574,0.000
1606130330.310,-60.059,-36.133,-35.156,-110.352,0.000
1606130330.314,-77.637,-38.574,-39.551,-142.090,0.000
1606130330.318,-23.926,-32.227,-32.715,-16.113,0.000
1606130330.322,33.691,-22.949,-28.320,106.934,0.000
1606130330.326,11.719,-22.949,-26.855,65.430,0.000
1606130330.330,-62.012,-32.715,-29.297,-100.586,0.000
1606130330.333,-83.984,-37.598,-39.551,-161.133,0.000
1606130330.337,-33.691,-31.250,-41.992,-48.340,0.000
1606130330.341,18.066,-32.227,-41.016,72.754,0.000
1606130330.345,0.000,-37.109,-36.133,63.965,0.000
1606130330.349,-64.941,-41.016,-36.621,-87.891,0.000
1606130330.353,-92.773,-53.223,-42.969,-174.316,0.000
1606130330.357,-45.898,-43.457,-33.691,-76.172,0.000
1606130330.361,20.996,-20.508,-27.344,66.895,0.000
1606130330.365,23.926,-22.461,-29.297,79.102,0.000
1606130330.369,-44.434,-32.715,-27.832,-67.383,0.000
1606130330.372,-89.355,-36.133,-31.250,-166.992,0.000
1606130330.376,-55.176,-28.809,-34.668,-102.539,0.000
1606130330.380,5.859,-22.949,-25.879,45.410,0.000
1606130330.384,17.578,-20.020,-22.949,90.332,0.000
1606130330.388,-35.156,-26.367,-33.203,-37.598,0.000
1606130330.392,-81.055,-52.734,-36.133,-157.227,0.000
1606130330.396,-62.500,-46.387,-33.691,-114.258,0.000
1606130330.400,1.953,-22.949,-29.785,46.387,0.000
1606130330.404,23.926,-20.020,-27.344,102.539,0.000
1606130330.408,-29.785,-25.879,-26.855,-16.602,0.000
1606130330.412,-87.402,-33.691,-34.668,-147.949,0.000
1606130330.415,-68.359,-32.227,-37.598,-125.000,0.000
1606130330.419,0.977,-29.297,-33.691,30.273,0.000
1606130330.423,29.785,-27.344,-24.414,103.516,0.000
1606130330.427,-12.207,-16.602,-20.508,9.766,0.000
1606130330.431,-72.754,-53.223,-34.668,-125.977,0.000
1606130330.435,-72.754,-81.055,-39.551,-139.160,0.000
1606130330.439,-15.137,-40.527,-34.180,-2.930,0.000
1606130330.443,20.996,-20.996,-32.715,99.121,0.000
1606130330.447,-1.465,-20.996,-33.203,29.297,0.000
1606130330.451,-53.711,-32.227,-35.156,-125.488,0.000
1606130330.455,-76.660,-38.086,-40.039,-153.320,0.000
1606130330.458,-26.855,-33.203,-39.551,-15.137,0.000
1606130330.462,21.973,-26.855,-31.738,95.215,0.000
1606130330.466,-2.441,-22.949,-36.133,35.645,0.000
1606130330.470,-71.777,-28.320,-35.645,-115.723,0.000
1606130330.474,-87.402,-30.762,-26.367,-154.297,0.000
1606130330.478,-26.367,-30.762,-20.020,-26.367,0.000
1606130330.482,29.297,-27.832,-13.184,104.980,0.000
1606130330.486,7.812,-17.578,-19.043,72.266,0.000
1606130330.490,-63.965,-37.109,-29.297,-98.633,0.000
1606130330.494,-92.285,-54.199,-33.691,-175.781,0.000
1606130330.497,-42.969,-31.738,-33.203,-52.246,0.000
1606130330.501,10.742,-19.043,-23.438,94.238,0.000
1606130330.505,-0.977,-25.879,-24.902,73.730,0.000
1606130330.509,-61.523,-34.668,-34.668,-77.148,0.000
1606130330.513,-88.867,-31.250,-37.109,-160.645,0.000
1606130330.517,-48.828,-26.855,-34.180,-86.426,0.000
1606130330.521,13.672,-22.461,-27.832,62.012,0.000
1606130330.525,22.461,-15.137,-33.203,88.379,0.000
1606130330.529,-44.434,-30.762,-49.316,-61.035,0.000
1606130330.533,-86.914,-74.219,-55.664,-172.852,0.000
1606130330.537,-55.176,-58.105,-46.875,-117.188,0.000
1606130330.540,12.695,-20.996,-35.156,38.574,0.000
1606130330.544,36.621,-18.555,-30.273,88.379,0.000
1606130330.548,-23.926,-21.973,-35.156,-38.574,0.000
1606130330.552,-79.102,-25.391,-42.480,-159.180,0.000
1606130330.556,-54.688,-20.508,-35.156,-119.141,0.000
1606130330.560,11.230,-13.672,-21.484,46.387,0.000
1606130330.564,39.551,-14.160,-20.996,111.816,0.000
1606130330.568,-24.902,-17.578,-29.785,-0.488,0.000
1606130330.572,-91.797,-35.645,-45.898,-142.578,0.000
1606130330.576,-71.289,-34.668,-47.363,-139.648,0.000
1606130330.580,-9.277,-19.043,-32.227,27.344,0.000
1606130330.583,15.625,-20.020,-31.250,107.910,0.000
1606130330.587,-15.137,-14.160,-37.109,15.137,0.000
1606130330.591,-69.824,-17.090,-35.156,-123.535,0.000
1606130330.595,-71.289,-19.043,-28.809,-134.277,0.000
1606130330.599,-9.766,-17.578,-29.785,13.672,0.000
1606130330.603,28.809,-24.414,-27.344,114.746,0.000
1606130330.607,0.488,-27.344,-29.297,42.969,0.000
1606130330.611,-60.547,-31.738,-38.086,-113.770,0.000
1606130330.615,-72.754,-32.715,-41.504,-156.738,0.000
1606130330.619,-12.207,-29.785,-41.016,-20.508,0.000
1606130330.622,36.621,-30.762,-34.180,103.027,0.000
1606130330.626,7.812,-24.902,-31.250,52.246,0.000
1606130330.630,-66.895,-36.133,-39.062,-108.887,0.000
1606130330.634,-90.820,-49.805,-42.969,-164.062,0.000
1606130330.638,-41.504,-34.668,-35.645,-42.969,0.000
1606130330.642,17.578,-17.578,-28.809,90.332,0.000
1606130330.646,7.324,-17.578,-26.855,70.801,0.000
1606130330.650,-61.035,-24.902,-24.414,-82.520,0.000
1606130330.654,-93.262,-35.156,-30.762,-167.480,0.000
1606130330.658,-51.758,-39.551,-39.062,-78.125,0.000
1606130330.662,11.719,-34.180,-37.109,69.824,0.000
1606130330.665,20.996,-30.273,-36.133,84.473,0.000
1606130330.669,-46.875,-42.969,-32.227,-72.754,0.000
1606130330.673,-92.773,-48.340,-32.227,-180.664,0.000
1606130330.677,-52.246,-29.785,-28.320,-96.680,0.000
1606130330.681,12.207,-22.949,-18.555,61.523,0.000
1606130330.685,14.160,-29.297,-22.461,86.426,0.000
1606130330.689,-49.316,-39.062,-27.344,-53.223,0.000
1606130330.693,-92.285,-40.039,-28.320,-170.410,0.000
1606130330.697,-68.848,-35.645,-26.367,-122.559,0.000
1606130330.701,3.418,-29.785,-25.879,37.598,0.000
1606130330.705,20.508,-28.809,-22.461,94.727,0.000
1606130330.708,-31.250,-35.156,-26.367,-27.344,0.000
1606130330.712,-80.566,-38.086,-40.527,-155.762,0.000
1606130330.716,-64.941,-30.273,-38.086,-131.348,0.000
1606130330.720,7.324,-25.391,-29.297,27.832,0.000
1606130330.724,25.879,-24.902,-22.461,101.074,0.000
1606130330.728,-17.090,-26.855,-21.973,1.465,0.000
1606130330.732,-72.754,-34.180,-24.414,-132.324,0.000
1606130330.736,-69.824,-29.297,-28.320,-135.742,0.000
1606130330.740,-3.906,-22.461,-28.809,20.020,0.000
1606130330.744,31.738,-20.508,-23.438,119.141,0.000
1606130330.747,-7.324,-22.461,-18.555,31.250,0.000
1606130330.751,-70.801,-31.250,-28.320,-124.512,0.000
1606130330.755,-85.938,-31.738,-40.527,-149.414,0.000
1606130330.759,-24.902,-25.391,-37.598,-9.277,0.000
1606130330.763,23.926,-29.785,-31.250,94.727,0.000
1606130330.767,-5.371,-27.344,-37.598,33.691,0.000
1606130330.771,-60.547,-35.156,-51.270,-118.164,0.000
1606130330.775,-74.219,-38.574,-42.480,-156.738,0.000
1606130330.779,-30.762,-26.855,-25.879,-34.668,0.000
1606130330.783,13.672,-24.902,-15.625,83.984,0.000
1606130330.787,-15.137,-31.738,-13.672,51.758,0.000
1606130330.790,-83.008,-50.293,-23.438,-102.539,0.000
1606130330.794,-104.980,-55.176,-21.484,-167.480,0.000
1606130330.798,-62.012,-42.480,-12.207,-58.594,0.000
1606130330.802,-11.719,-39.551,-14.160,65.430,0.000
1606130330.806,-18.555,-41.504,-17.578,55.176,0.000
1606130330.810,-76.660,-59.570,-21.973,-89.844,0.000
1606130330.814,-113.281,-102.539,-28.320,-174.805,0.000
1606130330.818,-67.871,-82.031,-26.855,-78.125,0.000
1606130330.822,5.859,-33.691,-14.648,80.078,0.000
1606130330.826,18.066,-27.344,-14.648,100.098,0.000
1606130330.830,-46.875,-34.180,-17.090,-47.363,0.000
1606130330.833,-97.656,-41.504,-20.020,-158.203,0.000
1606130330.837,-64.453,-38.086,-20.020,-93.262,0.000
1606130330.841,-4.395,-32.715,-14.160,60.059,0.000
1606130330.845,6.348,-27.832,-20.996,90.820,0.000
1606130330.849,-40.039,-32.715,-24.902,-42.969,0.000
1606130330.853,-82.031,-43.945,-20.020,-166.016,0.000
1606130330.857,-60.547,-35.156,-21.484,-125.000,0.000
1606130330.861,5.371,-27.344,-22.949,31.250,0.000
1606130330.865,27.832,-22.461,-17.578,91.797,0.000
1606130330.869,-20.996,-20.996,-18.066,-12.207,0.000
1606130330.872,-83.008,-30.762,-22.461,-147.461,0.000
1606130330.876,-77.637,-32.715,-26.855,-134.766,0.000
1606130330.880,-16.602,-29.297,-27.344,21.484,0.000
1606130330.884,14.648,-23.438,-23.926,102.051,0.000
1606130330.888,-19.531,-19.043,-26.855,10.742,0.000
1606130330.892,-74.707,-25.391,-26.367,-130.859,0.000
1606130330.896,-72.266,-26.367,-19.043,-144.531,0.000
1606130330.900,-6.836,-18.555,-18.555,12.695,0.000
1606130330.904,30.762,-20.020,-21.484,107.422,0.000
1606130330.908,-8.789,-23.438,-21.973,29.785,0.000
1606130330.912,-75.195,-46.387,-29.297,-118.652,0.000
1606130330.915,-84.961,-61.523,-36.133,-149.902,0.000
1606130330.919,-24.414,-32.715,-29.297,-9.766,0.000
1606130330.923,16.113,-18.555,-21.973,102.051,0.000
1606130330.927,-8.301,-20.508,-20.020,55.664,0.000
1606130330.931,-68.848,-28.320,-20.508,-99.609,0.000
1606130330.935,-80.078,-31.738,-13.672,-151.855,0.000
1606130330.939,-25.879,-25.879,-17.090,-37.109,0.000
1606130330.943,16.602,-21.973,-23.438,86.426,0.000
1606130330.947,4.395,-16.602,-19.531,67.871,0.000
1606130330.951,-48.828,-27.832,-19.043,-85.449,0.000
1606130330.955,-73.242,-29.297,-22.461,-154.297,0.000
1606130330.958,-30.273,-18.066,-29.785,-54.688,0.000
1606130330.962,20.996,-16.602,-28.809,71.777,0.000
1606130330.966,9.766,-14.648,-24.414,75.684,0.000
1606130330.970,-51.758,-27.344,-27.832,-62.988,0.000
1606130330.974,-84.473,-36.133,-34.180,-154.297,0.000
1606130330.978,-50.781,-29.785,-30.273,-79.590,0.000
1606130330.982,4.883,-26.855,-28.809,62.500,0.000
1606130330.986,11.230,-24.902,-34.180,77.148,0.000
1606130330.990,-45.898,-36.133,-41.016,-63.965,0.000
1606130330.994,-90.332,-43.945,-48.828,-166.016,0.000
1606130330.997,-59.570,-38.086,-40.527,-110.352,0.000
1606130331.001,6.836,-32.715,-39.062,25.391,0.000
1606130331.005,20.508,-26.855,-39.062,72.754,0.000
1606130331.009,-40.039,-35.156,-23.438,-39.062,0.000
1606130331.013,-97.168,-53.223,-20.996,-160.156,0.000
1606130331.017,-75.195,-46.387,-33.203,-126.465,0.000
1606130331.021,-8.301,-36.621,-28.320,26.855,0.000
1606130331.025,16.113,-30.762,-14.648,93.750,0.000
1606130331.029,-32.715,-34.668,-23.926,-18.555,0.000
1606130331.033,-85.938,-38.086,-33.691,-159.180,0.000
1606130331.037,-73.730,-33.691,-24.902,-145.020,0.000
1606130331.040,-7.812,-32.715,-19.531,8.301,0.000
1606130331.044,27.344,-26.855,-21.484,93.262,0.000
1606130331.048,-9.766,-29.297,-27.344,8.301,0.000
1606130331.052,-71.777,-43.457,-27.832,-139.160,0.000
1606130331.056,-71.289,-37.109,-26.367,-155.762,0.000
1606130331.060,-9.766,-29.297,-33.691,-12.695,0.000
1606130331.064,26.855,-33.691,-35.645,82.520,0.000
1606130331.068,2.441,-28.809,-31.250,19.043,0.000
1606130331.072,-47.852,-26.367,-28.809,-122.559,0.000
1606130331.076,-59.570,-27.832,-30.762,-162.598,0.000
1606130331.080,-10.742,-22.949,-28.809,-42.480,0.000
1606130331.083,30.762,-22.461,-25.391,75.684,0.000
1606130331.087,5.371,-19.531,-29.785,43.945,0.000
1606130331.091,-56.152,-48.828,-30.273,-103.027,0.000
1606130331.095,-82.031,-72.754,-33.691,-167.969,0.000
1606130331.099,-34.668,-38.086,-27.832,-52.734,0.000
1606130331.103,26.855,-21.973,-19.043,88.867,0.000
1606130331.107,15.137,-26.855,-30.273,78.125,0.000
1606130331.111,-52.734,-35.645,-35.645,-68.848,0.000
1606130331.115,-79.102,-46.875,-32.715,-148.438,0.000
1606130331.119,-35.645,-39.062,-30.762,-50.293,0.000
1606130331.122,20.508,-25.391,-23.926,89.355,0.000
1606130331.126,18.066,-27.832,-21.484,95.703,0.000
1606130331.130,-49.316,-33.203,-26.855,-47.852,0.000
1606130331.134,-88.379,-38.574,-33.691,-149.414,0.000
1606130331.138,-58.594,-34.668,-33.691,-80.078,0.000
1606130331.142,-0.977,-21.973,-27.832,66.406,0.000
1606130331.146,12.695,-25.879,-25.879,97.656,0.000
1606130331.150,-42.969,-28.809,-23.438,-28.320,0.000
1606130331.154,-87.891,-23.926,-20.508,-132.324,0.000
1606130331.158,-56.641,-25.879,-28.320,-92.285,0.000
1606130331.162,-1.465,-28.809,-31.738,41.504,0.000
1606130331.165,12.207,-32.227,-27.344,96.191,0.000
1606130331.169,-39.551,-35.645,-33.691,-18.066,0.000
1606130331.173,-98.633,-35.645,-40.527,-156.250,0.000
1606130331.177,-78.125,-28.809,-35.156,-129.395,0.000
1606130331.181,-17.090,-28.809,-31.250,29.297,0.000
1606130331.185,6.836,-35.645,-30.762,95.703,0.000
1606130331.189,-36.133,-38.574,-32.715,-10.742,0.000
1606130331.193,-86.914,-36.133,-32.227,-145.508,0.000
1606130331.197,-80.566,-31.738,-29.785,-139.160,0.000
1606130331.201,-13.672,-25.879,-27.344,13.672,0.000
1606130331.205,23.926,-19.531,-21.973,104.004,0.000
1606130331.208,-9.766,-23.926,-25.391,32.227,0.000
1606130331.212,-79.590,-41.016,-35.645,-119.141,0.000
1606130331.216,-94.238,-40.039,-41.504,-162.109,0.000
1606130331.220,-30.273,-30.273,-35.645,-20.020,0.000
1606130331.224,13.672,-28.320,-24.902,94.238,0.000
1606130331.228,-20.996,-31.250,-32.715,34.668,0.000
1606130331.232,-91.309,-38.574,-39.062,-117.188,0.000
1606130331.236,-101.074,-40.527,-37.109,-165.039,0.000
1606130331.240,-39.551,-36.133,-31.250,-45.410,0.000
1606130331.244,6.348,-32.715,-26.367,80.078,0.000
1606130331.247,-16.113,-35.156,-28.320,49.316,0.000
1606130331.251,-73.730,-39.062,-29.297,-99.121,0.000
1606130331.255,-101.562,-41.016,-33.203,-168.457,0.000
1606130331.259,-59.082,-39.062,-34.668,-63.965,0.000
1606130331.263,-6.836,-29.785,-33.203,66.895,0.000
1606130331.267,-7.812,-27.832,-36.133,57.129,0.000
1606130331.271,-60.059,-31.250,-34.180,-76.660,0.000
1606130331.275,-89.844,-32.715,-32.715,-153.809,0.000
1606130331.279,-50.781,-39.551,-36.621,-68.848,0.000
1606130331.283,12.695,-33.691,-36.621,71.289,0.000
1606130331.287,23.926,-31.738,-24.902,92.773,0.000
1606130331.290,-35.156,-22.461,-23.438,-49.805,0.000
1606130331.294,-82.520,-10.254,-31.738,-160.156,0.000
1606130331.298,-41.992,-26.855,-33.691,-93.750,0.000
1606130331.302,21.484,-27.344,-28.809,58.105,0.000
1606130331.306,23.438,-18.066,-19.043,100.098,0.000
1606130331.310,-31.738,-20.996,-24.414,-33.203,0.000
1606130331.314,-82.031,-28.320,-32.715,-156.250,0.000
1606130331.318,-65.918,-29.297,-34.180,-119.141,0.000
1606130331.322,-9.277,-24.414,-35.156,27.344,0.000
1606130331.326,14.648,-27.344,-27.344,89.355,0.000
1606130331.330,-29.785,-33.691,-31.250,-15.137,0.000
1606130331.333,-76.660,-39.062,-40.527,-149.902,0.000
1606130331.337,-60.547,-33.203,-32.227,-134.766,0.000
1606130331.341,-8.301,-23.438,-23.438,27.832,0.000
1606130331.345,19.043,-23.926,-20.996,106.934,0.000
1606130331.349,-22.461,-29.785,-23.438,4.395,0.000
1606130331.353,-83.984,-34.180,-31.738,-139.160,0.000
1606130331.357,-79.590,-32.227,-35.645,-146.973,0.000
1606130331.361,-20.996,-27.832,-33.203,-3.906,0.000
1606130331.365,19.043,-21.484,-26.367,92.773,0.000
1606130331.369,-9.766,-21.484,-28.320,27.344,0.000
1606130331.372,-73.242,-39.062,-38.086,-125.000,0.000
1606130331.376,-80.566,-39.551,-37.109,-166.992,0.000
1606130331.380,-32.715,-27.832,-31.738,-32.227,0.000
1606130331.384,15.625,-23.926,-32.715,95.703,0.000
1606130331.388,6.836,-20.020,-29.297,58.105,0.000
1606130331.392,-63.965,-24.902,-27.832,-100.098,0.000
1606130331.396,-91.309,-39.551,-30.762,-166.992,0.000
1606130331.400,-38.574,-38.086,-28.809,-48.828,0.000
1606130331.404,10.254,-32.715,-25.879,87.891,0.000
1606130331.408,-5.371,-34.668,-28.809,63.965,0.000
1606130331.412,-60.547,-26.855,-37.598,-83.496,0.000
1606130331.415,-89.844,-30.273,-41.992,-156.250,0.000
1606130331.419,-53.711,-33.203,-32.227,-56.641,0.000
1606130331.423,2.930,-31.738,-25.391,84.473,0.000
1606130331.427,3.906,-32.715,-32.227,85.449,0.000
1606130331.431,-58.105,-34.668,-41.016,-67.383,0.000
1606130331.435,-94.238,-39.551,-41.016,-161.621,0.000
1606130331.439,-52.734,-43.457,-35.645,-81.543,0.000
1606130331.443,6.348,-39.062,-29.297,62.988,0.000
1606130331.447,10.742,-35.645,-23.438,93.750,0.000
1606130331.451,-52.246,-37.109,-28.809,-45.898,0.000
1606130331.455,-97.656,-35.645,-28.320,-164.551,0.000
1606130331.458,-61.035,-31.738,-23.926,-100.098,0.000
1606130331.462,5.859,-25.391,-26.855,56.152,0.000
1606130331.466,18.555,-29.297,-26.367,94.727,0.000
1606130331.470,-38.086,-31.250,-23.926,-21.484,0.000
1606130331.474,-93.262,-28.320,-23.438,-150.879,0.000
1606130331.478,-73.730,-35.156,-29.297,-128.906,0.000
1606130331.482,-3.906,-33.691,-33.691,26.855,0.000
1606130331.486,21.973,-29.785,-32.227,92.285,0.000
1606130331.490,-34.668,-38.574,-33.203,-17.090,0.000
1606130331.494,-91.309,-41.504,-33.203,-148.926,0.000
1606130331.497,-78.125,-40.527,-28.809,-139.648,0.000
1606130331.501,-11.230,-39.062,-20.996,8.789,0.000
1606130331.505,19.531,-39.551,-15.137,100.098,0.000
1606130331.509,-15.137,-35.156,-17.090,22.461,0.000
1606130331.513,-78.613,-34.180,-26.367,-126.465,0.000
1606130331.517,-84.473,-36.133,-28.320,-151.367,0.000
1606130331.521,-18.066,-30.273,-25.391,-10.742,0.000
1606130331.525,23.438,-24.902,-24.902,91.309,0.000
1606130331.529,-6.836,-30.273,-26.855,26.855,0.000
1606130331.533,-72.754,-40.039,-35.645,-119.141,0.000
1606130331.537,-90.820,-42.480,-39.062,-159.180,0.000
1606130331.540,-32.227,-31.738,-29.785,-28.320,0.000
1606130331.544,19.531,-24.902,-26.855,88.867,0.000
1606130331.548,-10.742,-31.250,-26.855,37.598,0.000
1606130331.552,-77.148,-38.574,-31.738,-117.676,0.000
1606130331.556,-93.262,-35.156,-33.203,-166.016,0.000
1606130331.560,-44.434,-25.879,-26.367,-52.734,0.000
1606130331.564,16.602,-17.578,-24.902,78.613,0.000
1606130331.568,7.812,-19.531,-32.227,69.824,0.000
1606130331.572,-62.012,-26.855,-34.180,-86.426,0.000
1606130331.576,-92.773,-28.809,-29.785,-169.434,0.000
1606130331.580,-60.059,-30.273,-31.738,-80.078,0.000
1606130331.583,2.441,-26.855,-27.344,63.965,0.000
1606130331.587,14.648,-25.391,-26.855,79.102,0.000
1606130331.591,-55.176,-30.273,-34.180,-68.359,0.000
1606130331.595,-94.727,-31.738,-41.504,-163.086,0.000
1606130331.599,-59.570,-34.668,-39.062,-88.379,0.000
1606130331.603,-2.930,-33.691,-33.203,58.594,0.000
1606130331.607,6.348,-32.715,-23.926,92.773,0.000
1606130331.611,-55.176,-27.832,-29.785,-37.598,0.000
1606130331.615,-98.145,-25.879,-37.109,-147.949,0.000
1606130331.619,-64.453,-31.738,-27.832,-103.027,0.000
1606130331.622,-1.953,-33.691,-17.090,53.711,0.000
1606130331.626,11.719,-35.645,-14.648,107.422,0.000
1606130331.630,-36.621,-35.645,-24.414,-12.207,0.000
1606130331.634,-83.496,-35.645,-30.273,-143.066,0.000
1606130331.638,-78.613,-40.527,-30.762,-134.277,0.000
1606130331.642,-14.160,-32.715,-24.902,30.273,0.000
1606130331.646,22.949,-27.832,-19.531,118.164,0.000
1606130331.650,-20.020,-27.832,-19.043,21.973,0.000
1606130331.654,-71.289,-27.344,-19.043,-115.723,0.000
1606130331.658,-71.777,-32.715,-23.926,-122.559,0.000
1606130331.662,-11.230,-27.832,-31.250,20.996,0.000
1606130331.665,28.809,-25.879,-26.855,114.258,0.000
1606130331.669,-11.230,-22.461,-27.344,40.039,0.000
1606130331.673,-68.359,0.977,-33.691,-100.586,0.000
1606130331.677,-70.801,-16.113,-38.574,-140.137,0.000
1606130331.681,-15.137,-39.062,-34.668,-5.371,0.000
1606130331.685,31.738,-31.738,-26.855,99.121,0.000
1606130331.689,7.324,-34.668,-30.273,35.156,0.000
1606130331.693,-53.711,-39.062,-36.621,-112.305,0.000
1606130331.697,-72.754,-39.062,-34.180,-169.434,0.000
1606130331.701,-26.367,-32.227,-26.855,-43.457,0.000
1606130331.705,31.250,-30.762,-25.391,88.867,0.000
1606130331.708,6.836,-32.715,-33.691,57.129,0.000
1606130331.712,-57.617,-35.645,-33.203,-92.773,0.000
1606130331.716,-81.543,-40.527,-32.227,-162.598,0.000
1606130331.720,-42.480,-34.668,-30.273,-57.129,0.000
1606130331.724,18.555,-29.297,-21.973,80.566,0.000
1606130331.728,18.555,-24.414,-20.996,80.566,0.000
1606130331.732,-41.992,-21.484,-27.344,-67.871,0.000
1606130331.736,-69.824,-24.414,-25.879,-154.785,0.000
1606130331.740,-29.785,-24.902,-17.090,-68.848,0.000
1606130331.744,22.949,-19.531,-20.996,74.707,0.000
1606130331.747,21.973,-18.066,-23.926,95.215,0.000
1606130331.751,-38.086,-22.949,-24.414,-54.199,0.000
1606130331.755,-80.078,-28.809,-27.832,-167.969,0.000
1606130331.759,-52.734,-31.250,-25.879,-107.910,0.000
1606130331.763,3.906,-26.855,-22.461,35.156,0.000
1606130331.767,13.184,-23.438,-19.043,75.684,0.000
1606130331.771,-32.227,-27.832,-19.531,-41.504,0.000
1606130331.775,-86.426,-34.180,-20.020,-158.691,0.000
1606130331.779,-77.637,-32.715,-24.414,-126.953,0.000
1606130331.783,-9.277,-26.855,-25.879,29.297,0.000
1606130331.787,14.648,-21.484,-19.531,98.633,0.000
1606130331.790,-30.762,-17.090,-23.438,-15.137,0.000
1606130331.794,-73.730,-18.555,-25.879,-144.531,0.000
1606130331.798,-64.453,-22.461,-24.902,-125.000,0.000
1606130331.802,-1.953,-18.555,-20.020,31.250,0.000
1606130331.806,35.645,-20.508,-13.672,107.910,0.000
1606130331.810,-10.254,-25.879,-23.438,15.625,0.000
1606130331.814,-74.219,-35.156,-27.344,-117.188,0.000
1606130331.818,-71.777,-41.016,-25.391,-137.207,0.000
1606130331.822,-5.859,-34.180,-22.461,-3.906,0.000
1606130331.826,28.809,-28.809,-19.043,106.445,0.000
1606130331.830,-12.695,-29.297,-24.414,44.922,0.000
1606130331.833,-72.754,-32.715,-23.438,-97.168,0.000
1606130331.837,-74.707,-29.785,-22.949,-126.953,0.000
1606130331.841,-8.789,-21.973,-25.391,1.953,0.000
1606130331.845,40.527,-23.926,-18.066,111.328,0.000
1606130331.849,14.648,-25.879,-13.184,67.383,0.000
1606130331.853,-52.246,-18.555,-20.996,-78.613,0.000
1606130331.857,-72.754,-21.484,-29.785,-141.113,0.000
1606130331.861,-24.902,-19.043,-29.297,-34.668,0.000
1606130331.865,28.809,-13.672,-26.367,100.586,0.000
1606130331.869,14.648,-28.320,-29.785,82.520,0.000
1606130331.872,-51.758,-36.133,-31.738,-75.684,0.000
1606130331.876,-78.613,-33.203,-30.762,-156.250,0.000
1606130331.880,-38.086,-27.832,-30.762,-62.012,0.000
1606130331.884,17.090,-21.484,-32.227,85.938,0.000
1606130331.888,9.766,-25.879,-33.203,83.496,0.000
1606130331.892,-47.852,-30.762,-27.344,-72.754,0.000
1606130331.896,-83.984,-31.738,-35.645,-168.945,0.000
1606130331.900,-47.852,-24.902,-36.133,-86.914,0.000
1606130331.904,15.625,-17.090,-29.297,67.383,0.000
1606130331.908,19.043,-18.555,-29.297,91.797,0.000
1606130331.912,-35.645,-22.949,-30.762,-51.270,0.000
1606130331.915,-84.961,-28.809,-37.109,-165.527,0.000
1606130331.919,-61.035,-28.320,-34.668,-109.375,0.000
1606130331.923,18.066,-19.531,-32.227,42.480,0.000
1606130331.927,39.062,-14.160,-25.391,91.309,0.000
1606130331.931,-27.344,-29.785,-30.762,-19.531,0.000
1606130331.935,-90.332,-46.387,-31.738,-146.973,0.000
1606130331.939,-71.289,-33.203,-21.484,-130.859,0.000
1606130331.943,-2.930,-23.438,-26.367,25.391,0.000
1606130331.947,20.508,-22.461,-33.203,95.215,0.000
1606130331.951,-31.250,-29.297,-31.738,-12.695,0.000
1606130331.955,-83.496,-33.203,-38.574,-149.414,0.000
1606130331.958,-73.730,-29.785,-45.410,-148.438,0.000
1606130331.962,-22.461,-22.949,-38.086,4.883,0.000
1606130331.966,11.230,-22.461,-30.762,94.238,0.000
1606130331.970,-20.020,-31.250,-25.879,14.160,0.000
1606130331.974,-83.496,-33.691,-24.414,-127.930,0.000
1606130331.978,-89.355,-31.250,-25.879,-145.508,0.000
1606130331.982,-24.902,-27.344,-31.738,-2.441,0.000
1606130331.986,16.113,-22.461,-33.691,96.680,0.000
1606130331.990,-14.160,-34.668,-26.367,37.109,0.000
1606130331.994,-75.195,-45.410,-23.926,-102.051,0.000
1606130331.997,-85.449,-37.109,-21.973,-139.648,0.000
1606130332.001,-40.527,-37.109,-25.391,-24.902,0.000
1606130332.005,-2.441,-35.645,-31.250,84.961,0.000
1606130332.009,-14.160,-32.227,-21.973,57.129,0.000
1606130332.013,-68.359,-35.156,-22.461,-86.426,0.000
1606130332.017,-97.168,-38.574,-28.809,-157.715,0.000
1606130332.021,-46.387,-35.156,-22.949,-49.805,0.000
1606130332.025,15.137,-26.855,-16.602,93.750,0.000
1606130332.029,5.859,-31.738,-24.902,83.496,0.000
1606130332.033,-57.617,-34.668,-30.762,-69.336,0.000
1606130332.037,-89.355,-32.227,-26.367,-148.926,0.000
1606130332.040,-50.293,-36.133,-23.438,-64.453,0.000
1606130332.044,7.324,-27.344,-18.066,67.871,0.000
1606130332.048,15.625,-19.043,-18.555,82.031,0.000
1606130332.052,-44.434,-27.344,-23.926,-59.082,0.000
1606130332.056,-94.727,-31.250,-27.832,-165.039,0.000
1606130332.060,-63.477,-28.809,-22.949,-98.145,0.000
1606130332.064,-1.465,-26.367,-17.090,54.688,0.000
1606130332.068,9.766,-21.973,-24.902,95.215,0.000
1606130332.072,-51.758,-27.832,-39.551,-43.945,0.000
1606130332.076,-97.656,-36.133,-38.574,-164.062,0.000
1606130332.080,-68.359,-31.250,-28.320,-116.211,0.000
1606130332.083,-1.953,-28.809,-24.902,36.621,0.000
1606130332.087,10.742,-31.738,-28.320,97.168,0.000
1606130332.091,-42.480,-35.645,-28.809,-19.043,0.000
1606130332.095,-88.867,-28.320,-29.297,-152.344,0.000
1606130332.099,-72.266,-20.996,-29.785,-139.648,0.000
1606130332.103,-12.207,-30.273,-33.691,3.418,0.000
1606130332.107,4.883,-33.203,-36.621,81.543,0.000
1606130332.111,-40.039,-27.344,-33.203,-13.184,0.000
1606130332.115,-94.727,-30.762,-30.762,-153.809,0.000
1606130332.119,-92.773,-31.250,-29.785,-164.062,0.000
1606130332.122,-25.879,-28.320,-25.879,-9.766,0.000
1606130332.126,14.648,-28.320,-25.391,91.309,0.000
1606130332.130,-20.020,-32.715,-30.762,1.953,0.000
1606130332.134,-82.031,-29.297,-35.156,-133.789,0.000
1606130332.138,-97.656,-28.320,-39.551,-153.809,0.000
1606130332.142,-39.062,-28.320,-34.668,-31.738,0.000
1606130332.146,13.184,-20.020,-24.902,75.684,0.000
1606130332.150,-13.184,-22.949,-29.785,23.438,0.000
1606130332.154,-81.543,-29.785,-36.133,-128.418,0.000
1606130332.158,-103.027,-34.668,-40.527,-179.199,0.000
1606130332.162,-42.480,-27.832,-41.016,-57.129,0.000
1606130332.165,18.066,-21.973,-27.344,78.613,0.000
1606130332.169,-3.418,-24.902,-20.996,57.129,0.000
1606130332.173,-68.848,-24.902,-19.043,-92.773,0.000
1606130332.177,-94.727,-29.785,-23.926,-164.551,0.000
1606130332.181,-53.711,-25.391,-32.227,-59.570,0.000
1606130332.185,11.230,-15.137,-23.438,71.289,0.000
1606130332.189,3.906,-18.555,-22.949,59.570,0.000
1606130332.193,-73.730,-31.738,-30.762,-85.449,0.000
1606130332.197,-99.609,-30.762,-28.809,-167.969,0.000
1606130332.201,-60.059,-30.273,-26.367,-79.102,0.000
1606130332.205,-11.230,-34.668,-26.855,61.523,0.000
1606130332.208,2.441,-27.832,-24.414,82.520,0.000
1606130332.212,-44.922,-26.367,-15.137,-36.133,0.000
1606130332.216,-85.449,-32.227,-18.066,-130.859,0.000
1606130332.220,-55.176,-27.344,-24.414,-80.078,0.000
1606130332.224,7.812,-19.043,-19.043,67.871,0.000
1606130332.228,20.508,-18.066,-18.555,106.445,0.000
1606130332.232,-35.156,-23.438,-24.902,-17.090,0.000
1606130332.236,-84.961,-31.738,-29.297,-132.812,0.000
1606130332.240,-58.594,-31.250,-22.949,-109.863,0.000
1606130332.244,9.277,-20.508,-25.391,39.551,0.000
1606130332.247,31.250,-19.043,-26.855,104.492,0.000
1606130332.251,-20.020,-30.762,-30.273,-16.113,0.000
1606130332.255,-78.613,-32.715,-38.574,-148.926,0.000
1606130332.259,-68.359,-28.809,-31.738,-130.371,0.000
1606130332.263,-5.859,-27.344,-20.996,16.602,0.000
1606130332.267,30.762,-13.672,-17.578,105.469,0.000
1606130332.271,-16.602,-24.414,-26.367,12.695,0.000
1606130332.275,-80.078,-37.598,-31.738,-139.648,0.000
1606130332.279,-77.637,-30.762,-20.508,-145.996,0.000
1606130332.283,-19.043,-30.273,-20.020,-3.418,0.000
1606130332.287,27.832,-17.578,-17.090,96.680,0.000
1606130332.290,-1.953,-20.508,-23.438,30.273,0.000
1606130332.294,-62.012,-26.367,-34.668,-128.906,0.000
1606130332.298,-72.754,-28.320,-31.250,-165.527,0.000
1606130332.302,-17.090,-25.391,-25.879,-24.902,0.000
1606130332.306,28.320,-13.672,-31.250,97.168,0.000
1606130332.310,3.906,-16.602,-23.926,55.176,0.000
1606130332.314,-62.988,-30.762,-21.484,-108.887,0.000
1606130332.318,-88.379,-32.227,-37.598,-172.363,0.000
1606130332.322,-36.133,-24.902,-40.527,-48.340,0.000
1606130332.326,14.648,-14.648,-36.621,81.543,0.000
1606130332.330,12.695,-15.137,-34.668,62.500,0.000
1606130332.333,-57.617,-27.832,-32.227,-89.355,0.000
1606130332.337,-101.074,-28.320,-25.879,-164.551,0.000
1606130332.341,-49.316,-23.926,-23.438,-61.523,0.000
1606130332.345,12.207,-25.879,-25.391,74.707,0.000
1606130332.349,11.230,-26.855,-27.344,77.148,0.000
1606130332.353,-40.527,-26.855,-26.855,-61.523,0.000
1606130332.357,-69.336,-24.902,-24.902,-151.367,0.000
1606130332.361,-35.156,-20.020,-20.020,-70.312,0.000
1606130332.365,27.344,-17.090,-18.066,87.402,0.000
1606130332.369,35.156,-17.090,-19.531,115.234,0.000
1606130332.372,-34.668,-25.391,-22.949,-30.273,0.000
1606130332.376,-89.844,-33.691,-26.855,-145.508,0.000
1606130332.380,-61.035,-37.109,-29.297,-91.309,0.000
1606130332.384,8.301,-31.250,-25.391,63.477,0.000
1606130332.388,20.508,-26.855,-21.484,118.652,0.000
1606130332.392,-36.621,-36.621,-23.438,-4.395,0.000
1606130332.396,-89.844,-41.016,-33.203,-132.812,0.000
1606130332.400,-49.805,-28.809,-26.855,-104.980,0.000
1606130332.404,20.508,-20.996,-19.043,43.457,0.000
1606130332.408,21.973,-24.902,-21.484,111.328,0.000
1606130332.412,-21.484,-22.461,-21.973,7.812,0.000
1606130332.415,-76.172,-20.996,-25.879,-127.930,0.000
1606130332.419,-75.684,-31.250,-25.391,-127.441,0.000
1606130332.423,-16.602,-31.250,-21.484,26.367,0.000
1606130332.427,15.137,-31.250,-19.043,118.164,0.000
1606130332.431,-22.949,-34.668,-26.367,23.438,0.000
1606130332.435,-83.496,-39.062,-27.344,-122.559,0.000
1606130332.439,-88.379,-37.109,-23.926,-141.602,0.000
1606130332.443,-20.508,-32.715,-23.438,-0.488,0.000
1606130332.447,23.926,-29.297,-20.996,106.445,0.000
1606130332.451,-10.254,-44.434,-23.926,31.738,0.000
1606130332.455,-71.289,-50.781,-27.344,-122.070,0.000
1606130332.458,-78.613,-37.109,-31.250,-165.039,0.000
1606130332.462,-22.461,-29.785,-34.180,-41.992,0.000
1606130332.466,25.879,-22.461,-28.320,83.984,0.000
1606130332.470,9.277,-22.949,-24.902,48.828,0.000
1606130332.474,-56.641,-28.320,-32.715,-106.445,0.000
1606130332.478,-82.520,-28.320,-34.668,-168.457,0.000
1606130332.482,-34.668,-23.438,-29.785,-54.199,0.000
1606130332.486,20.996,-18.555,-33.691,79.102,0.000
1606130332.490,13.672,-26.367,-33.691,68.359,0.000
1606130332.494,-55.664,-36.133,-33.691,-86.914,0.000
1606130332.497,-100.098,-35.156,-40.039,-180.664,0.000
1606130332.501,-51.270,-32.227,-25.391,-93.750,0.000
1606130332.505,14.648,-23.438,-16.113,52.246,0.000
1606130332.509,16.602,-20.996,-22.461,70.312,0.000
1606130332.513,-46.387,-25.879,-27.832,-71.289,0.000
1606130332.517,-88.867,-26.367,-31.250,-165.039,0.000
1606130332.521,-51.758,-27.344,-22.949,-94.238,0.000
1606130332.525,15.137,-22.949,-20.020,51.270,0.000
1606130332.529,31.738,-16.602,-19.531,92.285,0.000
1606130332.533,-31.250,-20.508,-26.367,-38.574,0.000
1606130332.537,-88.379,-25.391,-40.039,-161.133,0.000
1606130332.540,-70.801,-26.855,-34.668,-116.699,0.000
1606130332.544,-3.418,-19.043,-22.949,37.109,0.000
1606130332.548,12.207,-20.020,-27.344,88.867,0.000
1606130332.552,-50.781,-44.922,-34.180,-36.133,0.000
1606130332.556,-101.074,-45.410,-32.715,-158.203,0.000
1606130332.560,-83.008,-28.809,-29.785,-132.324,0.000
1606130332.564,-20.508,-29.785,-29.785,18.066,0.000
1606130332.568,11.230,-34.180,-31.738,93.262,0.000
1606130332.572,-22.461,-35.156,-30.273,-0.488,0.000
1606130332.576,-77.148,-39.062,-30.273,-134.277,0.000
1606130332.580,-81.543,-39.062,-28.809,-127.930,0.000
1606130332.583,-16.602,-30.273,-26.855,26.367,0.000
1606130332.587,24.902,-20.508,-19.531,119.141,0.000
1606130332.591,-15.625,-20.996,-21.484,43.945,0.000
1606130332.595,-76.660,-24.414,-34.180,-113.770,0.000
1606130332.599,-84.961,-27.832,-35.645,-147.949,0.000
1606130332.603,-33.203,-29.297,-33.203,-16.113,0.000
1606130332.607,11.230,-23.926,-27.832,95.215,0.000
1606130332.611,-14.648,-25.879,-28.809,40.527,0.000
1606130332.615,-82.031,-32.227,-38.574,-115.723,0.000
1606130332.619,-98.633,-32.715,-40.039,-166.504,0.000
1606130332.622,-47.852,-28.320,-32.227,-49.316,0.000
1606130332.626,12.695,-28.809,-27.832,64.453,0.000
1606130332.630,-1.953,-33.691,-31.250,36.133,0.000
1606130332.634,-87.891,-39.062,-37.598,-116.211,0.000
1606130332.638,-107.910,-44.434,-41.504,-189.941,0.000
1606130332.642,-62.500,-43.457,-36.133,-83.984,0.000
1606130332.646,-6.348,-41.016,-28.809,59.082,0.000
1606130332.650,-2.930,-35.156,-30.762,70.801,0.000
1606130332.654,-65.918,-38.574,-34.668,-68.848,0.000
1606130332.658,-96.191,-47.363,-33.691,-157.715,0.000
1606130332.662,-52.734,-39.062,-28.809,-76.660,0.000
1606130332.665,7.324,-24.902,-27.344,54.199,0.000
1606130332.669,11.230,-28.320,-29.785,74.707,0.000
1606130332.673,-48.828,-33.203,-26.855,-65.430,0.000
1606130332.677,-91.309,-35.156,-29.785,-178.223,0.000
1606130332.681,-55.176,-30.762,-35.156,-116.699,0.000
1606130332.685,9.766,-19.043,-33.691,34.180,0.000
1606130332.689,18.066,-21.973,-29.297,79.590,0.000
1606130332.693,-25.879,-35.645,-29.297,-40.039,0.000
1606130332.697,-65.918,-37.598,-28.320,-158.203,0.000
1606130332.701,-57.129,-33.691,-23.438,-128.906,0.000
1606130332.705,5.371,-31.738,-26.367,20.508,0.000
1606130332.708,28.320,-29.297,-27.344,84.473,0.000
1606130332.712,-25.879,-29.297,-33.691,-21.973,0.000
1606130332.716,-84.961,-36.621,-41.016,-159.180,0.000
1606130332.720,-79.102,-38.086,-31.250,-145.508,0.000
1606130332.724,-11.230,-27.832,-23.438,10.254,0.000
1606130332.728,23.438,-32.227,-26.855,93.750,0.000
1606130332.732,-17.578,-29.297,-24.414,11.230,0.000
1606130332.736,-79.590,-25.391,-23.926,-132.324,0.000
1606130332.740,-88.379,-35.645,-28.320,-153.809,0.000
1606130332.744,-25.391,-29.297,-29.785,-13.672,0.000
1606130332.747,29.785,-20.508,-25.879,95.215,0.000
1606130332.751,0.000,-21.484,-25.879,32.227,0.000
1606130332.755,-69.336,-30.762,-28.320,-122.559,0.000
1606130332.759,-82.031,-38.574,-26.855,-164.062,0.000
1606130332.763,-21.973,-30.762,-32.227,-34.180,0.000
1606130332.767,27.344,-24.414,-28.809,91.309,0.000
1606130332.771,-2.930,-28.320,-27.344,52.734,0.000
1606130332.775,-65.430,-33.691,-30.273,-89.355,0.000
1606130332.779,-80.078,-39.551,-28.320,-144.043,0.000
1606130332.783,-29.785,-34.668,-21.484,-34.668,0.000
1606130332.787,20.020,-31.738,-22.949,96.191,0.000
1606130332.790,8.301,-35.156,-32.227,71.777,0.000
1606130332.794,-54.199,-35.156,-41.504,-83.008,0.000
1606130332.798,-90.820,-39.551,-41.992,-167.480,0.000
1606130332.802,-47.852,-37.109,-31.738,-71.777,0.000
1606130332.806,9.766,-32.227,-27.344,70.801,0.000
1606130332.810,7.324,-32.715,-32.227,82.031,0.000
1606130332.814,-53.223,-37.109,-36.621,-52.246,0.000
1606130332.818,-84.961,-40.039,-28.809,-143.555,0.000
1606130332.822,-45.410,-30.762,-16.602,-65.918,0.000
1606130332.826,14.648,-27.832,-11.719,74.707,0.000
1606130332.830,13.672,-30.273,-26.367,87.891,0.000
1606130332.833,-51.270,-28.809,-35.156,-48.340,0.000
1606130332.837,-87.891,-36.621,-33.691,-163.086,0.000
1606130332.841,-68.848,-40.527,-41.504,-118.164,0.000
1606130332.845,-6.836,-36.621,-37.598,35.645,0.000
1606130332.849,20.020,-30.273,-20.996,96.191,0.000
1606130332.853,-34.668,-33.691,-23.926,-19.531,0.000
1606130332.857,-90.820,-41.504,-33.203,-141.602,0.000
1606130332.861,-77.637,-37.109,-23.438,-115.723,0.000
1606130332.865,-7.812,-28.320,-23.438,35.645,0.000
1606130332.869,18.066,-28.809,-20.996,112.793,0.000
1606130332.872,-32.715,-23.926,-20.020,6.348,0.000
1606130332.876,-86.914,-20.996,-20.020,-131.836,0.000
1606130332.880,-78.125,-33.691,-15.625,-137.207,0.000
1606130332.884,-11.230,-32.227,-24.902,11.719,0.000
1606130332.888,28.809,-26.367,-31.250,112.793,0.000
1606130332.892,-10.254,-25.391,-31.250,26.367,0.000
1606130332.896,-77.637,-33.203,-32.715,-124.512,0.000
1606130332.900,-83.496,-34.180,-27.832,-145.020,0.000
1606130332.904,-18.555,-31.738,-22.461,-9.277,0.000
1606130332.908,21.484,-29.785,-18.555,96.191,0.000
1606130332.912,-14.648,-20.020,-19.043,45.898,0.000
1606130332.915,-71.289,-27.344,-29.785,-109.863,0.000
1606130332.919,-84.961,-36.621,-24.902,-154.297,0.000
1606130332.923,-35.645,-34.180,-22.949,-32.227,0.000
1606130332.927,16.113,-37.598,-38.086,78.613,0.000
1606130332.931,1.465,-21.484,-38.574,50.293,0.000
1606130332.935,-63.965,-29.297,-31.738,-92.773,0.000
1606130332.939,-94.238,-50.293,-37.109,-165.039,0.000
1606130332.943,-44.922,-39.551,-37.109,-65.430,0.000
1606130332.947,27.832,-23.926,-19.043,86.426,0.000
1606130332.951,28.809,-21.973,-3.906,93.262,0.000
1606130332.955,-41.504,-35.645,-21.973,-68.848,0.000
1606130332.958,-86.914,-43.457,-39.062,-162.109,0.000
1606130332.962,-50.293,-44.922,-35.645,-73.242,0.000
1606130332.966,12.207,-40.527,-30.273,69.336,0.000
1606130332.970,7.812,-22.949,-28.320,80.566,0.000
1606130332.974,-51.270,-11.230,-29.297,-61.035,0.000
1606130332.978,-90.820,-30.273,-27.344,-165.039,0.000
1606130332.982,-60.547,-43.457,-29.785,-102.051,0.000
1606130332.986,3.418,-37.598,-30.762,50.781,0.000
1606130332.990,7.812,-34.668,-30.273,90.820,0.000
1606130332.994,-45.410,-37.598,-30.273,-33.691,0.000
1606130332.997,-90.332,-45.410,-32.715,-154.297,0.000
1606130333.001,-76.172,-41.992,-37.109,-121.582,0.000
1606130333.005,-1.465,-36.621,-35.645,37.109,0.000
1606130333.009,23.926,-29.785,-26.855,99.121,0.000
1606130333.013,-53.223,-22.461,-31.738,-24.414,0.000
1606130333.017,-111.328,-38.086,-26.855,-161.621,0.000
1606130333.021,-93.750,-40.039,-20.996,-143.066,0.000
1606130333.025,-19.043,-31.738,-26.367,11.230,0.000
1606130333.029,10.254,-36.621,-28.809,85.938,0.000
1606130333.033,-39.551,-38.086,-32.715,-2.441,0.000
1606130333.037,-97.656,-44.922,-31.738,-142.578,0.000
1606130333.040,-88.379,-42.969,-38.086,-156.250,0.000
1606130333.044,-16.602,-31.250,-33.691,-10.254,0.000
1606130333.048,24.902,-28.809,-23.926,97.656,0.000
1606130333.052,-2.930,-26.855,-24.902,29.785,0.000
1606130333.056,-64.453,-30.273,-25.879,-123.047,0.000
1606130333.060,-75.195,-38.086,-32.715,-153.320,0.000
1606130333.064,-18.555,-40.039,-25.879,-15.625,0.000
1606130333.068,24.902,-38.574,-12.695,95.703,0.000
1606130333.072,6.348,-39.551,-18.066,45.410,0.000
1606130333.076,-57.129,-38.574,-21.973,-95.215,0.000
1606130333.080,-79.102,-37.598,-28.320,-158.203,0.000
1606130333.083,-20.996,-34.668,-30.273,-52.734,0.000
1606130333.087,37.109,-30.762,-23.438,91.797,0.000
1606130333.091,9.277,-30.273,-29.297,71.777,0.000
1606130333.095,-69.824,-44.434,-43.945,-98.633,0.000
1606130333.099,-88.379,-50.293,-41.992,-168.945,0.000
1606130333.103,-31.250,-32.715,-32.715,-59.570,0.000
1606130333.107,16.602,-28.809,-28.809,73.242,0.000
1606130333.111,8.789,-16.602,-28.809,77.637,0.000
1606130333.115,-43.945,-16.602,-32.227,-62.012,0.000
1606130333.119,-82.031,-35.645,-20.996,-156.250,0.000
1606130333.122,-50.293,-33.203,-10.742,-76.172,0.000
1606130333.126,11.719,-27.832,-22.949,70.312,0.000
1606130333.130,22.949,-24.902,-33.203,94.727,0.000
1606130333.134,-23.926,-27.832,-37.598,-41.016,0.000
1606130333.138,-76.660,-39.062,-35.156,-156.250,0.000
1606130333.142,-55.664,-37.598,-37.109,-101.074,0.000
1606130333.146,12.207,-28.809,-25.879,52.734,0.000
1606130333.150,28.320,-20.508,-24.902,97.168,0.000
1606130333.154,-31.250,-13.184,-38.574,-30.762,0.000
1606130333.158,-83.008,-23.926,-32.227,-150.391,0.000
1606130333.162,-54.199,-32.715,-17.578,-109.863,0.000
1606130333.165,16.113,-31.738,-11.230,43.945,0.000
1606130333.169,29.297,-35.156,-20.020,111.816,0.000
1606130333.173,-13.672,-34.668,-37.598,7.812,0.000
1606130333.177,-65.918,-32.715,-41.992,-139.648,0.000
1606130333.181,-65.430,-29.297,-40.039,-147.461,0.000
1606130333.185,-0.488,-15.137,-39.062,-4.395,0.000
1606130333.189,16.113,-7.324,-40.527,74.219,0.000
1606130333.193,-18.066,-9.277,-37.109,-8.301,0.000
1606130333.197,-75.195,-15.137,-47.852,-144.531,0.000
1606130333.201,-94.238,-16.602,-56.641,-173.340,0.000
1606130333.205,-25.879,-12.695,-36.621,-26.855,0.000
1606130333.208,25.391,-7.812,-31.738,83.984,0.000
1606130333.212,-0.977,-11.230,-41.016,20.020,0.000
1606130333.216,-58.594,-20.996,-39.062,-124.023,0.000
1606130333.220,-62.988,-18.066,-37.109,-159.668,0.000
1606130333.224,-2.441,-19.531,-34.180,-34.180,0.000
1606130333.228,38.086,-17.578,-24.902,81.543,0.000
1606130333.232,11.719,-18.555,-29.297,40.039,0.000
1606130333.236,-51.758,-26.855,-40.527,-113.281,0.000
1606130333.240,-62.988,-29.297,-36.133,-166.504,0.000
1606130333.244,-6.348,-27.344,-32.715,-40.039,0.000
1606130333.247,41.016,-34.180,-33.203,92.773,0.000
1606130333.251,31.738,-4.395,-27.832,67.383,0.000
1606130333.255,-35.156,13.672,-29.785,-79.102,0.000
1606130333.259,-65.918,-20.508,-25.879,-147.949,0.000
1606130333.263,-17.090,-28.809,-14.648,-46.875,0.000
1606130333.267,48.340,-26.855,-18.066,83.008,0.000
1606130333.271,41.992,-27.344,-22.949,86.426,0.000
1606130333.275,-30.273,-38.086,-28.809,-60.059,0.000
1606130333.279,-67.871,-43.945,-26.855,-157.227,0.000
1606130333.283,-30.762,-37.109,-22.949,-76.660,0.000
1606130333.287,30.273,-33.691,-28.809,80.078,0.000
1606130333.290,37.109,-6.348,-30.762,121.582,0.000
1606130333.294,-21.973,-0.977,-33.203,-15.625,0.000
1606130333.298,-64.941,-40.039,-22.461,-132.812,0.000
1606130333.302,-41.016,-47.363,-17.578,-84.473,0.000
1606130333.306,18.066,-40.527,-30.762,65.918,0.000
1606130333.310,38.086,-38.086,-36.621,123.047,0.000
1606130333.314,-12.695,-49.316,-32.715,13.184,0.000
1606130333.318,-60.059,-49.316,-35.156,-116.699,0.000
1606130333.322,-39.062,-38.574,-33.203,-96.680,0.000
1606130333.326,21.973,-34.180,-22.461,56.152,0.000
1606130333.330,35.156,-32.715,-29.785,118.164,0.000
1606130333.333,-10.254,-36.133,-38.574,13.672,0.000
1606130333.337,-56.152,-40.527,-34.668,-113.281,0.000
1606130333.341,-43.945,-37.598,-32.227,-107.910,0.000
1606130333.345,17.090,-37.598,-29.785,33.203,0.000
1606130333.349,52.734,-30.762,-24.414,124.023,0.000
1606130333.353,15.625,-6.348,-29.297,54.688,0.000
1606130333.357,-52.246,-18.555,-34.668,-88.379,0.000
1606130333.361,-57.617,-37.598,-28.809,-119.141,0.000
1606130333.365,9.277,-29.297,-28.320,15.137,0.000
1606130333.369,51.270,-21.484,-31.738,110.352,0.000
1606130333.372,12.207,-25.391,-36.133,50.781,0.000
1606130333.376,-58.105,-36.621,-34.668,-96.191,0.000
1606130333.380,-67.871,-33.691,-25.391,-136.719,0.000
1606130333.384,-0.488,-21.973,-20.020,-5.371,0.000
1606130333.388,46.875,-21.973,-24.902,104.980,0.000
1606130333.392,10.254,-22.949,-31.250,62.500,0.000
1606130333.396,-50.781,-26.855,-30.273,-80.566,0.000
1606130333.400,-62.012,-31.738,-25.391,-134.766,0.000
1606130333.404,-23.926,-27.832,-17.090,-34.180,0.000
1606130333.408,25.391,-21.973,-17.090,95.703,0.000
1606130333.412,17.090,-26.367,-23.926,87.402,0.000
1606130333.415,-43.457,-38.574,-28.320,-71.289,0.000
1606130333.419,-83.496,-33.203,-31.250,-166.504,0.000
1606130333.423,-49.316,-20.508,-22.461,-82.031,0.000
1606130333.427,11.230,-18.555,-20.996,58.105,0.000
1606130333.431,9.766,-13.184,-25.391,78.613,0.000
1606130333.435,-59.082,-19.043,-27.344,-64.941,0.000
1606130333.439,-101.074,-33.203,-34.180,-174.316,0.000
1606130333.443,-59.570,-27.832,-35.645,-105.469,0.000
1606130333.447,10.254,-23.926,-33.691,48.828,0.000
1606130333.451,16.602,-30.273,-25.879,87.891,0.000
1606130333.455,-48.340,-33.203,-19.531,-40.527,0.000
1606130333.458,-103.027,-39.062,-29.785,-162.109,0.000
1606130333.462,-81.055,-37.109,-32.715,-117.676,0.000
1606130333.466,-13.184,-26.367,-27.832,31.738,0.000
1606130333.470,6.348,-19.043,-30.762,83.008,0.000
1606130333.474,-35.645,-20.020,-29.297,-24.414,0.000
1606130333.478,-87.402,-20.020,-31.250,-149.902,0.000
1606130333.482,-81.543,-24.902,-37.598,-143.066,0.000
1606130333.486,-19.043,-26.367,-29.785,10.742,0.000
1606130333.490,16.113,-20.508,-21.973,103.027,0.000
1606130333.494,-28.320,-25.391,-22.461,7.324,0.000
1606130333.497,-98.145,-37.109,-31.738,-138.672,0.000
1606130333.501,-93.262,-37.598,-39.062,-144.531,0.000
1606130333.505,-24.902,-31.250,-37.109,3.418,0.000
1606130333.509,20.996,-28.809,-35.645,103.516,0.000
1606130333.513,-3.906,-26.367,-34.668,41.504,0.000
1606130333.517,-64.941,-34.180,-30.762,-96.191,0.000
1606130333.521,-83.496,-36.621,-30.762,-138.184,0.000
1606130333.525,-20.020,-27.344,-25.879,-14.160,0.000
1606130333.529,33.691,-29.297,-20.996,106.934,0.000
1606130333.533,-0.977,-47.852,-27.344,58.105,0.000
1606130333.537,-57.129,-45.898,-25.879,-93.262,0.000
1606130333.540,-70.312,-27.344,-29.297,-148.438,0.000
1606130333.544,-24.414,-20.996,-33.691,-30.762,0.000
1606130333.548,24.902,-17.578,-28.809,92.773,0.000
1606130333.552,6.348,-18.555,-30.273,66.895,0.000
1606130333.556,-52.246,-22.461,-29.785,-73.730,0.000
1606130333.560,-73.730,-22.461,-26.855,-143.555,0.000
1606130333.564,-28.320,-20.508,-28.320,-52.246,0.000
1606130333.568,24.414,-23.926,-29.297,82.031,0.000
1606130333.572,17.578,-19.043,-32.715,78.613,0.000
1606130333.576,-40.527,-22.461,-32.227,-71.289,0.000
1606130333.580,-72.266,-37.598,-27.832,-157.227,0.000
1606130333.583,-33.691,-31.250,-24.902,-78.613,0.000
1606130333.587,29.785,-16.113,-27.344,58.105,0.000
1606130333.591,35.156,-17.578,-25.391,81.055,0.000
1606130333.595,-30.273,-26.367,-25.391,-54.688,0.000
1606130333.599,-82.031,-31.250,-34.180,-171.875,0.000
1606130333.603,-62.988,-30.762,-35.156,-117.676,0.000
1606130333.607,-5.371,-26.367,-31.738,33.203,0.000
1606130333.611,15.137,-30.273,-30.273,77.148,0.000
1606130333.615,-24.414,-28.320,-23.438,-33.691,0.000
1606130333.619,-77.148,-26.367,-26.855,-140.625,0.000
1606130333.622,-67.871,-32.715,-37.598,-110.840,0.000
1606130333.626,0.977,-36.621,-35.156,39.062,0.000
1606130333.630,23.926,-35.645,-37.109,100.586,0.000
1606130333.634,-23.926,-37.598,-38.086,-4.395,0.000
1606130333.638,-80.078,-39.551,-41.992,-138.672,0.000
1606130333.642,-78.125,-33.691,-45.410,-135.742,0.000
1606130333.646,-16.113,-28.320,-39.062,16.602,0.000
1606130333.650,17.578,-26.367,-37.598,94.238,0.000
1606130333.654,-14.648,-29.785,-39.551,7.812,0.000
1606130333.658,-67.383,-31.738,-36.621,-122.070,0.000
1606130333.662,-72.266,-32.715,-36.133,-143.555,0.000
1606130333.665,-11.230,-26.855,-33.203,-4.395,0.000
1606130333.669,32.715,-26.855,-28.809,103.516,0.000
1606130333.673,-6.836,-40.527,-26.855,36.621,0.000
1606130333.677,-71.289,-43.457,-33.203,-115.234,0.000
1606130333.681,-77.637,-37.598,-40.039,-151.367,0.000
1606130333.685,-26.367,-30.273,-35.156,-26.855,0.000
1606130333.689,20.508,-32.227,-32.715,90.332,0.000
1606130333.693,-0.488,-35.645,-39.062,57.129,0.000
1606130333.697,-58.105,-38.574,-41.016,-92.285,0.000
1606130333.701,-79.102,-41.992,-33.691,-149.414,0.000
1606130333.705,-32.227,-36.133,-33.691,-39.551,0.000
1606130333.708,23.438,-27.832,-34.668,92.285,0.000
1606130333.712,12.695,-31.738,-40.039,78.125,0.000
1606130333.716,-52.246,-42.969,-46.387,-82.520,0.000
1606130333.720,-86.914,-40.527,-39.551,-162.598,0.000
1606130333.724,-44.922,-31.738,-37.109,-69.824,0.000
1606130333.728,12.695,-25.391,-31.738,66.406,0.000
1606130333.732,11.230,-19.043,-30.273,69.824,0.000
1606130333.736,-52.734,-25.391,-35.156,-66.895,0.000
1606130333.740,-89.355,-30.762,-30.273,-155.273,0.000
1606130333.744,-69.336,-33.691,-29.785,-92.285,0.000
1606130333.747,-15.625,-36.621,-25.391,57.617,0.000
1606130333.751,4.395,-37.598,-18.555,95.215,0.000
1606130333.755,-38.086,-39.062,-20.020,-37.598,0.000
1606130333.759,-85.449,-40.527,-26.367,-156.250,0.000
1606130333.763,-70.312,-42.480,-25.391,-124.512,0.000
1606130333.767,-4.395,-37.598,-20.508,31.250,0.000
1606130333.771,12.695,-32.227,-25.879,91.797,0.000
1606130333.775,-31.250,-38.086,-34.668,-26.367,0.000
1606130333.779,-80.566,-42.969,-36.133,-148.438,0.000
1606130333.783,-68.359,-33.203,-26.367,-126.465,0.000
1606130333.787,-2.930,-26.367,-24.414,22.461,0.000
1606130333.790,16.113,-30.273,-29.297,88.379,0.000
1606130333.794,-33.203,-41.016,-31.250,-11.230,0.000
1606130333.798,-84.961,-43.945,-30.273,-138.184,0.000
1606130333.802,-78.125,-39.062,-27.832,-133.301,0.000
1606130333.806,0.000,-30.273,-19.531,10.742,0.000
1606130333.810,39.062,-27.344,-18.066,87.891,0.000
1606130333.814,-21.484,-38.086,-29.785,6.836,0.000
1606130333.818,-75.684,-38.086,-35.645,-134.277,0.000
1606130333.822,-78.613,-33.691,-33.203,-159.180,0.000
1606130333.826,-27.832,-33.203,-30.273,-27.344,0.000
1606130333.830,23.438,-28.320,-23.438,82.520,0.000
1606130333.833,1.465,-28.320,-24.414,38.086,0.000
1606130333.837,-62.988,-28.809,-29.785,-106.934,0.000
1606130333.841,-74.219,-27.832,-32.227,-155.762,0.000
1606130333.845,-23.438,-27.832,-37.598,-39.551,0.000
1606130333.849,28.809,-16.602,-31.250,86.426,0.000
1606130333.853,9.277,-16.602,-24.902,59.082,0.000
1606130333.857,-62.012,-34.668,-30.273,-96.680,0.000
1606130333.861,-88.379,-36.621,-32.715,-166.504,0.000
1606130333.865,-41.992,-25.879,-29.297,-61.035,0.000
1606130333.869,15.625,-21.973,-25.879,76.660,0.000
1606130333.872,15.137,-27.832,-29.785,67.871,0.000
1606130333.876,-36.621,-32.227,-33.691,-79.102,0.000
1606130333.880,-77.148,-31.250,-30.762,-161.133,0.000
1606130333.884,-50.293,-23.926,-30.273,-77.637,0.000
1606130333.888,11.719,-12.207,-22.461,64.453,0.000
1606130333.892,20.020,-12.695,-17.578,85.938,0.000
1606130333.896,-36.621,-20.996,-21.973,-47.363,0.000
1606130333.900,-78.125,-21.973,-23.438,-148.926,0.000
1606130333.904,-57.129,-26.367,-27.832,-94.727,0.000
1606130333.908,-2.441,-34.180,-29.297,34.668,0.000
1606130333.912,4.883,-17.090,-25.391,70.312,0.000
1606130333.915,-46.875,-4.883,-26.367,-47.363,0.000
1606130333.919,-90.820,-28.320,-28.320,-164.062,0.000
1606130333.923,-76.660,-38.086,-27.832,-129.395,0.000
1606130333.927,-20.508,-37.598,-29.297,8.301,0.000
1606130333.931,6.348,-33.203,-26.367,82.031,0.000
1606130333.935,-31.250,-27.832,-25.391,-12.207,0.000
1606130333.939,-84.961,-34.180,-29.297,-146.484,0.000
1606130333.943,-80.078,-33.691,-25.391,-129.395,0.000
1606130333.947,-16.602,-34.180,-21.973,13.184,0.000
1606130333.951,19.043,-23.438,-23.438,89.355,0.000
1606130333.955,-22.461,-23.438,-21.484,6.348,0.000
1606130333.958,-79.590,-42.969,-24.414,-133.301,0.000
1606130333.962,-74.219,-35.645,-21.484,-137.695,0.000
1606130333.966,-6.348,-28.320,-15.137,2.441,0.000
1606130333.970,28.809,-25.391,-20.020,96.680,0.000
1606130333.974,-5.859,-23.926,-19.043,30.273,0.000
1606130333.978,-62.988,-30.762,-19.043,-107.422,0.000
1606130333.982,-68.848,-36.621,-22.949,-145.996,0.000
1606130333.986,-23.438,-29.297,-17.578,-30.762,0.000
1606130333.990,21.484,-18.555,-8.789,98.633,0.000
1606130333.994,4.395,-21.973,-18.555,52.246,0.000
1606130333.997,-62.500,-28.809,-31.250,-110.840,0.000
1606130334.001,-82.031,-34.180,-28.320,-155.273,0.000
1606130334.005,-35.645,-33.203,-28.809,-32.227,0.000
1606130334.009,20.508,-29.297,-29.785,77.637,0.000
1606130334.013,7.324,-38.574,-23.438,57.617,0.000
1606130334.017,-58.105,-40.039,-17.578,-77.148,0.000
1606130334.021,-71.777,-28.809,-18.066,-163.574,0.000
1606130334.025,-24.414,-22.949,-20.508,-65.430,0.000
1606130334.029,25.391,-21.973,-23.438,76.172,0.000
1606130334.033,33.691,-14.648,-23.926,78.125,0.000
1606130334.037,-23.438,-10.742,-29.297,-62.500,0.000
1606130334.040,-69.336,-18.066,-38.574,-155.273,0.000
1606130334.044,-34.668,-20.996,-25.879,-79.590,0.000
1606130334.048,40.527,-20.020,-12.695,69.824,0.000
1606130334.052,33.691,-35.645,-31.738,91.797,0.000
1606130334.056,-39.551,-36.133,-40.039,-48.340,0.000
1606130334.060,-77.637,-25.391,-32.227,-153.809,0.000
1606130334.064,-40.527,-27.832,-29.297,-103.516,0.000
1606130334.068,24.414,-25.879,-25.391,41.016,0.000
1606130334.072,37.109,-18.555,-22.461,95.215,0.000
1606130334.076,-12.207,-18.555,-28.320,-21.484,0.000
1606130334.080,-68.359,-27.832,-32.715,-149.414,0.000
1606130334.083,-46.387,-25.879,-31.738,-112.305,0.000
1606130334.087,16.113,-22.461,-32.227,36.621,0.000
1606130334.091,20.020,-27.832,-37.109,98.145,0.000
1606130334.095,-23.438,-36.621,-39.551,0.977,0.000
1606130334.099,-71.777,-36.133,-33.203,-132.812,0.000
1606130334.103,-66.406,-32.227,-27.344,-137.207,0.000
1606130334.107,-2.930,-32.715,-25.879,7.324,0.000
1606130334.111,23.438,-30.273,-23.438,95.703,0.000
1606130334.115,-15.137,-27.344,-34.180,9.766,0.000
1606130334.119,-69.336,-29.785,-41.504,-139.160,0.000
1606130334.122,-66.406,-25.391,-32.715,-152.344,0.000
1606130334.126,-15.625,-22.949,-22.949,-10.742,0.000
1606130334.130,16.602,-24.902,-16.602,90.820,0.000
1606130334.134,-12.695,-26.855,-15.137,45.410,0.000
1606130334.138,-90.332,-40.039,-19.531,-104.980,0.000
1606130334.142,-115.234,-54.688,-18.066,-155.273,0.000
1606130334.146,-50.781,-48.340,-14.160,-20.508,0.000
1606130334.150,4.883,-37.109,-10.742,107.422,0.000
1606130334.154,-15.625,-40.527,-3.906,49.805,0.000
1606130334.158,-87.891,-42.969,-13.184,-111.328,0.000
1606130334.162,-107.910,-42.480,-20.996,-169.922,0.000
1606130334.165,-49.805,-37.598,-15.137,-63.965,0.000
1606130334.169,7.812,-30.273,-3.906,74.219,0.000
1606130334.173,-5.371,-32.227,-8.301,60.059,0.000
1606130334.177,-73.242,-42.480,-27.344,-90.820,0.000
1606130334.181,-96.191,-46.387,-26.855,-158.691,0.000
1606130334.185,-49.805,-39.062,-20.020,-63.965,0.000
1606130334.189,1.953,-32.227,-25.391,53.223,0.000
1606130334.193,5.371,-45.410,-23.438,59.570,0.000
1606130334.197,-47.363,-45.898,-19.531,-67.383,0.000
1606130334.201,-80.078,-31.738,-32.715,-152.344,0.000
1606130334.205,-45.410,-26.855,-36.133,-97.656,0.000
1606130334.208,11.719,-22.461,-25.391,43.945,0.000
1606130334.212,20.020,-26.367,-19.531,107.422,0.000
1606130334.216,-33.203,-29.785,-20.508,-17.578,0.000
1606130334.220,-80.566,-32.227,-19.531,-139.648,0.000
1606130334.224,-61.035,-27.344,-16.113,-91.309,0.000
1606130334.228,1.465,-17.090,-13.672,50.293,0.000
1606130334.232,25.879,-23.926,-18.555,106.445,0.000
1606130334.236,-21.973,-25.879,-26.367,-6.348,0.000
1606130334.240,-85.938,-24.902,-26.855,-144.043,0.000
1606130334.244,-72.754,-33.691,-27.832,-118.164,0.000
1606130334.247,-2.441,-29.785,-28.320,28.320,0.000
1606130334.251,27.344,-20.508,-21.973,98.633,0.000
1606130334.255,-16.113,-27.832,-23.926,6.348,0.000
1606130334.259,-74.707,-42.480,-32.715,-142.578,0.000
1606130334.263,-69.336,-42.969,-29.785,-146.484,0.000
1606130334.267,-6.836,-31.738,-18.555,16.602,0.000
1606130334.271,24.902,-26.855,-20.508,106.445,0.000
1606130334.275,-15.625,-36.133,-31.250,22.461,0.000
1606130334.279,-70.801,-38.086,-31.738,-116.699,0.000
1606130334.283,-77.148,-34.180,-28.320,-146.973,0.000
1606130334.287,-18.066,-36.133,-22.461,-18.555,0.000
1606130334.290,16.602,-40.527,-20.508,88.379,0.000
1606130334.294,-18.555,-47.363,-30.762,34.180,0.000
1606130334.298,-68.848,-41.992,-33.203,-116.699,0.000
1606130334.302,-85.938,-33.691,-29.297,-160.645,0.000
1606130334.306,-39.062,-31.738,-23.438,-27.832,0.000
1606130334.310,9.766,-27.832,-25.391,84.473,0.000
1606130334.314,-10.742,-28.320,-28.320,48.828,0.000
1606130334.318,-67.383,-35.645,-36.133,-91.797,0.000
1606130334.322,-90.820,-41.504,-36.133,-155.273,0.000
1606130334.326,-53.223,-35.645,-24.414,-58.594,0.000
1606130334.330,5.371,-38.086,-24.414,73.242,0.000
1606130334.333,1.953,-46.875,-24.902,68.359,0.000
1606130334.337,-60.547,-41.504,-25.879,-69.824,0.000
1606130334.341,-92.285,-42.480,-31.738,-156.738,0.000
1606130334.345,-56.641,-43.457,-31.250,-85.938,0.000
1606130334.349,-0.977,-42.480,-24.902,54.688,0.000
1606130334.353,4.395,-39.062,-24.414,90.820,0.000
1606130334.357,-50.293,-42.480,-30.273,-48.340,0.000
1606130334.361,-83.008,-45.898,-37.109,-164.551,0.000
1606130334.365,-51.758,-41.992,-32.227,-99.609,0.000
1606130334.369,8.301,-28.809,-30.762,47.852,0.000
1606130334.372,14.648,-42.480,-40.039,94.238,0.000
1606130334.376,-40.039,-55.176,-35.645,-43.457,0.000
1606130334.380,-85.449,-40.039,-39.551,-170.410,0.000
1606130334.384,-69.336,-35.645,-46.875,-125.488,0.000
1606130334.388,1.953,-24.902,-38.086,28.320,0.000
1606130334.392,23.438,-26.367,-33.691,93.262,0.000
1606130334.396,-21.484,-36.621,-35.156,-11.719,0.000
1606130334.400,-65.430,-39.551,-41.016,-145.020,0.000
1606130334.404,-60.547,-32.715,-35.645,-134.277,0.000
1606130334.408,-4.395,-21.484,-25.391,14.648,0.000
1606130334.412,29.785,-15.137,-23.438,103.027,0.000
1606130334.415,-16.113,-17.578,-27.832,14.160,0.000
1606130334.419,-83.008,-26.855,-31.250,-137.695,0.000
1606130334.423,-83.008,-31.250,-37.109,-151.367,0.000
1606130334.427,-15.625,-27.344,-32.715,-5.371,0.000
1606130334.431,29.785,-20.020,-23.926,97.168,0.000
1606130334.435,-5.859,-23.438,-28.320,31.738,0.000
1606130334.439,-60.059,-26.855,-33.203,-110.840,0.000
1606130334.443,-61.035,-25.391,-29.297,-144.043,0.000
1606130334.447,-12.207,-21.973,-29.297,-10.742,0.000
1606130334.451,28.320,-17.578,-31.250,105.469,0.000
1606130334.455,0.488,-22.461,-25.391,53.223,0.000
1606130334.458,-68.359,-28.809,-26.855,-88.867,0.000
1606130334.462,-83.496,-26.367,-31.738,-142.090,0.000
1606130334.466,-32.715,-26.855,-26.855,-49.316,0.000
1606130334.470,23.926,-15.625,-19.531,80.566,0.000
1606130334.474,22.461,-5.371,-21.484,65.430,0.000
1606130334.478,-37.598,-20.508,-28.809,-80.566,0.000
1606130334.482,-68.848,-31.738,-29.297,-152.344,0.000
1606130334.486,-29.297,-32.715,-26.855,-55.664,0.000
1606130334.490,20.996,-30.273,-22.949,78.613,0.000
1606130334.494,16.113,-30.762,-20.996,83.496,0.000
1606130334.497,-46.387,-33.203,-26.367,-58.105,0.000
1606130334.501,-86.914,-37.598,-31.738,-159.180,0.000
1606130334.505,-49.316,-38.574,-30.273,-88.867,0.000
1606130334.509,9.277,-34.180,-27.832,60.059,0.000
1606130334.513,8.789,-37.598,-28.809,81.543,0.000
1606130334.517,-47.363,-31.250,-31.738,-59.570,0.000
1606130334.521,-95.703,-31.738,-33.203,-172.852,0.000
1606130334.525,-69.824,-40.039,-36.133,-128.418,0.000
1606130334.529,-6.836,-34.668,-35.645,23.438,0.000
1606130334.533,11.230,-28.809,-31.250,78.613,0.000
1606130334.537,-37.109,-33.203,-32.227,-39.551,0.000
1606130334.540,-87.891,-30.762,-33.691,-151.855,0.000
1606130334.544,-71.289,-26.855,-31.738,-122.070,0.000
1606130334.548,0.488,-25.391,-29.297,25.391,0.000
1606130334.552,27.344,-24.414,-28.809,110.352,0.000
1606130334.556,-23.438,-33.691,-31.250,9.277,0.000
1606130334.560,-79.590,-39.551,-34.668,-142.090,0.000
1606130334.564,-71.777,-32.227,-30.762,-138.184,0.000
1606130334.568,-10.254,-19.043,-23.438,11.719,0.000
1606130334.572,28.320,-15.137,-22.461,102.051,0.000
1606130334.576,-6.836,-25.391,-20.020,22.461,0.000
1606130334.580,-63.477,-26.367,-23.438,-117.188,0.000
1606130334.583,-60.547,-20.508,-23.438,-125.977,0.000
1606130334.587,0.977,-13.184,-20.996,18.555,0.000
1606130334.591,34.180,-13.184,-17.578,116.211,0.000
1606130334.595,-2.930,-16.602,-17.578,51.270,0.000
1606130334.599,-49.316,-22.949,-29.297,-100.098,0.000
1606130334.603,-68.359,-30.273,-33.203,-144.531,0.000
1606130334.607,-32.715,-26.855,-25.879,-25.879,0.000
1606130334.611,23.926,-24.414,-20.508,99.121,0.000
1606130334.615,15.137,-24.414,-23.926,73.730,0.000
1606130334.619,-45.410,-17.578,-25.391,-71.289,0.000
1606130334.622,-69.824,-20.508,-27.832,-134.277,0.000
1606130334.626,-27.344,-26.855,-26.367,-36.133,0.000
1606130334.630,26.855,-20.020,-25.391,85.938,0.000
1606130334.634,23.438,-13.184,-26.855,71.777,0.000
1606130334.638,-45.410,-12.695,-30.273,-73.242,0.000
1606130334.642,-78.613,-16.113,-31.250,-151.367,0.000
1606130334.646,-38.086,-19.531,-22.949,-67.383,0.000
1606130334.650,18.555,-1.465,-8.789,79.102,0.000
1606130334.654,14.160,9.277,-5.859,99.121,0.000
1606130334.658,-50.781,-23.438,-16.602,-47.852,0.000
1606130334.662,-88.379,-35.156,-22.949,-149.414,0.000
1606130334.665,-60.059,-25.391,-24.414,-86.914,0.000
1606130334.669,3.418,-20.996,-21.973,62.988,0.000
1606130334.673,19.043,-16.602,-19.531,95.703,0.000
1606130334.677,-35.156,-25.879,-27.344,-33.203,0.000
1606130334.681,-76.660,-31.738,-32.715,-145.020,0.000
1606130334.685,-49.805,-27.344,-27.832,-109.863,0.000
1606130334.689,9.277,-24.414,-20.996,39.062,0.000
1606130334.693,22.461,-20.508,-18.066,105.469,0.000
1606130334.697,-17.090,-19.531,-18.066,-3.418,0.000
1606130334.701,-66.895,-30.762,-19.043,-132.812,0.000
1606130334.705,-60.059,-36.621,-21.484,-114.258,0.000
1606130334.708,4.395,-28.320,-22.461,34.180,0.000
1606130334.712,25.879,-23.438,-21.973,104.004,0.000
1606130334.716,-17.578,-23.926,-19.043,4.395,0.000
1606130334.720,-72.266,-26.855,-24.414,-128.418,0.000
1606130334.724,-67.871,-28.809,-30.762,-134.277,0.000
1606130334.728,-5.859,-19.531,-25.391,4.883,0.000
1606130334.732,26.367,-17.090,-17.090,92.285,0.000
1606130334.736,-5.371,-23.438,-20.020,16.113,0.000
1606130334.740,-69.336,-27.832,-30.762,-134.277,0.000
1606130334.744,-77.637,-20.996,-22.949,-152.832,0.000
1606130334.747,-13.672,-12.695,-6.348,0.000,0.000
1606130334.751,22.949,-20.508,-8.301,100.586,0.000
1606130334.755,-9.766,-28.809,-14.648,36.621,0.000
1606130334.759,-72.266,-25.391,-22.949,-119.141,0.000
1606130334.763,-86.426,-27.832,-26.855,-165.527,0.000
1606130334.767,-33.203,-27.832,-27.832,-48.340,0.000
1606130334.771,25.879,-25.879,-27.832,86.426,0.000
1606130334.775,4.883,-22.949,-23.438,75.684,0.000
1606130334.779,-64.941,-23.438,-19.043,-81.543,0.000
1606130334.783,-89.844,-25.879,-26.855,-152.832,0.000
1606130334.787,-40.039,-23.438,-24.902,-47.363,0.000
1606130334.790,21.484,-24.902,-16.113,96.191,0.000
1606130334.794,15.137,-23.926,-14.648,103.027,0.000
1606130334.798,-37.109,-27.344,-12.695,-40.527,0.000
1606130334.802,-63.477,-30.273,-17.090,-127.441,0.000
1606130334.806,-26.367,-29.785,-16.602,-42.480,0.000
1606130334.810,27.832,-23.926,-19.043,100.098,0.000
1606130334.814,34.180,-16.113,-24.414,115.723,0.000
1606130334.818,-24.414,-20.020,-24.902,-22.461,0.000
1606130334.822,-70.312,-22.949,-20.996,-132.324,0.000
1606130334.826,-39.551,-19.043,-23.926,-75.195,0.000
1606130334.830,19.043,-12.207,-28.809,70.801,0.000
1606130334.833,29.785,-12.207,-23.926,112.305,0.000
1606130334.837,-24.414,-22.949,-19.043,-4.395,0.000
1606130334.841,-75.195,-33.691,-24.414,-134.277,0.000
1606130334.845,-59.082,-34.180,-26.855,-106.934,0.000
1606130334.849,-9.766,-32.227,-27.344,43.945,0.000
1606130334.853,10.742,-28.320,-26.855,106.445,0.000
1606130334.857,-18.066,-29.785,-32.227,-12.207,0.000
1606130334.861,-74.707,-34.668,-34.668,-133.301,0.000
1606130334.865,-72.754,-33.691,-30.273,-118.164,0.000
1606130334.869,-3.418,-20.508,-17.090,22.461,0.000
1606130334.872,27.344,-14.160,-15.625,113.281,0.000
1606130334.876,-6.836,-20.020,-25.879,26.855,0.000
1606130334.880,-63.477,-21.973,-24.414,-114.258,0.000
1606130334.884,-64.941,-24.902,-25.879,-138.672,0.000
1606130334.888,-12.207,-20.508,-21.973,0.488,0.000
1606130334.892,20.508,-20.020,-19.531,106.445,0.000
1606130334.896,-14.160,-22.461,-24.902,40.039,0.000
1606130334.900,-76.660,-23.926,-30.273,-102.539,0.000
1606130334.904,-85.449,-28.809,-33.691,-141.113,0.000
1606130334.908,-17.090,-28.320,-21.484,-14.160,0.000
1606130334.912,33.691,-24.902,-18.555,99.609,0.000
1606130334.915,-0.977,-23.926,-21.973,53.711,0.000
1606130334.919,-63.965,-31.738,-21.484,-97.656,0.000
1606130334.923,-75.195,-34.180,-26.367,-154.297,0.000
1606130334.927,-20.508,-24.902,-24.414,-38.086,0.000
1606130334.931,21.973,-26.855,-29.297,92.773,0.000
1606130334.935,1.465,-40.527,-34.668,62.012,0.000
1606130334.939,-58.105,-37.598,-32.227,-79.102,0.000
1606130334.943,-84.473,-33.691,-34.668,-152.344,0.000
1606130334.947,-40.527,-27.344,-31.250,-65.918,0.000
1606130334.951,24.902,-21.973,-16.602,81.055,0.000
1606130334.955,27.344,-25.391,-21.973,86.914,0.000
1606130334.958,-31.738,-27.832,-36.133,-52.734,0.000
1606130334.962,-73.730,-28.320,-31.738,-146.484,0.000
1606130334.966,-24.414,-23.926,-26.855,-83.496,0.000
1606130334.970,32.715,-20.996,-20.996,65.430,0.000
1606130334.974,17.578,-17.578,-17.090,98.633,0.000
1606130334.978,-25.879,-20.020,-26.367,-24.414,0.000
1606130334.982,-73.242,-32.227,-33.203,-143.066,0.000
1606130334.986,-63.965,-32.715,-23.438,-106.934,0.000
1606130334.990,-5.371,-27.832,-16.113,51.758,0.000
1606130334.994,20.508,-26.855,-20.996,100.586,0.000
1606130334.997,-29.297,-23.438,-25.879,-20.996,0.000
1606130335.001,-79.590,-25.391,-34.668,-138.184,0.000
1606130335.005,-60.547,-27.344,-30.762,-109.375,0.000
1606130335.009,3.418,-24.414,-20.508,49.316,0.000
1606130335.013,35.156,-18.555,-19.043,122.559,0.000
1606130335.017,-11.719,-23.438,-21.973,8.789,0.000
1606130335.021,-69.824,-28.320,-24.414,-121.094,0.000
1606130335.025,-60.547,-21.484,-19.043,-100.098,0.000
1606130335.029,4.883,-24.414,-25.879,34.668,0.000
1606130335.033,36.621,-29.785,-34.668,113.281,0.000
1606130335.037,-21.484,-31.250,-37.109,25.391,0.000
1606130335.040,-76.660,-25.879,-40.527,-126.465,0.000
1606130335.044,-73.730,-24.414,-34.180,-142.578,0.000
1606130335.048,-17.090,-24.414,-27.832,-6.348,0.000
1606130335.052,26.855,-14.648,-29.297,100.586,0.000
1606130335.056,-5.859,-19.043,-31.738,41.504,0.000
1606130335.060,-74.219,-25.391,-28.809,-107.910,0.000
1606130335.064,-87.891,-22.461,-26.367,-146.484,0.000
1606130335.068,-23.926,-22.461,-23.926,-25.391,0.000
1606130335.072,25.879,-19.531,-34.668,87.891,0.000
1606130335.076,1.465,-22.461,-42.480,51.270,0.000
1606130335.080,-57.617,-32.715,-29.785,-91.797,0.000
1606130335.083,-75.195,-37.109,-24.902,-152.344,0.000
1606130335.087,-19.043,-27.832,-25.879,-54.688,0.000
1606130335.091,46.387,-13.672,-22.949,77.637,0.000
1606130335.095,23.926,-19.531,-32.227,58.105,0.000
1606130335.099,-46.875,-36.133,-39.551,-99.609,0.000
1606130335.103,-77.148,-40.039,-36.133,-177.734,0.000
1606130335.107,-43.457,-33.691,-34.668,-92.285,0.000
1606130335.111,20.020,-28.320,-32.715,50.781,0.000
1606130335.115,19.531,-27.344,-25.879,74.219,0.000
1606130335.119,-41.992,-28.809,-29.297,-50.293,0.000
1606130335.122,-78.613,-30.762,-35.645,-149.902,0.000
1606130335.126,-50.293,-37.109,-31.738,-95.703,0.000
1606130335.130,3.418,-31.738,-25.391,53.223,0.000
1606130335.134,7.812,-20.020,-22.949,94.727,0.000
1606130335.138,-40.527,-29.785,-33.203,-33.691,0.000
1606130335.142,-84.961,-34.668,-28.809,-147.949,0.000
1606130335.146,-55.176,-30.762,-20.996,-105.957,0.000
1606130335.150,10.254,-28.320,-25.879,37.109,0.000
1606130335.154,23.438,-24.414,-28.320,90.820,0.000
1606130335.158,-35.156,-30.273,-30.273,-27.344,0.000
1606130335.162,-86.914,-41.992,-33.691,-151.855,0.000
1606130335.165,-74.219,-43.945,-27.344,-130.371,0.000
1606130335.169,-11.719,-34.668,-20.508,22.461,0.000
1606130335.173,17.578,-25.391,-23.926,95.215,0.000
1606130335.177,-19.043,-31.250,-30.762,-10.254,0.000
1606130335.181,-68.848,-36.133,-27.832,-134.766,0.000
1606130335.185,-71.289,-34.668,-24.902,-130.859,0.000
1606130335.189,-11.719,-34.668,-26.367,6.348,0.000
1606130335.193,19.043,-33.691,-28.809,95.703,0.000
1606130335.197,-17.090,-26.855,-24.414,23.438,0.000
1606130335.201,-77.148,-32.715,-29.297,-123.535,0.000
1606130335.205,-95.215,-43.945,-33.691,-162.109,0.000
1606130335.208,-37.109,-35.645,-20.020,-36.133,0.000
1606130335.212,8.789,-21.484,-24.414,80.078,0.000
1606130335.216,-18.555,-27.344,-25.879,39.551,0.000
1606130335.220,-83.496,-45.410,-26.367,-122.070,0.000
1606130335.224,-92.285,-45.410,-32.715,-175.781,0.000
1606130335.228,-39.551,-39.062,-21.973,-51.758,0.000
1606130335.232,4.883,-29.297,-12.207,71.289,0.000
1606130335.236,-0.488,-25.391,-16.602,54.688,0.000
1606130335.240,-61.523,-35.156,-18.555,-90.332,0.000
1606130335.244,-69.824,-35.156,-20.996,-158.203,0.000
1606130335.247,-20.996,-33.691,-22.461,-51.270,0.000
1606130335.251,11.230,-34.668,-19.531,83.008,0.000
1606130335.255,17.578,-34.180,-16.602,82.031,0.000
1606130335.259,-30.762,-35.645,-23.438,-58.105,0.000
1606130335.263,-64.941,-40.039,-26.367,-148.926,0.000
1606130335.267,-34.668,-34.668,-20.020,-71.289,0.000
1606130335.271,21.484,-33.203,-19.531,70.801,0.000
1606130335.275,19.531,-33.691,-20.996,94.727,0.000
1606130335.279,-46.387,-35.156,-21.484,-34.668,0.000
1606130335.283,-90.332,-43.945,-26.855,-141.113,0.000
1606130335.287,-67.871,-42.480,-22.949,-95.215,0.000
1606130335.290,-7.324,-31.738,-12.695,47.363,0.000
1606130335.294,13.184,-25.391,-19.531,91.797,0.000
1606130335.298,-43.945,-35.645,-36.621,-36.621,0.000
1606130335.302,-83.984,-39.551,-38.574,-151.855,0.000
1606130335.306,-56.152,-31.250,-34.668,-113.281,0.000
1606130335.310,0.488,-30.273,-32.227,33.203,0.000
1606130335.314,21.484,-35.645,-29.785,104.492,0.000
1606130335.318,-20.508,-34.180,-31.250,-6.348,0.000
1606130335.322,-73.242,-36.621,-37.109,-149.414,0.000
1606130335.326,-65.430,-36.621,-35.645,-135.742,0.000
1606130335.330,-4.883,-28.809,-27.344,6.836,0.000
1606130335.333,22.949,-26.855,-24.414,84.961,0.000
1606130335.337,-12.695,-29.297,-18.555,16.113,0.000
1606130335.341,-64.941,-40.527,-19.531,-118.652,0.000
1606130335.345,-72.754,-42.969,-22.461,-143.066,0.000
1606130335.349,-15.137,-30.273,-24.902,-3.418,0.000
1606130335.353,25.391,-25.391,-23.926,95.215,0.000
1606130335.357,-13.184,-33.203,-28.320,21.484,0.000
1606130335.361,-77.148,-37.598,-40.527,-126.465,0.000
1606130335.365,-83.008,-30.762,-34.668,-159.668,0.000
1606130335.369,-28.809,-27.344,-23.926,-30.762,0.000
1606130335.372,14.160,-29.297,-27.832,87.891,0.000
1606130335.376,-7.812,-31.738,-36.133,50.293,0.000
1606130335.380,-71.289,-39.062,-42.969,-101.562,0.000
1606130335.384,-98.633,-43.945,-43.945,-165.039,0.000
1606130335.388,-51.758,-41.504,-36.133,-54.688,0.000
1606130335.392,5.859,-37.109,-28.320,74.707,0.000
1606130335.396,-3.418,-29.297,-34.668,57.129,0.000
1606130335.400,-66.895,-33.203,-39.551,-91.309,0.000
1606130335.404,-95.215,-41.504,-29.297,-161.621,0.000
1606130335.408,-50.293,-38.574,-26.855,-78.125,0.000
1606130335.412,6.836,-42.969,-29.785,54.688,0.000
1606130335.415,10.254,-47.363,-26.855,67.383,0.000
1606130335.419,-47.852,-33.691,-28.320,-76.660,0.000
1606130335.423,-83.984,-28.809,-35.156,-170.410,0.000
1606130335.427,-50.293,-25.879,-33.691,-91.309,0.000
1606130335.431,10.254,-24.902,-29.785,46.875,0.000
1606130335.435,23.926,-20.508,-26.855,79.102,0.000
1606130335.439,-29.785,-23.926,-26.855,-41.992,0.000
1606130335.443,-65.430,-35.156,-28.320,-146.973,0.000
1606130335.447,-31.250,-28.809,-29.297,-93.750,0.000
1606130335.451,8.789,-41.016,-26.855,45.410,0.000
1606130335.455,24.414,-48.828,-21.973,94.238,0.000
1606130335.458,-23.438,-35.645,-24.902,-14.648,0.000
1606130335.462,-79.590,-33.203,-30.762,-141.602,0.000
1606130335.466,-65.430,-29.297,-23.438,-119.141,0.000
1606130335.470,-4.395,-28.809,-22.461,35.645,0.000
1606130335.474,25.879,-21.484,-28.320,106.934,0.000
1606130335.478,-13.672,-23.926,-28.320,9.277,0.000
1606130335.482,-69.336,-35.645,-31.250,-118.652,0.000
1606130335.486,-64.453,-34.180,-31.250,-113.770,0.000
1606130335.490,-8.301,-32.227,-27.832,30.762,0.000
1606130335.494,26.367,-34.668,-24.414,113.770,0.000
1606130335.497,-12.207,-30.273,-28.809,24.902,0.000
1606130335.501,-68.359,-34.180,-34.668,-119.141,0.000
1606130335.505,-71.289,-32.715,-34.180,-136.719,0.000
1606130335.509,-21.484,-30.762,-34.180,-17.578,0.000
1606130335.513,27.832,-31.250,-25.879,86.914,0.000
1606130335.517,8.789,-26.367,-20.508,51.270,0.000
1606130335.521,-59.570,-31.250,-31.250,-98.145,0.000
1606130335.525,-78.613,-33.203,-40.527,-148.926,0.000
1606130335.529,-17.578,-33.203,-37.598,-29.297,0.000
1606130335.533,25.391,-28.809,-32.715,83.008,0.000
1606130335.537,-4.883,-21.973,-36.133,48.340,0.000
1606130335.540,-64.941,-31.738,-38.574,-98.633,0.000
1606130335.544,-86.914,-37.109,-35.645,-166.992,0.000
1606130335.548,-45.898,-34.668,-29.297,-60.547,0.000
1606130335.552,5.859,-34.668,-25.879,73.730,0.000
1606130335.556,4.395,-35.156,-25.879,67.383,0.000
1606130335.560,-55.176,-34.668,-29.297,-72.266,0.000
1606130335.564,-84.473,-36.133,-31.738,-151.367,0.000
1606130335.568,-46.875,-34.668,-29.297,-75.195,0.000
1606130335.572,16.113,-26.855,-25.391,63.477,0.000
1606130335.576,28.809,-19.531,-24.902,81.055,0.000
1606130335.580,-33.203,-25.391,-28.320,-49.805,0.000
1606130335.583,-81.543,-22.949,-34.180,-145.020,0.000
1606130335.587,-57.129,-8.789,-35.156,-84.961,0.000
1606130335.591,5.371,-22.949,-30.762,62.988,0.000
1606130335.595,25.879,-39.062,-27.344,91.797,0.000
1606130335.599,-27.832,-28.809,-27.344,-38.574,0.000
1606130335.603,-70.801,-23.438,-32.227,-136.719,0.000
1606130335.607,-48.340,-20.996,-30.273,-93.262,0.000
1606130335.611,12.207,-20.508,-22.461,46.387,0.000
1606130335.615,30.273,-23.926,-20.508,99.121,0.000
1606130335.619,-17.578,-25.879,-21.973,-4.883,0.000
1606130335.622,-76.172,-26.855,-18.066,-118.652,0.000
1606130335.626,-68.359,-22.461,-26.367,-114.746,0.000
1606130335.630,-1.465,-21.484,-35.156,21.484,0.000
1606130335.634,24.902,-30.273,-27.344,99.609,0.000
1606130335.638,-22.949,-33.691,-32.227,7.812,0.000
1606130335.642,-76.172,-32.715,-37.598,-115.723,0.000
1606130335.646,-68.359,-29.297,-22.461,-116.699,0.000
1606130335.650,-5.859,-18.555,-18.066,17.578,0.000
1606130335.654,29.785,-18.066,-25.391,104.492,0.000
1606130335.658,-8.301,-29.297,-26.367,23.926,0.000
1606130335.662,-68.359,-37.598,-30.273,-125.000,0.000
1606130335.665,-75.195,-34.180,-35.645,-154.297,0.000
1606130335.669,-13.184,-27.832,-33.203,-20.508,0.000
1606130335.673,23.926,-28.809,-30.762,84.473,0.000
1606130335.677,-7.324,-31.250,-38.086,37.598,0.000
1606130335.681,-62.988,-30.273,-41.016,-89.355,0.000
1606130335.685,-77.148,-31.738,-37.598,-143.066,0.000
1606130335.689,-28.809,-38.574,-33.203,-35.645,0.000
1606130335.693,21.484,-46.875,-26.855,88.867,0.000
1606130335.697,11.230,-39.551,-31.738,65.430,0.000
1606130335.701,-55.664,-31.250,-34.668,-82.031,0.000
1606130335.705,-87.891,-33.691,-33.203,-158.203,0.000
1606130335.708,-37.598,-32.227,-30.273,-63.965,0.000
1606130335.712,23.438,-29.297,-22.949,83.496,0.000
1606130335.716,18.066,-28.809,-25.879,84.473,0.000
1606130335.720,-39.062,-29.785,-30.762,-64.453,0.000
1606130335.724,-72.266,-31.738,-30.762,-164.551,0.000
1606130335.728,-42.969,-29.297,-29.297,-92.773,0.000
1606130335.732,16.602,-34.180,-23.438,46.875,0.000
1606130335.736,24.902,-33.691,-19.531,65.430,0.000
1606130335.740,-42.969,-19.531,-15.625,-63.477,0.000
1606130335.744,-104.980,-23.438,-9.766,-174.805,0.000
1606130335.747,-94.238,-23.438,-3.906,-130.859,0.000
1606130335.751,-42.969,-15.625,-2.441,-0.977,0.000
1606130335.755,-36.133,-20.996,-1.953,27.832,0.000
1606130335.759,-113.770,-30.273,-2.441,-106.445,0.000
1606130335.763,-187.988,-30.762,2.441,-246.094,0.000
1606130335.767,-184.082,-31.738,13.672,-216.309,0.000
1606130335.771,-136.230,-25.879,19.531,-81.055,0.000
1606130335.775,-115.234,-22.949,24.414,-30.273,0.000
