timestamps,TP9,AF7,AF8,TP10,Right AUX
1606134441.394,-0.488,0.000,0.000,-0.488,0.000
1606134441.398,-0.488,0.000,-0.488,-1.465,0.000
1606134441.402,3.418,-0.977,-0.488,17.090,0.000
1606134441.406,-9.766,0.977,0.488,-39.551,0.000
1606134441.410,35.645,-7.324,-6.836,159.668,0.000
1606134441.414,88.379,-16.602,-17.090,439.941,0.000
1606134441.418,-13.672,-23.438,-19.531,100.586,0.000
1606134441.422,-145.020,-30.273,-29.297,-406.250,0.000
1606134441.425,-132.812,-27.344,-35.156,-407.227,0.000
1606134441.429,14.160,-21.484,-25.879,116.211,0.000
1606134441.433,97.168,-11.719,-18.555,440.430,0.000
1606134441.437,7.812,-14.160,-22.461,150.391,0.000
1606134441.441,-135.254,-23.438,-31.250,-368.164,0.000
1606134441.445,-140.625,-26.367,-28.809,-439.941,0.000
1606134441.449,3.418,-17.090,-15.137,56.641,0.000
1606134441.453,94.727,-6.348,-7.812,423.828,0.000
1606134441.457,12.207,-11.230,-9.277,202.148,0.000
1606134441.461,-124.023,-24.414,-29.785,-308.105,0.000
1606134441.465,-143.555,-31.250,-46.387,-430.664,0.000
1606134441.468,-20.020,-27.344,-32.715,-11.719,0.000
1606134441.472,83.496,-20.020,-13.672,375.000,0.000
1606134441.476,31.738,-23.926,-21.484,234.375,0.000
1606134441.480,-107.910,-35.645,-37.109,-277.344,0.000
1606134441.484,-150.391,-34.180,-39.551,-463.379,0.000
1606134441.488,-40.039,-26.367,-25.391,-86.426,0.000
1606134441.492,81.055,-12.207,-6.348,351.074,0.000
1606134441.496,50.781,-7.812,-16.602,287.598,0.000
1606134441.500,-91.797,-22.949,-33.691,-223.633,0.000
1606134441.504,-143.066,-21.973,-36.621,-476.562,0.000
1606134441.507,-45.898,-10.742,-36.133,-149.414,0.000
1606134441.511,75.195,-10.254,-34.668,329.590,0.000
1606134441.515,56.641,-31.250,-38.086,329.590,0.000
1606134441.519,-81.055,-37.109,-29.785,-176.270,0.000
1606134441.523,-150.879,-28.320,-23.438,-488.770,0.000
1606134441.527,-79.102,-25.391,-37.109,-232.910,0.000
1606134441.531,52.246,-20.996,-28.320,264.160,0.000
1606134441.535,61.035,-18.555,-17.578,356.445,0.000
1606134441.539,-74.219,-25.879,-33.691,-107.422,0.000
1606134441.543,-160.156,-31.738,-34.668,-473.633,0.000
1606134441.547,-95.215,-31.250,-33.203,-284.180,0.000
1606134441.550,36.621,-22.461,-31.738,221.191,0.000
1606134441.554,62.500,-14.160,-14.648,381.348,0.000
1606134441.558,-57.617,-26.367,-24.414,-26.367,0.000
1606134441.562,-169.434,-40.039,-43.945,-457.031,0.000
1606134441.566,-130.859,-33.203,-35.645,-346.680,0.000
1606134441.570,11.719,-23.438,-16.113,181.641,0.000
1606134441.574,60.547,-23.438,-10.742,399.902,0.000
1606134441.578,-46.387,-35.645,-25.879,28.809,0.000
1606134441.582,-153.320,-38.086,-35.156,-419.434,0.000
1606134441.586,-113.281,-26.855,-17.578,-360.840,0.000
1606134441.590,31.738,-16.113,-6.348,151.855,0.000
1606134441.593,88.379,-20.508,-24.414,415.039,0.000
1606134441.597,-10.742,-31.250,-31.738,103.027,0.000
1606134441.601,-134.277,-34.180,-32.227,-371.094,0.000
1606134441.605,-123.535,-26.855,-28.320,-392.090,0.000
1606134441.609,13.672,-3.906,-12.695,96.680,0.000
1606134441.613,90.820,6.348,-14.648,417.969,0.000
1606134441.617,16.113,-10.742,-23.926,172.363,0.000
1606134441.621,-116.211,-23.438,-25.879,-324.219,0.000
1606134441.625,-131.836,-23.438,-32.715,-428.223,0.000
1606134441.629,-3.906,-16.113,-24.902,21.484,0.000
1606134441.632,89.844,-9.277,-13.184,410.645,0.000
1606134441.636,31.738,-14.648,-24.902,240.234,0.000
1606134441.640,-105.957,-25.391,-39.062,-285.645,0.000
1606134441.644,-139.648,-29.785,-37.598,-453.125,0.000
1606134441.648,-22.461,-21.973,-30.273,-47.363,0.000
1606134441.652,90.820,-6.836,-18.066,380.859,0.000
1606134441.656,49.316,-12.695,-18.066,283.691,0.000
1606134441.660,-104.492,-16.602,-39.551,-253.906,0.000
1606134441.664,-163.574,-22.949,-50.293,-502.441,0.000
1606134441.668,-52.246,-24.902,-42.969,-139.648,0.000
1606134441.672,74.219,-18.066,-27.344,351.074,0.000
1606134441.675,41.992,-32.715,-20.020,332.520,0.000
1606134441.679,-108.887,-45.410,-29.297,-195.312,0.000
1606134441.683,-180.664,-36.133,-33.203,-512.695,0.000
1606134441.687,-96.680,-25.879,-28.809,-241.699,0.000
1606134441.691,46.387,-19.531,-11.230,288.086,0.000
1606134441.695,51.270,-19.043,-15.625,345.703,0.000
1606134441.699,-84.961,-20.508,-26.855,-147.461,0.000
1606134441.703,-166.016,-19.043,-24.902,-485.352,0.000
1606134441.707,-95.215,-23.926,-31.738,-273.926,0.000
1606134441.711,52.246,-8.301,-31.250,262.207,0.000
1606134441.715,78.613,-2.441,-16.602,407.715,0.000
1606134441.718,-54.688,-25.879,-19.531,-51.270,0.000
1606134441.722,-161.133,-35.156,-32.227,-483.398,0.000
1606134441.726,-115.234,-36.133,-33.203,-348.145,0.000
1606134441.730,29.785,-30.273,-33.203,200.684,0.000
1606134441.734,82.520,-21.484,-32.715,426.270,0.000
1606134441.738,-29.785,-26.855,-35.156,29.297,0.000
1606134441.742,-152.344,-33.691,-30.762,-446.289,0.000
1606134441.746,-122.070,-25.879,-30.762,-373.535,0.000
1606134441.750,29.785,-18.555,-30.762,174.316,0.000
1606134441.754,96.191,-19.043,-19.043,452.637,0.000
1606134441.757,-0.977,-13.672,-19.043,126.465,0.000
1606134441.761,-136.230,-11.230,-32.715,-374.512,0.000
1606134441.765,-129.883,-22.461,-32.227,-407.227,0.000
1606134441.769,17.090,-24.902,-22.461,104.492,0.000
1606134441.773,98.633,-22.461,-17.578,449.707,0.000
1606134441.777,12.695,-22.461,-19.531,181.641,0.000
1606134441.781,-135.254,-30.273,-31.250,-361.816,0.000
1606134441.785,-153.809,-32.715,-38.086,-466.797,0.000
1606134441.789,-11.230,-24.414,-26.367,26.855,0.000
1606134441.793,103.516,-12.207,-12.207,451.172,0.000
1606134441.797,37.598,-16.602,-23.438,250.977,0.000
1606134441.800,-119.629,-34.180,-41.016,-320.312,0.000
1606134441.804,-150.391,-29.785,-36.621,-493.164,0.000
1606134441.808,-15.625,-14.648,-30.273,-39.551,0.000
1606134441.812,91.797,-16.602,-31.738,389.160,0.000
1606134441.816,41.992,-22.949,-37.109,264.160,0.000
1606134441.820,-108.398,-11.719,-45.898,-268.555,0.000
1606134441.824,-162.109,-12.207,-43.945,-512.207,0.000
1606134441.828,-45.410,-28.809,-35.156,-129.395,0.000
1606134441.832,86.426,-17.578,-27.832,360.840,0.000
1606134441.836,64.941,-15.625,-22.461,336.914,0.000
1606134441.840,-87.402,-17.578,-27.832,-202.637,0.000
1606134441.843,-162.109,-21.973,-37.598,-522.949,0.000
1606134441.847,-68.359,-32.715,-36.133,-215.332,0.000
1606134441.851,79.590,-23.438,-26.855,308.594,0.000
1606134441.855,90.332,-17.578,-16.602,368.164,0.000
1606134441.859,-54.688,-30.273,-34.668,-134.277,0.000
1606134441.863,-149.902,-41.504,-52.246,-492.188,0.000
1606134441.867,-75.195,-35.645,-32.715,-250.000,0.000
1606134441.871,67.871,-27.832,-26.367,276.855,0.000
1606134441.875,85.938,-24.414,-31.250,385.254,0.000
1606134441.879,-44.922,-32.227,-28.320,-65.918,0.000
1606134441.882,-144.531,-40.039,-37.109,-455.566,0.000
1606134441.886,-91.309,-30.762,-28.809,-296.875,0.000
1606134441.890,45.410,-16.113,-14.160,216.797,0.000
1606134441.894,80.566,-18.555,-22.461,388.184,0.000
1606134441.898,-39.062,-23.438,-32.227,-14.648,0.000
1606134441.902,-148.438,-13.184,-41.016,-445.312,0.000
1606134441.906,-107.422,-22.949,-36.133,-351.074,0.000
1606134441.910,33.203,-28.320,-18.555,175.293,0.000
1606134441.914,86.914,-17.090,-17.090,417.969,0.000
1606134441.918,-13.672,-26.855,-25.879,73.242,0.000
1606134441.922,-140.625,-39.062,-35.156,-402.344,0.000
1606134441.925,-131.348,-36.621,-41.504,-401.855,0.000
1606134441.929,11.230,-29.785,-34.668,121.094,0.000
1606134441.933,95.215,-24.414,-20.996,443.848,0.000
1606134441.937,11.719,-30.762,-18.555,158.691,0.000
1606134441.941,-125.488,-43.457,-36.133,-354.492,0.000
1606134441.945,-124.023,-44.434,-31.738,-417.480,0.000
1606134441.949,18.066,-28.809,-20.996,82.520,0.000
1606134441.953,110.840,-26.367,-20.996,444.336,0.000
1606134441.957,45.410,-32.227,-21.484,224.609,0.000
1606134441.961,-90.332,-36.133,-24.414,-286.621,0.000
1606134441.965,-112.305,-38.086,-23.438,-412.109,0.000
1606134441.968,3.418,-36.621,-25.391,17.090,0.000
1606134441.972,100.586,-29.297,-19.043,413.086,0.000
1606134441.976,58.594,-27.344,-16.113,283.691,0.000
1606134441.980,-73.730,-9.277,-21.484,-222.168,0.000
1606134441.984,-120.605,-1.953,-26.367,-427.734,0.000
1606134441.988,-22.949,-25.879,-32.715,-61.523,0.000
1606134441.992,87.402,-22.461,-26.855,375.000,0.000
1606134441.996,61.035,-20.996,-26.367,315.918,0.000
1606134442.000,-83.008,-35.645,-34.180,-202.148,0.000
1606134442.004,-147.949,-40.527,-34.180,-464.355,0.000
1606134442.007,-56.641,-31.250,-24.414,-138.184,0.000
1606134442.011,61.035,-24.414,-15.625,330.078,0.000
1606134442.015,52.734,-26.367,-21.484,332.031,0.000
1606134442.019,-86.914,-32.227,-28.320,-166.992,0.000
1606134442.023,-165.527,-37.109,-24.902,-483.398,0.000
1606134442.027,-76.660,-30.273,-20.020,-209.961,0.000
1606134442.031,55.176,-25.879,-28.809,285.156,0.000
1606134442.035,68.359,-33.203,-30.762,356.934,0.000
1606134442.039,-54.688,-29.297,-30.762,-95.703,0.000
1606134442.043,-142.090,-24.902,-29.785,-455.566,0.000
1606134442.047,-71.289,-29.297,-33.691,-262.695,0.000
1606134442.050,69.824,-23.926,-32.227,246.582,0.000
1606134442.054,94.238,-18.066,-18.555,396.973,0.000
1606134442.058,-29.785,-24.902,-25.391,-18.066,0.000
1606134442.062,-135.742,-39.062,-38.574,-436.523,0.000
1606134442.066,-90.332,-39.551,-25.879,-319.824,0.000
1606134442.070,46.387,-27.344,-12.695,194.824,0.000
1606134442.074,90.820,-19.043,-26.855,410.156,0.000
1606134442.078,-15.625,-26.367,-30.273,45.898,0.000
1606134442.082,-142.578,-34.180,-41.504,-423.828,0.000
1606134442.086,-130.371,-35.645,-41.016,-387.695,0.000
1606134442.090,14.160,-25.391,-19.043,139.160,0.000
1606134442.093,81.543,-22.461,-14.160,420.410,0.000
1606134442.097,-20.020,-36.133,-33.203,103.516,0.000
1606134442.101,-154.297,-47.363,-49.805,-395.508,0.000
1606134442.105,-147.949,-44.434,-45.410,-430.664,0.000
1606134442.109,-1.465,-28.320,-34.180,77.637,0.000
1606134442.113,87.402,-23.926,-23.926,436.523,0.000
1606134442.117,11.230,-30.762,-20.996,202.637,0.000
1606134442.121,-137.207,-36.621,-28.809,-328.125,0.000
1606134442.125,-167.480,-41.992,-34.668,-463.379,0.000
1606134442.129,-35.156,-43.457,-27.832,-5.371,0.000
1606134442.132,73.730,-36.133,-22.461,401.367,0.000
1606134442.136,17.090,-34.180,-27.832,244.141,0.000
1606134442.140,-132.324,-49.805,-37.109,-291.992,0.000
1606134442.144,-169.922,-50.293,-27.832,-482.422,0.000
1606134442.148,-52.734,-38.086,-18.066,-74.707,0.000
1606134442.152,62.988,-29.785,-25.879,377.441,0.000
1606134442.156,29.785,-30.762,-27.832,290.039,0.000
1606134442.160,-109.375,-39.062,-27.344,-250.000,0.000
1606134442.164,-159.180,-42.969,-31.250,-493.652,0.000
1606134442.168,-51.270,-36.621,-28.809,-129.883,0.000
1606134442.172,80.566,-25.391,-28.320,358.398,0.000
1606134442.175,67.383,-30.273,-28.320,346.680,0.000
1606134442.179,-81.543,-25.879,-28.809,-187.012,0.000
1606134442.183,-158.203,-16.113,-38.086,-507.324,0.000
1606134442.187,-68.359,-30.273,-25.879,-208.984,0.000
1606134442.191,65.918,-33.691,-20.508,313.965,0.000
1606134442.195,75.195,-29.785,-27.344,380.859,0.000
1606134442.199,-62.500,-33.691,-28.809,-109.863,0.000
1606134442.203,-165.527,-42.480,-31.250,-493.164,0.000
1606134442.207,-98.145,-40.527,-32.227,-280.762,0.000
1606134442.211,58.105,-21.973,-18.555,273.438,0.000
1606134442.215,91.309,-15.625,-13.672,425.781,0.000
1606134442.218,-47.363,-29.785,-33.203,-41.016,0.000
1606134442.222,-163.574,-34.668,-34.180,-475.098,0.000
1606134442.226,-112.793,-32.715,-34.180,-336.426,0.000
1606134442.230,40.527,-21.973,-37.109,217.773,0.000
1606134442.234,88.379,-23.926,-23.438,431.152,0.000
1606134442.238,-32.715,-38.086,-25.879,17.090,0.000
1606134442.242,-156.250,-43.457,-39.551,-458.496,0.000
1606134442.246,-124.023,-43.945,-38.086,-394.531,0.000
1606134442.250,29.297,-33.691,-30.762,157.715,0.000
1606134442.254,95.215,-31.250,-22.949,434.082,0.000
1606134442.257,-11.230,-38.086,-26.855,94.238,0.000
1606134442.261,-144.043,-33.203,-42.480,-403.809,0.000
1606134442.265,-131.836,-29.785,-41.504,-428.711,0.000
1606134442.269,12.207,-32.227,-36.133,83.496,0.000
1606134442.273,94.727,-23.926,-35.156,421.387,0.000
1606134442.277,13.672,-19.043,-26.855,162.109,0.000
1606134442.281,-132.812,-35.645,-30.273,-367.676,0.000
1606134442.285,-154.297,-43.457,-34.180,-468.750,0.000
1606134442.289,-9.766,-31.738,-26.367,25.879,0.000
1606134442.293,99.609,-25.879,-20.508,425.781,0.000
1606134442.297,32.715,-30.273,-22.949,225.098,0.000
1606134442.300,-117.676,-34.180,-22.949,-325.195,0.000
1606134442.304,-145.996,-32.227,-23.926,-487.793,0.000
1606134442.308,-12.207,-26.855,-16.113,-36.133,0.000
1606134442.312,104.492,-19.531,-6.348,410.645,0.000
1606134442.316,65.430,-19.531,-10.742,296.875,0.000
1606134442.320,-83.008,-28.320,-17.578,-251.953,0.000
1606134442.324,-145.508,-31.738,-29.297,-494.141,0.000
1606134442.328,-35.156,-23.926,-25.879,-113.770,0.000
1606134442.332,97.168,-12.695,-15.625,357.910,0.000
1606134442.336,70.801,-15.137,-21.484,313.965,0.000
1606134442.340,-79.102,-30.273,-29.297,-196.777,0.000
1606134442.343,-149.414,-40.527,-32.227,-471.680,0.000
1606134442.347,-54.688,-30.762,-25.879,-163.086,0.000
1606134442.351,75.195,-19.043,-13.184,327.637,0.000
1606134442.355,67.383,-22.949,-10.254,366.699,0.000
1606134442.359,-74.219,-35.645,-23.926,-128.418,0.000
1606134442.363,-163.574,-50.781,-36.133,-482.422,0.000
1606134442.367,-84.473,-47.363,-30.273,-250.488,0.000
1606134442.371,55.176,-30.762,-27.832,259.277,0.000
1606134442.375,82.520,-25.879,-30.273,374.023,0.000
1606134442.379,-39.551,-29.785,-30.762,-71.777,0.000
1606134442.382,-152.344,-35.156,-27.344,-474.609,0.000
1606134442.386,-117.188,-33.691,-16.602,-329.590,0.000
1606134442.390,25.879,-22.949,-3.418,194.824,0.000
1606134442.394,64.941,-21.973,-15.625,365.723,0.000
1606134442.398,-61.523,-30.762,-31.250,-46.387,0.000
1606134442.402,-167.969,-33.691,-31.250,-481.445,0.000
1606134442.406,-125.000,-36.621,-23.438,-394.043,0.000
1606134442.410,19.043,-29.785,-8.789,149.902,0.000
1606134442.414,80.566,-28.809,-5.371,404.785,0.000
1606134442.418,-21.973,-36.621,-19.531,52.246,0.000
1606134442.422,-150.391,-41.504,-33.203,-430.176,0.000
1606134442.425,-132.324,-38.086,-30.273,-419.434,0.000
1606134442.429,10.742,-33.203,-17.090,100.098,0.000
1606134442.433,94.238,-23.926,-19.531,421.387,0.000
1606134442.437,10.742,-26.855,-24.414,141.113,0.000
1606134442.441,-125.000,-41.504,-31.250,-377.930,0.000
1606134442.445,-129.395,-39.551,-32.227,-444.336,0.000
1606134442.449,12.207,-29.785,-29.297,59.570,0.000
1606134442.453,110.352,-21.973,-19.531,440.918,0.000
1606134442.457,29.297,-33.203,-19.043,214.844,0.000
1606134442.461,-128.906,-38.574,-42.480,-331.543,0.000
1606134442.465,-156.250,-27.832,-37.109,-466.797,0.000
1606134442.468,-23.926,-28.809,-22.461,-14.160,0.000
1606134442.472,83.496,-28.320,-20.020,411.621,0.000
1606134442.476,30.273,-30.273,-18.555,275.391,0.000
1606134442.480,-121.094,-37.109,-27.832,-268.555,0.000
1606134442.484,-169.922,-42.969,-33.203,-485.840,0.000
1606134442.488,-58.105,-39.062,-19.531,-89.355,0.000
1606134442.492,65.918,-33.691,-10.254,389.160,0.000
1606134442.496,41.504,-45.410,-24.414,328.613,0.000
1606134442.500,-109.375,-43.945,-37.598,-224.121,0.000
1606134442.504,-183.594,-39.062,-41.016,-513.184,0.000
1606134442.507,-86.914,-42.969,-29.297,-174.805,0.000
1606134442.511,53.711,-35.645,-29.785,336.914,0.000
1606134442.515,57.129,-28.809,-30.273,369.141,0.000
1606134442.519,-87.891,-33.691,-30.273,-145.996,0.000
1606134442.523,-178.223,-45.410,-39.551,-500.488,0.000
1606134442.527,-86.914,-34.180,-28.320,-230.957,0.000
1606134442.531,59.082,-18.555,-17.578,303.711,0.000
1606134442.535,71.777,-25.879,-21.484,399.414,0.000
1606134442.539,-55.176,-12.695,-24.414,-79.102,0.000
1606134442.543,-146.484,-8.301,-29.785,-472.656,0.000
1606134442.547,-83.008,-28.320,-31.738,-289.062,0.000
1606134442.550,65.918,-20.996,-20.996,250.977,0.000
1606134442.554,101.562,-21.973,-24.414,424.316,0.000
1606134442.558,-30.273,-18.555,-30.762,-6.348,0.000
1606134442.562,-152.344,-15.625,-37.109,-464.844,0.000
1606134442.566,-109.375,-37.598,-35.645,-358.887,0.000
1606134442.570,41.504,-40.527,-23.438,200.195,0.000
1606134442.574,97.656,-32.227,-21.973,443.848,0.000
1606134442.578,-10.742,-31.738,-23.926,65.918,0.000
1606134442.582,-140.137,-31.250,-18.555,-416.016,0.000
1606134442.586,-125.000,-33.691,-30.762,-387.695,0.000
1606134442.590,18.066,-32.227,-31.738,143.066,0.000
1606134442.593,91.797,-33.691,-18.555,442.871,0.000
1606134442.597,-0.977,-34.180,-25.879,123.535,0.000
1606134442.601,-142.090,-32.715,-35.156,-397.949,0.000
1606134442.605,-141.113,-31.250,-24.902,-442.383,0.000
1606134442.609,2.930,-21.484,-17.090,66.895,0.000
1606134442.613,94.238,-18.555,-21.484,428.711,0.000
1606134442.617,20.996,-30.762,-20.996,182.129,0.000
1606134442.621,-130.371,-39.062,-26.855,-360.840,0.000
1606134442.625,-158.691,-37.109,-39.062,-483.887,0.000
1606134442.629,-22.461,-29.785,-31.250,-16.113,0.000
1606134442.632,87.891,-23.926,-20.020,412.109,0.000
1606134442.636,32.715,-27.832,-25.391,248.535,0.000
1606134442.640,-117.188,-38.574,-32.227,-312.012,0.000
1606134442.644,-153.320,-42.969,-32.715,-512.207,0.000
1606134442.648,-29.297,-31.250,-37.109,-102.539,0.000
1606134442.652,92.773,-24.414,-29.297,367.676,0.000
1606134442.656,61.035,-21.484,-22.461,297.363,0.000
1606134442.660,-91.309,-24.414,-37.598,-252.441,0.000
1606134442.664,-157.227,-31.738,-39.062,-522.949,0.000
1606134442.668,-50.293,-24.414,-29.785,-149.414,0.000
1606134442.672,83.984,-16.602,-26.367,362.793,0.000
1606134442.675,69.336,-22.949,-28.320,352.051,0.000
1606134442.679,-79.102,-34.180,-32.227,-182.129,0.000
1606134442.683,-158.691,-35.156,-39.062,-503.906,0.000
1606134442.687,-73.730,-28.809,-43.457,-208.008,0.000
1606134442.691,75.195,-12.695,-29.785,333.496,0.000
1606134442.695,88.379,-12.695,-18.066,416.992,0.000
1606134442.699,-68.359,-25.391,-24.414,-89.355,0.000
1606134442.703,-175.781,-36.621,-26.855,-479.980,0.000
1606134442.707,-102.051,-46.875,-18.555,-260.742,0.000
1606134442.711,50.781,-37.598,-16.602,287.109,0.000
1606134442.715,76.660,-31.738,-25.391,431.641,0.000
1606134442.718,-63.477,-40.527,-31.250,-33.203,0.000
1606134442.722,-175.781,-50.293,-30.273,-482.422,0.000
1606134442.726,-120.117,-40.039,-24.902,-336.426,0.000
1606134442.730,35.645,-27.832,-22.949,236.328,0.000
1606134442.734,95.215,-28.320,-22.461,455.566,0.000
1606134442.738,-17.090,-39.062,-22.461,45.898,0.000
1606134442.742,-142.578,-36.621,-20.508,-435.547,0.000
1606134442.746,-114.746,-35.156,-18.066,-373.535,0.000
1606134442.750,33.691,-34.180,-16.602,173.828,0.000
1606134442.754,100.098,-30.273,-15.137,457.520,0.000
1606134442.757,1.465,-30.762,-15.625,118.164,0.000
1606134442.761,-131.836,-34.180,-22.461,-398.926,0.000
1606134442.765,-121.582,-31.738,-30.762,-425.293,0.000
1606134442.769,22.949,-22.949,-22.949,94.238,0.000
1606134442.773,101.562,-21.484,-27.832,442.871,0.000
1606134442.777,23.926,-25.391,-26.367,187.988,0.000
1606134442.781,-121.582,-31.738,-27.344,-362.793,0.000
1606134442.785,-148.926,-42.480,-48.340,-474.121,0.000
1606134442.789,-0.977,-35.645,-42.480,28.320,0.000
1606134442.793,115.234,-26.367,-30.273,442.383,0.000
1606134442.797,55.176,-26.367,-31.738,259.766,0.000
1606134442.800,-95.215,-25.391,-38.086,-286.621,0.000
1606134442.804,-132.324,-29.785,-36.133,-459.961,0.000
1606134442.808,-0.488,-23.438,-16.113,-8.301,0.000
1606134442.812,115.723,-22.949,-19.531,441.406,0.000
1606134442.816,70.312,-32.715,-33.203,315.918,0.000
1606134442.820,-79.102,-29.297,-27.832,-230.469,0.000
1606134442.824,-133.789,-28.320,-33.203,-469.238,0.000
1606134442.828,-26.367,-26.855,-30.762,-92.773,0.000
1606134442.832,97.168,-24.414,-24.902,388.672,0.000
1606134442.836,72.266,-32.227,-23.926,346.191,0.000
1606134442.840,-77.148,-34.668,-30.273,-188.477,0.000
1606134442.843,-154.785,-44.922,-40.039,-493.164,0.000
1606134442.847,-60.547,-42.480,-28.809,-179.199,0.000
1606134442.851,79.590,-26.855,-35.156,328.125,0.000
1606134442.855,76.172,-29.297,-43.945,369.141,0.000
1606134442.859,-65.918,-36.133,-25.391,-129.883,0.000
1606134442.863,-158.203,-41.992,-25.879,-492.188,0.000
1606134442.867,-83.008,-39.551,-34.180,-244.141,0.000
1606134442.871,64.453,-34.180,-30.273,285.645,0.000
1606134442.875,86.914,-33.691,-26.367,387.695,0.000
1606134442.879,-44.922,-28.809,-33.203,-72.754,0.000
1606134442.882,-147.949,-20.996,-36.133,-477.539,0.000
1606134442.886,-85.938,-21.973,-31.738,-297.363,0.000
1606134442.890,61.523,-26.367,-21.973,240.234,0.000
1606134442.894,96.191,-33.203,-26.367,419.922,0.000
1606134442.898,-30.273,-39.551,-38.574,13.184,0.000
1606134442.902,-150.879,-42.969,-34.668,-426.270,0.000
1606134442.906,-113.770,-41.992,-36.133,-344.238,0.000
1606134442.910,29.297,-36.133,-35.645,174.805,0.000
1606134442.914,87.402,-24.902,-23.926,431.641,0.000
1606134442.918,-3.906,-21.973,-24.414,88.867,0.000
1606134442.922,-129.883,-35.645,-28.320,-397.461,0.000
1606134442.925,-118.164,-40.039,-22.949,-394.043,0.000
1606134442.929,24.414,-33.203,-29.297,107.910,0.000
1606134442.933,94.238,-24.414,-35.645,406.250,0.000
1606134442.937,11.719,-24.902,-30.273,141.113,0.000
1606134442.941,-119.141,-32.715,-33.203,-340.820,0.000
1606134442.945,-133.301,-32.715,-35.156,-410.156,0.000
1606134442.949,-6.348,-21.484,-23.438,50.781,0.000
1606134442.953,74.707,-15.137,-20.508,377.930,0.000
1606134442.957,-1.953,-24.902,-23.438,150.879,0.000
1606134442.961,-132.812,-29.785,-33.203,-323.242,0.000
1606134442.965,-150.879,-29.297,-37.598,-427.246,0.000
1606134442.968,-35.156,-25.391,-23.438,-22.461,0.000
1606134442.972,60.547,-22.461,-9.277,345.215,0.000
1606134442.976,4.395,-30.273,-22.461,199.707,0.000
1606134442.980,-129.395,-39.551,-43.457,-291.992,0.000
1606134442.984,-162.109,-42.969,-37.598,-467.773,0.000
1606134442.988,-49.805,-37.109,-27.344,-91.309,0.000
1606134442.992,63.965,-28.320,-25.391,339.844,0.000
1606134442.996,34.668,-25.879,-22.949,274.414,0.000
1606134443.000,-93.262,-25.879,-23.926,-218.750,0.000
1606134443.004,-147.461,-26.855,-25.879,-468.262,0.000
1606134443.007,-50.781,-26.855,-21.484,-116.211,0.000
1606134443.011,71.289,-17.090,-14.160,362.305,0.000
1606134443.015,53.223,-26.855,-15.137,323.242,0.000
1606134443.019,-77.148,-22.949,-15.137,-160.645,0.000
1606134443.023,-151.367,-3.906,-24.902,-461.426,0.000
1606134443.027,-67.871,-21.973,-37.598,-209.961,0.000
1606134443.031,51.270,-21.973,-30.273,261.230,0.000
1606134443.035,42.480,-19.043,-23.926,331.543,0.000
1606134443.039,-90.332,-34.668,-31.738,-117.676,0.000
1606134443.043,-179.688,-40.527,-33.691,-472.656,0.000
1606134443.047,-104.980,-37.109,-30.762,-279.785,0.000
1606134443.050,41.016,-28.320,-27.832,229.980,0.000
1606134443.054,64.941,-29.785,-25.879,377.441,0.000
1606134443.058,-57.617,-37.109,-33.691,-35.645,0.000
1606134443.062,-155.762,-40.039,-24.902,-439.453,0.000
1606134443.066,-115.234,-45.898,-23.926,-334.961,0.000
1606134443.070,13.672,-41.504,-36.621,160.156,0.000
1606134443.074,55.664,-38.574,-35.645,367.676,0.000
1606134443.078,-39.062,-38.086,-36.133,21.973,0.000
1606134443.082,-146.484,-44.922,-25.879,-406.738,0.000
1606134443.086,-128.418,-49.316,-29.297,-371.094,0.000
1606134443.090,3.418,-42.969,-31.738,126.465,0.000
1606134443.093,69.336,-38.086,-23.926,402.344,0.000
1606134443.097,-14.648,-35.645,-25.879,105.957,0.000
1606134443.101,-137.695,-38.086,-10.254,-356.445,0.000
1606134443.105,-135.742,-40.527,-19.043,-384.277,0.000
1606134443.109,-14.160,-35.645,-34.180,77.637,0.000
1606134443.113,64.941,-26.367,-22.949,398.438,0.000
1606134443.117,-2.930,-32.227,-16.602,165.039,0.000
1606134443.121,-139.648,-36.133,-29.785,-334.473,0.000
1606134443.125,-158.691,-38.086,-42.480,-438.477,0.000
1606134443.129,-29.297,-40.527,-31.250,14.648,0.000
1606134443.132,72.754,-30.762,-18.066,388.184,0.000
1606134443.136,28.809,-22.949,-19.531,220.215,0.000
1606134443.140,-104.492,-27.344,-28.320,-283.203,0.000
1606134443.144,-143.066,-35.645,-41.016,-460.449,0.000
1606134443.148,-26.367,-33.203,-38.574,-64.453,0.000
1606134443.152,74.707,-28.809,-24.902,355.469,0.000
1606134443.156,32.715,-30.273,-23.926,254.395,0.000
1606134443.160,-101.074,-37.109,-29.785,-254.395,0.000
1606134443.164,-154.297,-41.016,-35.156,-488.770,0.000
1606134443.168,-49.805,-28.809,-31.738,-142.090,0.000
1606134443.172,74.219,-20.508,-27.344,327.637,0.000
1606134443.175,56.152,-25.879,-21.484,307.617,0.000
1606134443.179,-83.496,-34.668,-27.344,-198.242,0.000
1606134443.183,-151.855,-32.227,-34.180,-488.281,0.000
1606134443.187,-63.477,-27.344,-33.203,-207.031,0.000
1606134443.191,65.918,-24.414,-31.250,274.414,0.000
1606134443.195,67.871,-24.902,-38.086,329.102,0.000
1606134443.199,-58.105,-26.367,-38.574,-122.070,0.000
1606134443.203,-144.531,-20.996,-39.062,-467.773,0.000
1606134443.207,-90.332,-39.551,-40.527,-260.742,0.000
1606134443.211,43.457,-37.109,-33.203,248.047,0.000
1606134443.215,70.312,-26.367,-26.367,372.070,0.000
1606134443.218,-55.176,-36.133,-21.484,-53.223,0.000
1606134443.222,-154.297,-34.180,-44.434,-444.824,0.000
1606134443.226,-105.957,-24.414,-49.316,-306.152,0.000
1606134443.230,27.344,-21.973,-31.250,207.031,0.000
1606134443.234,73.242,-21.973,-24.414,388.184,0.000
1606134443.238,-30.762,-27.344,-22.949,0.977,0.000
1606134443.242,-143.066,-35.156,-35.156,-420.898,0.000
1606134443.246,-112.305,-37.598,-39.062,-350.098,0.000
1606134443.250,27.344,-31.250,-23.438,148.438,0.000
1606134443.254,91.309,-24.902,-27.832,395.996,0.000
1606134443.257,1.465,-24.902,-34.180,76.172,0.000
1606134443.261,-124.512,-24.902,-48.828,-386.230,0.000
1606134443.265,-113.770,-29.785,-57.129,-397.461,0.000
1606134443.269,27.832,-27.344,-34.668,94.238,0.000
1606134443.273,104.004,-20.020,-24.902,406.250,0.000
1606134443.277,22.461,-23.926,-30.762,143.066,0.000
1606134443.281,-105.469,-33.203,-38.086,-345.215,0.000
1606134443.285,-116.699,-33.691,-37.598,-420.410,0.000
1606134443.289,12.695,-22.461,-34.668,30.762,0.000
1606134443.293,110.352,-14.648,-30.273,394.043,0.000
1606134443.297,42.969,-23.438,-31.250,209.473,0.000
1606134443.300,-112.305,-30.762,-38.086,-310.547,0.000
1606134443.304,-153.320,-36.133,-33.203,-472.168,0.000
1606134443.308,-29.785,-32.227,-26.367,-47.852,0.000
1606134443.312,79.590,-22.461,-18.066,371.582,0.000
1606134443.316,33.203,-32.227,-12.695,255.859,0.000
1606134443.320,-108.887,-45.898,-20.508,-255.859,0.000
1606134443.324,-149.414,-42.480,-18.555,-452.148,0.000
1606134443.328,-37.598,-29.785,-7.812,-81.543,0.000
1606134443.332,76.172,-23.438,-0.488,347.168,0.000
1606134443.336,62.500,-28.320,4.883,318.359,0.000
1606134443.340,-78.125,-20.996,-9.277,-172.852,0.000
1606134443.343,-148.438,-25.391,-23.438,-458.008,0.000
1606134443.347,-40.039,-37.598,-17.090,-144.043,0.000
1606134443.351,88.379,-22.949,-9.766,333.008,0.000
1606134443.355,81.055,-17.090,-6.348,354.492,0.000
1606134443.359,-54.688,-31.738,-8.789,-126.953,0.000
1606134443.363,-133.789,-45.410,-13.184,-454.590,0.000
1606134443.367,-60.059,-37.109,-12.207,-217.285,0.000
1606134443.371,67.871,-27.344,-6.836,282.715,0.000
1606134443.375,78.613,-31.250,-9.766,383.301,0.000
1606134443.379,-52.246,-36.133,-17.578,-63.477,0.000
1606134443.382,-146.484,-39.551,-21.973,-439.941,0.000
1606134443.386,-86.426,-39.062,-16.602,-266.602,0.000
1606134443.390,42.969,-28.320,-18.555,231.934,0.000
1606134443.394,69.336,-27.344,-18.555,379.883,0.000
1606134443.398,-42.969,-35.156,-21.484,-23.438,0.000
1606134443.402,-145.020,-15.137,-33.691,-441.895,0.000
1606134443.406,-95.703,-12.695,-26.367,-336.914,0.000
1606134443.410,49.805,-27.832,-20.020,175.293,0.000
1606134443.414,98.633,-32.715,-24.902,391.113,0.000
1606134443.418,-2.930,-35.156,-33.203,46.387,0.000
1606134443.422,-121.582,-41.992,-34.668,-399.414,0.000
1606134443.425,-110.840,-45.898,-39.062,-377.930,0.000
1606134443.429,30.273,-28.320,-38.574,125.977,0.000
1606134443.433,101.562,-23.926,-31.250,428.711,0.000
1606134443.437,8.301,-43.457,-29.297,138.184,0.000
1606134443.441,-114.258,-46.875,-27.344,-351.562,0.000
1606134443.445,-111.328,-41.016,-29.785,-396.973,0.000
1606134443.449,17.090,-35.645,-24.414,78.125,0.000
1606134443.453,94.238,-33.691,-16.113,421.387,0.000
1606134443.457,16.602,-37.598,-14.648,197.266,0.000
1606134443.461,-122.070,-49.316,-23.438,-316.406,0.000
1606134443.465,-146.973,-59.082,-33.691,-433.594,0.000
1606134443.468,-22.949,-47.852,-30.273,3.418,0.000
1606134443.472,77.148,-42.969,-18.555,392.090,0.000
1606134443.476,21.973,-50.781,-12.695,255.371,0.000
1606134443.480,-119.141,-40.527,-22.461,-249.512,0.000
1606134443.484,-157.715,-37.109,-37.598,-457.520,0.000
1606134443.488,-37.598,-39.551,-29.785,-82.520,0.000
1606134443.492,88.867,-29.785,-18.555,378.906,0.000
1606134443.496,62.988,-33.691,-29.785,323.730,0.000
1606134443.500,-80.566,-44.922,-28.809,-205.078,0.000
1606134443.504,-140.137,-52.734,-23.926,-477.051,0.000
1606134443.507,-34.668,-42.969,-19.043,-134.766,0.000
1606134443.511,92.285,-38.086,-10.254,359.375,0.000
1606134443.515,77.148,-41.992,-23.926,361.328,0.000
1606134443.519,-62.988,-40.527,-38.574,-153.809,0.000
1606134443.523,-138.672,-39.551,-38.086,-478.027,0.000
1606134443.527,-51.270,-32.715,-36.621,-198.730,0.000
1606134443.531,85.938,-25.879,-28.809,320.801,0.000
1606134443.535,101.074,-30.762,-20.996,405.762,0.000
1606134443.539,-29.785,-16.113,-24.902,-64.941,0.000
1606134443.543,-126.953,-12.695,-32.715,-448.242,0.000
1606134443.547,-70.312,-35.645,-30.762,-256.836,0.000
1606134443.550,78.125,-26.855,-18.555,281.250,0.000
1606134443.554,119.141,-20.996,-16.113,444.824,0.000
1606134443.558,-12.695,-31.250,-26.855,9.766,0.000
1606134443.562,-128.418,-40.527,-38.574,-425.293,0.000
1606134443.566,-86.914,-37.598,-34.180,-301.758,0.000
1606134443.570,55.176,-23.438,-20.508,226.074,0.000
1606134443.574,112.793,-15.625,-10.742,460.938,0.000
1606134443.578,0.000,-20.020,-20.508,76.172,0.000
1606134443.582,-139.160,-10.742,-30.762,-420.410,0.000
1606134443.586,-117.676,-20.020,-34.668,-381.836,0.000
1606134443.590,31.250,-30.762,-21.484,161.621,0.000
1606134443.593,97.656,-22.949,-19.531,464.355,0.000
1606134443.597,-0.488,-35.156,-31.738,142.578,0.000
1606134443.601,-134.766,-44.434,-38.574,-375.488,0.000
1606134443.605,-133.301,-40.527,-46.387,-424.316,0.000
1606134443.609,9.766,-29.297,-44.434,76.660,0.000
1606134443.613,99.609,-18.555,-34.668,429.199,0.000
1606134443.617,26.855,-20.508,-24.414,199.219,0.000
1606134443.621,-108.887,-11.230,-28.809,-323.730,0.000
1606134443.625,-134.766,-20.020,-40.039,-463.867,0.000
1606134443.629,-3.418,-25.391,-38.574,-3.906,0.000
1606134443.632,102.051,-10.254,-24.414,408.691,0.000
1606134443.636,51.758,-15.137,-20.020,242.188,0.000
1606134443.640,-87.891,-31.250,-46.875,-297.363,0.000
1606134443.644,-138.672,-35.645,-48.828,-478.027,0.000
1606134443.648,-31.738,-32.227,-26.855,-63.477,0.000
1606134443.652,76.172,-29.785,-15.625,389.160,0.000
1606134443.656,33.203,-35.156,-13.184,304.199,0.000
1606134443.660,-107.910,-42.969,-18.066,-228.027,0.000
1606134443.664,-158.203,-41.992,-24.902,-483.887,0.000
1606134443.668,-58.105,-38.086,-20.508,-122.559,0.000
1606134443.672,72.754,-32.227,-5.371,373.535,0.000
1606134443.675,60.547,-37.109,0.977,354.980,0.000
1606134443.679,-95.703,-38.086,-12.695,-182.617,0.000
1606134443.683,-185.547,-31.738,-29.297,-504.395,0.000
1606134443.687,-97.656,-38.086,-15.137,-206.055,0.000
1606134443.691,46.387,-44.434,-6.348,314.453,0.000
1606134443.695,49.805,-49.316,-6.348,376.953,0.000
1606134443.699,-84.473,-47.852,-2.930,-107.910,0.000
1606134443.703,-175.781,-50.293,-28.320,-478.027,0.000
1606134443.707,-104.004,-51.270,-28.320,-260.742,0.000
1606134443.711,44.922,-38.574,-12.695,282.715,0.000
1606134443.715,75.195,-33.203,-16.113,427.246,0.000
1606134443.718,-46.875,-39.551,-15.625,-26.855,0.000
1606134443.722,-146.973,-39.551,-18.066,-450.195,0.000
1606134443.726,-91.309,-39.551,-19.531,-309.082,0.000
1606134443.730,62.500,-36.133,-9.766,230.469,0.000
1606134443.734,111.816,-29.297,-12.207,432.617,0.000
1606134443.738,-6.836,-34.180,-20.508,31.738,0.000
1606134443.742,-135.254,-45.898,-23.438,-433.594,0.000
1606134443.746,-109.375,-39.062,-27.832,-369.629,0.000
1606134443.750,45.898,-22.461,-16.602,166.504,0.000
1606134443.754,115.723,-24.902,-5.371,444.336,0.000
1606134443.757,10.742,-32.227,-16.602,119.141,0.000
1606134443.761,-120.117,-29.785,-30.762,-381.348,0.000
1606134443.765,-107.910,-21.973,-15.137,-404.297,0.000
1606134443.769,28.809,-22.461,-9.277,104.492,0.000
1606134443.773,110.352,-25.391,-22.949,437.500,0.000
1606134443.777,28.809,-24.414,-25.391,182.617,0.000
1606134443.781,-122.559,-19.531,-29.297,-349.121,0.000
1606134443.785,-135.254,-24.902,-30.273,-446.777,0.000
1606134443.789,2.930,-32.227,-22.949,45.410,0.000
1606134443.793,100.586,-24.414,-14.648,437.988,0.000
1606134443.797,29.785,-25.879,-15.625,242.188,0.000
1606134443.800,-121.582,-37.109,-21.973,-309.082,0.000
1606134443.804,-158.691,-39.062,-27.344,-479.004,0.000
1606134443.808,-33.691,-35.156,-16.113,-25.391,0.000
1606134443.812,75.684,-30.762,-6.348,401.855,0.000
1606134443.816,34.180,-30.762,-11.719,279.785,0.000
1606134443.820,-109.375,-25.879,-23.926,-251.465,0.000
1606134443.824,-183.594,-28.809,-33.203,-501.953,0.000
1606134443.828,-72.266,-32.227,-28.809,-122.559,0.000
1606134443.832,56.641,-20.996,-27.832,358.887,0.000
1606134443.836,30.762,-29.785,-27.832,318.848,0.000
1606134443.840,-107.422,-41.016,-32.227,-207.031,0.000
1606134443.843,-175.781,-39.062,-36.621,-509.766,0.000
1606134443.847,-82.520,-39.551,-25.391,-202.148,0.000
1606134443.851,63.965,-29.785,-17.578,317.383,0.000
1606134443.855,71.289,-30.273,-21.484,365.723,0.000
1606134443.859,-67.871,-21.973,-29.785,-135.742,0.000
1606134443.863,-153.320,1.953,-37.109,-489.746,0.000
1606134443.867,-64.941,-22.461,-39.551,-262.695,0.000
1606134443.871,83.008,-31.738,-26.367,261.719,0.000
1606134443.875,93.262,-24.414,-21.973,390.137,0.000
1606134443.879,-26.367,-30.273,-27.344,-55.664,0.000
1606134443.882,-130.859,-39.551,-26.367,-461.426,0.000
1606134443.886,-86.426,-37.109,-28.320,-296.387,0.000
1606134443.890,60.547,-24.414,-19.043,247.559,0.000
1606134443.894,99.609,-27.344,-10.742,421.387,0.000
1606134443.898,-21.973,-36.621,-16.113,3.906,0.000
1606134443.902,-141.113,-45.898,-30.273,-416.992,0.000
1606134443.906,-109.375,-44.434,-35.156,-328.125,0.000
1606134443.910,32.227,-31.738,-17.090,173.828,0.000
1606134443.914,89.355,-26.367,-5.371,409.668,0.000
1606134443.918,-6.836,-31.250,-15.137,75.195,0.000
1606134443.922,-129.883,-33.203,-28.809,-373.535,0.000
1606134443.925,-118.164,-37.109,-24.414,-359.863,0.000
1606134443.929,13.184,-38.574,-16.602,113.770,0.000
1606134443.933,76.172,-26.367,-28.320,380.859,0.000
1606134443.937,-3.906,-27.832,-33.203,116.699,0.000
1606134443.941,-145.020,-43.457,-24.902,-344.238,0.000
1606134443.945,-159.180,-44.922,-27.344,-397.461,0.000
1606134443.949,-15.625,-32.227,-18.555,63.965,0.000
1606134443.953,67.383,-25.391,-17.090,388.672,0.000
1606134443.957,1.953,-29.785,-22.461,170.410,0.000
1606134443.961,-130.859,-33.203,-35.645,-336.426,0.000
1606134443.965,-160.156,-32.227,-43.457,-461.426,0.000
1606134443.968,-29.785,-24.902,-22.949,-20.020,0.000
1606134443.972,80.566,-19.531,-13.672,368.652,0.000
1606134443.976,36.621,-29.297,-22.461,227.539,0.000
1606134443.980,-97.656,-33.691,-28.320,-276.855,0.000
1606134443.984,-135.742,-35.156,-27.344,-458.984,0.000
1606134443.988,-23.926,-28.809,-12.207,-71.777,0.000
1606134443.992,85.449,-17.578,-10.254,357.422,0.000
1606134443.996,60.059,-18.066,-26.367,295.898,0.000
1606134444.000,-74.219,-16.113,-34.180,-204.102,0.000
1606134444.004,-138.672,-19.531,-35.645,-460.938,0.000
1606134444.007,-43.945,-30.762,-31.738,-142.578,0.000
1606134444.011,80.566,-26.367,-21.973,325.684,0.000
1606134444.015,76.172,-23.438,-18.066,340.820,0.000
1606134444.019,-65.430,-26.367,-23.438,-149.414,0.000
1606134444.023,-141.602,-30.762,-20.996,-460.938,0.000
1606134444.027,-54.199,-34.668,-12.207,-186.523,0.000
1606134444.031,71.289,-22.461,-16.602,306.641,0.000
1606134444.035,74.707,-13.184,-21.973,373.047,0.000
1606134444.039,-58.105,-13.184,-24.902,-91.309,0.000
1606134444.043,-153.809,-16.602,-39.062,-452.637,0.000
1606134444.047,-85.449,-26.367,-21.484,-259.277,0.000
1606134444.050,54.688,-22.949,-10.742,253.418,0.000
1606134444.054,77.637,-21.484,-33.203,393.066,0.000
1606134444.058,-41.504,-19.043,-33.691,-29.297,0.000
1606134444.062,-153.809,-29.297,-28.809,-455.566,0.000
1606134444.066,-114.746,-41.016,-34.668,-346.680,0.000
1606134444.070,37.598,-26.855,-35.156,191.406,0.000
1606134444.074,90.820,-21.973,-29.785,418.945,0.000
1606134444.078,-17.578,-26.367,-36.133,45.898,0.000
1606134444.082,-130.859,-32.715,-31.738,-423.828,0.000
1606134444.086,-104.004,-28.809,-25.879,-383.789,0.000
1606134444.090,41.504,-21.973,-29.297,145.020,0.000
1606134444.093,113.770,-18.066,-23.438,434.082,0.000
1606134444.097,25.391,-18.066,-20.996,119.141,0.000
1606134444.101,-115.234,-24.414,-22.949,-386.230,0.000
1606134444.105,-123.047,-29.785,-35.156,-425.293,0.000
1606134444.109,20.020,-26.855,-34.668,75.684,0.000
1606134444.113,110.352,-19.043,-21.973,431.152,0.000
1606134444.117,33.691,-19.531,-15.625,185.059,0.000
1606134444.121,-117.676,-28.320,-27.832,-352.051,0.000
1606134444.125,-142.090,-39.551,-37.598,-465.820,0.000
1606134444.129,-3.418,-31.250,-24.414,6.836,0.000
1606134444.132,97.656,-23.438,-25.391,412.598,0.000
1606134444.136,41.992,-36.621,-29.297,250.488,0.000
1606134444.140,-101.562,-16.602,-19.043,-278.320,0.000
1606134444.144,-146.484,-5.859,-20.996,-475.098,0.000
1606134444.148,-27.832,-34.668,-30.762,-65.918,0.000
1606134444.152,95.215,-30.273,-23.438,397.461,0.000
1606134444.156,61.523,-32.227,-12.695,311.523,0.000
1606134444.160,-94.238,-42.969,-21.484,-234.375,0.000
1606134444.164,-155.762,-44.922,-36.621,-488.281,0.000
1606134444.168,-47.852,-40.039,-20.996,-124.023,0.000
1606134444.172,83.496,-26.855,-6.348,372.070,0.000
1606134444.175,70.801,-28.320,-15.625,351.074,0.000
1606134444.179,-78.125,-36.133,-26.855,-177.734,0.000
1606134444.183,-152.344,-35.156,-17.090,-474.609,0.000
1606134444.187,-53.223,-34.668,-13.184,-178.711,0.000
1606134444.191,90.820,-16.113,-36.621,329.102,0.000
1606134444.195,91.309,-10.254,-45.410,377.930,0.000
1606134444.199,-56.641,-19.043,-41.992,-126.465,0.000
1606134444.203,-153.809,-20.996,-55.176,-502.441,0.000
1606134444.207,-80.566,-18.555,-68.359,-275.391,0.000
1606134444.211,69.824,-4.883,-55.664,259.277,0.000
1606134444.215,99.121,-1.465,-52.246,392.090,0.000
1606134444.218,-26.855,-9.766,-74.219,-60.059,0.000
1606134444.222,-130.371,-14.160,-81.055,-485.840,0.000
1606134444.226,-82.031,-10.254,-77.148,-336.914,0.000
1606134444.230,74.219,-2.441,-71.289,227.539,0.000
1606134444.234,130.859,-3.418,-50.781,443.848,0.000
1606134444.238,8.301,-13.184,-52.734,37.598,0.000
1606134444.242,-124.512,3.418,-83.496,-433.594,0.000
1606134444.246,-90.332,7.324,-81.055,-374.512,0.000
1606134444.250,69.336,-8.301,-62.988,179.199,0.000
1606134444.254,132.324,-11.230,-60.547,465.820,0.000
1606134444.257,31.250,-15.137,-58.105,116.699,0.000
1606134444.261,-96.191,-20.020,-60.547,-381.836,0.000
1606134444.265,-84.473,-26.367,-55.176,-382.812,0.000
1606134444.269,64.453,-19.531,-43.457,142.578,0.000
1606134444.273,147.461,-7.812,-47.363,484.863,0.000
1606134444.277,65.918,-10.254,-43.945,213.379,0.000
1606134444.281,-80.566,-18.555,-45.410,-335.938,0.000
1606134444.285,-95.215,-26.855,-56.152,-436.035,0.000
1606134444.289,55.664,-12.695,-56.641,61.035,0.000
1606134444.293,153.809,-3.418,-43.457,466.309,0.000
1606134444.297,78.613,-13.672,-42.480,262.207,0.000
1606134444.300,-75.684,-28.809,-51.758,-303.223,0.000
1606134444.304,-117.188,-35.156,-47.852,-478.027,0.000
1606134444.308,11.719,-23.926,-39.062,-26.367,0.000
1606134444.312,124.023,-18.555,-42.480,415.527,0.000
1606134444.316,71.777,-19.043,-33.691,297.363,0.000
1606134444.320,-84.961,-27.832,-39.551,-243.652,0.000
1606134444.324,-144.531,-37.598,-49.805,-484.375,0.000
1606134444.328,-33.203,-34.668,-39.551,-109.375,0.000
1606134444.332,86.914,-29.785,-36.621,375.977,0.000
1606134444.336,64.453,-34.668,-35.156,337.402,0.000
1606134444.340,-82.520,-35.645,-32.715,-197.754,0.000
1606134444.343,-156.250,-31.738,-42.480,-494.141,0.000
1606134444.347,-66.895,-30.273,-45.898,-180.664,0.000
1606134444.351,68.359,-27.344,-37.109,333.984,0.000
1606134444.355,64.941,-25.391,-30.273,370.117,0.000
1606134444.359,-84.961,-25.391,-37.598,-144.043,0.000
1606134444.363,-167.480,-32.715,-39.062,-488.281,0.000
1606134444.367,-89.844,-33.203,-30.762,-237.793,0.000
1606134444.371,49.805,-18.066,-26.367,270.020,0.000
1606134444.375,69.336,-18.555,-28.320,364.258,0.000
1606134444.379,-64.453,-36.621,-38.574,-78.125,0.000
1606134444.382,-159.180,-36.133,-30.273,-446.289,0.000
1606134444.386,-100.586,-25.879,-20.020,-280.273,0.000
1606134444.390,29.785,-18.555,-23.438,219.238,0.000
1606134444.394,68.848,-14.648,-23.926,385.742,0.000
1606134444.398,-39.062,-17.090,-22.461,-6.348,0.000
1606134444.402,-148.926,-20.508,-23.926,-429.688,0.000
1606134444.406,-108.887,-17.578,-23.438,-338.867,0.000
1606134444.410,37.109,-8.789,-15.625,166.992,0.000
1606134444.414,93.262,-9.766,-20.508,395.996,0.000
1606134444.418,-7.324,-14.648,-30.273,51.758,0.000
1606134444.422,-136.230,-23.926,-37.598,-425.293,0.000
1606134444.425,-122.559,-27.832,-39.062,-409.668,0.000
1606134444.429,27.832,-16.113,-30.273,104.492,0.000
1606134444.433,112.793,-4.395,-17.090,412.598,0.000
1606134444.437,31.738,-9.766,-22.461,127.930,0.000
1606134444.441,-107.910,-21.484,-42.480,-374.023,0.000
1606134444.445,-121.094,-30.762,-38.574,-437.012,0.000
1606134444.449,8.301,-24.902,-32.227,41.504,0.000
1606134444.453,92.285,-21.484,-31.250,396.484,0.000
1606134444.457,19.531,-28.320,-31.738,179.688,0.000
1606134444.461,-115.723,-28.809,-39.551,-323.242,0.000
1606134444.465,-141.113,-34.180,-30.762,-442.871,0.000
1606134444.468,-28.809,-35.645,-21.973,-14.648,0.000
1606134444.472,71.777,-17.578,-8.789,387.695,0.000
1606134444.476,28.320,-16.113,-5.371,248.535,0.000
1606134444.480,-112.305,-27.344,-31.738,-272.949,0.000
1606134444.484,-151.367,-32.227,-35.156,-452.637,0.000
1606134444.488,-36.621,-32.715,-23.926,-67.871,0.000
1606134444.492,78.125,-17.578,-16.113,361.816,0.000
1606134444.496,43.457,-19.531,-20.996,291.016,0.000
1606134444.500,-95.215,-29.785,-35.156,-217.773,0.000
1606134444.504,-154.297,-33.203,-41.016,-472.656,0.000
1606134444.507,-67.871,-32.715,-36.133,-155.273,0.000
1606134444.511,57.129,-20.508,-20.996,321.777,0.000
1606134444.515,57.129,-16.602,-10.254,332.520,0.000
1606134444.519,-80.078,-35.645,-21.973,-170.898,0.000
1606134444.523,-162.109,-40.039,-33.203,-481.934,0.000
1606134444.527,-73.730,-28.809,-32.227,-213.379,0.000
1606134444.531,64.941,-20.996,-34.668,274.902,0.000
1606134444.535,70.312,-20.508,-29.785,351.074,0.000
1606134444.539,-62.500,-32.227,-22.461,-104.492,0.000
1606134444.543,-158.203,-39.062,-32.227,-474.121,0.000
1606134444.547,-97.656,-30.762,-31.738,-291.016,0.000
1606134444.550,47.852,-23.438,-14.160,225.586,0.000
1606134444.554,80.078,-18.066,-7.812,381.836,0.000
1606134444.558,-39.062,-22.461,-12.207,-29.297,0.000
1606134444.562,-158.203,-54.199,-26.855,-462.402,0.000
1606134444.566,-116.699,-50.293,-29.785,-346.191,0.000
1606134444.570,37.109,-23.926,-20.020,189.941,0.000
1606134444.574,85.938,-21.484,-20.508,407.227,0.000
1606134444.578,-24.414,-33.691,-26.367,35.156,0.000
1606134444.582,-142.090,-37.109,-29.785,-418.945,0.000
1606134444.586,-123.535,-33.203,-25.391,-375.000,0.000
1606134444.590,19.043,-28.320,-16.602,143.066,0.000
1606134444.593,92.285,-22.461,-13.672,439.453,0.000
1606134444.597,0.488,-29.785,-23.926,135.254,0.000
1606134444.601,-135.742,-41.992,-25.879,-370.117,0.000
1606134444.605,-133.789,-37.598,-19.531,-414.551,0.000
1606134444.609,3.418,-31.738,-22.949,79.102,0.000
1606134444.613,83.496,-29.785,-27.832,420.898,0.000
1606134444.617,6.836,-28.320,-34.668,180.176,0.000
1606134444.621,-138.672,-32.227,-40.039,-351.074,0.000
1606134444.625,-160.645,-32.227,-31.250,-468.750,0.000
1606134444.629,-24.902,-28.320,-20.508,6.836,0.000
1606134444.632,86.914,-20.508,-4.395,420.898,0.000
1606134444.636,36.621,-26.367,-3.906,258.301,0.000
1606134444.640,-107.422,-36.621,-19.531,-272.949,0.000
1606134444.644,-150.879,-35.645,-29.297,-461.426,0.000
1606134444.648,-19.531,-25.391,-29.297,-53.223,0.000
1606134444.652,102.051,-17.578,-18.066,402.344,0.000
1606134444.656,49.805,-27.344,-21.484,309.570,0.000
1606134444.660,-98.633,-11.230,-27.832,-235.840,0.000
1606134444.664,-154.297,-6.348,-29.785,-493.652,0.000
1606134444.668,-46.387,-30.273,-21.973,-137.207,0.000
1606134444.672,84.473,-22.949,-14.648,355.957,0.000
1606134444.675,72.754,-17.578,-25.391,353.027,0.000
1606134444.679,-76.660,-24.902,-36.621,-181.641,0.000
1606134444.683,-157.715,-27.832,-33.691,-508.789,0.000
1606134444.687,-70.312,-24.902,-27.832,-207.031,0.000
1606134444.691,64.453,-17.090,-20.508,315.918,0.000
1606134444.695,73.242,-25.879,-18.555,390.625,0.000
1606134444.699,-73.730,-29.785,-32.227,-101.074,0.000
1606134444.703,-171.387,-13.184,-37.109,-481.934,0.000
1606134444.707,-97.656,-20.020,-27.344,-264.160,0.000
1606134444.711,53.711,-23.438,-20.996,266.602,0.000
1606134444.715,83.008,-25.879,-17.090,410.156,0.000
1606134444.718,-55.664,-38.086,-26.855,-42.969,0.000
1606134444.722,-164.551,-45.410,-31.738,-472.656,0.000
1606134444.726,-116.699,-42.480,-29.297,-347.168,0.000
1606134444.730,42.969,-27.344,-20.508,206.055,0.000
1606134444.734,94.727,-22.949,-5.859,437.012,0.000
1606134444.738,-31.250,-28.320,-18.066,22.949,0.000
1606134444.742,-160.645,-33.691,-38.574,-457.520,0.000
1606134444.746,-134.277,-34.668,-43.945,-396.973,0.000
1606134444.750,12.207,-30.762,-32.715,141.602,0.000
1606134444.754,73.242,-29.785,-18.555,419.922,0.000
1606134444.757,-30.762,-32.715,-31.738,84.473,0.000
1606134444.761,-162.109,-32.715,-36.621,-396.484,0.000
1606134444.765,-154.297,-37.598,-29.297,-412.598,0.000
1606134444.769,-7.812,-29.297,-24.414,91.309,0.000
1606134444.773,81.543,-17.578,-19.531,427.734,0.000
1606134444.777,4.883,-21.484,-17.090,168.945,0.000
1606134444.781,-132.812,-38.574,-28.320,-353.027,0.000
1606134444.785,-147.949,-47.363,-35.156,-455.566,0.000
1606134444.789,-9.277,-34.180,-27.344,18.066,0.000
1606134444.793,94.727,-19.043,-22.461,413.086,0.000
1606134444.797,28.320,-29.297,-27.344,218.262,0.000
1606134444.800,-112.793,-21.484,-33.691,-318.359,0.000
1606134444.804,-130.859,-11.230,-27.832,-463.379,0.000
1606134444.808,-2.930,-26.855,-21.973,-25.391,0.000
1606134444.812,101.074,-26.367,-11.719,384.766,0.000
1606134444.816,52.734,-30.762,-18.066,261.719,0.000
1606134444.820,-90.332,-41.016,-29.297,-243.652,0.000
1606134444.824,-138.184,-36.621,-20.996,-454.102,0.000
1606134444.828,-37.109,-29.297,-17.578,-99.609,0.000
1606134444.832,80.078,-24.414,-21.973,335.449,0.000
1606134444.836,64.941,-23.926,-12.695,300.781,0.000
1606134444.840,-74.219,-18.555,-16.113,-178.223,0.000
1606134444.843,-146.973,-15.625,-33.203,-443.848,0.000
1606134444.847,-57.617,-30.762,-29.785,-158.203,0.000
1606134444.851,77.148,-25.879,-21.484,299.316,0.000
1606134444.855,75.195,-18.066,-23.438,334.473,0.000
1606134444.859,-59.570,-27.344,-24.902,-125.488,0.000
1606134444.863,-137.695,-37.109,-26.367,-448.730,0.000
1606134444.867,-60.059,-26.855,-20.508,-213.867,0.000
1606134444.871,70.801,-12.695,-14.648,278.809,0.000
1606134444.875,75.684,-19.531,-23.438,365.723,0.000
1606134444.879,-50.781,-25.391,-26.367,-66.895,0.000
1606134444.882,-141.113,-32.715,-28.809,-440.918,0.000
1606134444.886,-83.008,-34.180,-30.762,-278.809,0.000
1606134444.890,51.758,-24.902,-32.715,216.797,0.000
1606134444.894,85.938,-28.320,-28.809,376.953,0.000
1606134444.898,-31.738,-30.762,-22.461,-26.855,0.000
1606134444.902,-149.902,-12.207,-35.156,-446.777,0.000
1606134444.906,-116.211,-22.949,-36.621,-348.633,0.000
1606134444.910,33.203,-32.715,-18.555,164.551,0.000
1606134444.914,93.750,-22.461,-12.695,400.391,0.000
1606134444.918,-5.859,-25.391,-27.832,60.059,0.000
1606134444.922,-127.441,-34.180,-33.691,-397.949,0.000
1606134444.925,-108.398,-33.691,-18.555,-384.277,0.000
1606134444.929,35.645,-28.809,-6.348,119.629,0.000
1606134444.933,98.633,-30.273,-11.230,412.109,0.000
1606134444.937,6.836,-30.762,-19.531,130.371,0.000
1606134444.941,-127.930,-20.996,-32.227,-357.910,0.000
1606134444.945,-136.230,-32.227,-41.016,-421.875,0.000
1606134444.949,-5.859,-41.504,-33.203,46.387,0.000
1606134444.953,78.613,-25.879,-24.902,388.672,0.000
1606134444.957,13.672,-25.391,-21.973,187.012,0.000
1606134444.961,-126.465,-33.691,-24.414,-310.547,0.000
1606134444.965,-157.715,-42.480,-30.273,-443.359,0.000
1606134444.968,-34.668,-36.621,-32.227,-16.113,0.000
1606134444.972,76.172,-19.531,-29.297,374.023,0.000
1606134444.976,28.320,-18.555,-40.527,225.586,0.000
1606134444.980,-112.793,-16.602,-41.504,-272.949,0.000
1606134444.984,-151.855,-18.066,-38.086,-458.496,0.000
1606134444.988,-42.969,-28.809,-34.668,-88.379,0.000
1606134444.992,68.848,-26.855,-27.832,334.961,0.000
1606134444.996,49.316,-16.113,-23.926,274.902,0.000
1606134445.000,-84.473,-26.367,-28.809,-216.797,0.000
1606134445.004,-147.949,-35.156,-27.344,-471.191,0.000
1606134445.007,-55.664,-28.320,-22.461,-149.902,0.000
1606134445.011,71.777,-16.602,-19.043,320.312,0.000
1606134445.015,61.523,-18.066,-25.391,327.637,0.000
1606134445.019,-76.660,-30.762,-43.945,-166.992,0.000
1606134445.023,-144.043,-26.855,-43.457,-465.820,0.000
1606134445.027,-67.383,-21.484,-32.227,-195.801,0.000
1606134445.031,52.734,-18.066,-26.367,282.227,0.000
1606134445.035,60.059,-22.461,-27.832,348.633,0.000
1606134445.039,-62.988,-13.672,-28.320,-98.145,0.000
1606134445.043,-153.320,-6.348,-40.039,-459.473,0.000
1606134445.047,-97.656,-24.414,-26.855,-271.484,0.000
1606134445.050,40.039,-19.531,-8.301,236.328,0.000
1606134445.054,69.824,-15.137,-26.855,372.070,0.000
1606134445.058,-57.617,-25.391,-39.551,-41.504,0.000
1606134445.062,-162.598,-34.180,-37.598,-444.336,0.000
1606134445.066,-114.258,-38.574,-27.344,-328.613,0.000
1606134445.070,26.855,-33.691,-14.648,186.035,0.000
1606134445.074,73.730,-27.344,-14.160,399.414,0.000
1606134445.078,-35.645,-24.902,-25.879,39.551,0.000
1606134445.082,-160.645,-32.715,-29.785,-424.316,0.000
1606134445.086,-136.719,-39.551,-21.484,-404.297,0.000
1606134445.090,8.301,-25.879,-17.090,111.328,0.000
1606134445.093,75.684,-17.578,-23.438,393.066,0.000
1606134445.097,-18.066,-27.344,-34.180,88.379,0.000
1606134445.101,-151.367,-35.645,-42.969,-401.855,0.000
1606134445.105,-143.066,-31.738,-37.109,-431.641,0.000
1606134445.109,-4.883,-26.855,-29.297,68.848,0.000
1606134445.113,81.543,-20.996,-18.066,412.598,0.000
1606134445.117,16.602,-21.484,-2.930,177.734,0.000
1606134445.121,-124.512,-31.738,-15.625,-341.797,0.000
1606134445.125,-151.367,-36.133,-37.598,-468.262,0.000
1606134445.129,-27.832,-36.133,-31.738,-11.230,0.000
1606134445.132,76.660,-31.250,-15.625,396.973,0.000
1606134445.136,23.926,-23.438,-23.926,236.328,0.000
1606134445.140,-124.512,-30.273,-42.480,-299.805,0.000
1606134445.144,-164.062,-39.062,-41.992,-493.652,0.000
1606134445.148,-41.992,-35.645,-33.203,-69.336,0.000
1606134445.152,81.543,-25.879,-24.902,391.602,0.000
1606134445.156,51.270,-26.855,-17.578,306.641,0.000
1606134445.160,-94.727,-36.621,-23.926,-229.980,0.000
1606134445.164,-155.273,-41.016,-32.715,-485.840,0.000
1606134445.168,-45.898,-31.738,-24.902,-118.652,0.000
1606134445.172,87.891,-16.602,-18.555,367.188,0.000
1606134445.175,72.266,-20.996,-23.926,352.539,0.000
1606134445.179,-81.543,-31.250,-36.621,-176.270,0.000
1606134445.183,-162.598,-23.438,-39.062,-484.863,0.000
1606134445.187,-69.336,-25.391,-31.738,-184.082,0.000
1606134445.191,62.988,-30.273,-22.949,315.430,0.000
1606134445.195,66.406,-30.762,-18.066,373.535,0.000
1606134445.199,-70.312,-28.320,-25.879,-112.793,0.000
1606134445.203,-162.109,-30.273,-26.367,-481.445,0.000
1606134445.207,-89.355,-30.273,-21.973,-257.812,0.000
1606134445.211,53.711,-16.113,-21.973,276.367,0.000
1606134445.215,80.078,-20.020,-21.973,403.809,0.000
1606134445.218,-53.223,-34.668,-30.273,-50.781,0.000
1606134445.222,-154.297,-40.039,-38.574,-460.938,0.000
1606134445.226,-97.168,-37.598,-31.250,-320.801,0.000
1606134445.230,46.387,-27.344,-14.160,212.402,0.000
1606134445.234,95.703,-24.902,-9.277,423.828,0.000
1606134445.238,-10.742,-34.180,-18.066,37.109,0.000
1606134445.242,-138.184,-46.875,-33.203,-418.457,0.000
1606134445.246,-111.328,-40.527,-34.668,-355.957,0.000
1606134445.250,40.039,-29.785,-23.926,164.551,0.000
1606134445.254,96.680,-28.809,-23.438,418.457,0.000
1606134445.257,4.883,-29.785,-22.949,105.469,0.000
1606134445.261,-117.188,-35.156,-28.809,-357.422,0.000
1606134445.265,-115.723,-34.180,-31.738,-378.418,0.000
1606134445.269,16.113,-25.391,-23.926,99.121,0.000
1606134445.273,90.332,-24.414,-16.113,398.926,0.000
1606134445.277,8.301,-26.855,-20.996,140.625,0.000
1606134445.281,-119.141,-24.902,-27.344,-335.938,0.000
1606134445.285,-130.371,-33.203,-33.203,-409.180,0.000
1606134445.289,-7.324,-31.738,-34.180,30.762,0.000
1606134445.293,87.402,-22.949,-22.461,386.719,0.000
1606134445.297,27.344,-25.391,-21.973,205.078,0.000
1606134445.300,-111.328,-36.133,-34.668,-303.711,0.000
1606134445.304,-137.695,-39.062,-27.344,-443.848,0.000
1606134445.308,-17.090,-26.855,-15.625,-24.902,0.000
1606134445.312,88.867,-23.438,-10.254,378.906,0.000
1606134445.316,48.828,-31.250,-13.184,266.602,0.000
1606134445.320,-94.727,-31.738,-29.297,-251.465,0.000
1606134445.324,-139.160,-27.344,-35.645,-463.379,0.000
1606134445.328,-33.203,-26.367,-30.762,-97.656,0.000
1606134445.332,82.520,-24.902,-23.926,351.074,0.000
1606134445.336,67.383,-25.391,-17.578,312.988,0.000
1606134445.340,-68.848,-16.113,-17.090,-180.664,0.000
1606134445.343,-138.184,-18.555,-31.738,-456.055,0.000
1606134445.347,-40.039,-23.926,-18.555,-153.320,0.000
1606134445.351,88.867,-16.602,-14.648,327.637,0.000
1606134445.355,90.820,-19.043,-22.949,364.258,0.000
1606134445.359,-42.969,-10.254,-22.949,-115.234,0.000
1606134445.363,-135.742,0.977,-40.039,-460.449,0.000
1606134445.367,-63.477,-21.973,-36.621,-229.492,0.000
1606134445.371,70.801,-28.809,-20.020,281.738,0.000
1606134445.375,88.867,-19.531,-10.742,395.508,0.000
1606134445.379,-36.621,-24.414,-18.555,-50.781,0.000
1606134445.382,-132.812,-31.738,-24.902,-434.082,0.000
1606134445.386,-79.590,-32.227,-21.973,-268.066,0.000
1606134445.390,55.664,-29.297,-22.461,237.793,0.000
1606134445.394,92.285,-30.273,-20.020,399.902,0.000
1606134445.398,-23.438,-29.785,-20.020,13.672,0.000
1606134445.402,-137.695,-34.668,-34.668,-404.297,0.000
1606134445.406,-113.281,-40.039,-38.574,-327.637,0.000
1606134445.410,20.508,-28.320,-17.578,183.594,0.000
1606134445.414,74.219,-23.438,-11.230,412.109,0.000
1606134445.418,-22.949,-32.715,-24.414,65.430,0.000
1606134445.422,-141.602,-40.527,-35.156,-390.625,0.000
1606134445.425,-133.301,-43.945,-40.527,-384.766,0.000
1606134445.429,10.742,-28.809,-38.574,107.910,0.000
1606134445.433,90.332,-20.508,-25.391,408.691,0.000
1606134445.437,0.977,-29.785,-17.090,118.652,0.000
1606134445.441,-123.535,-40.039,-28.320,-358.887,0.000
1606134445.445,-129.883,-42.969,-36.621,-412.598,0.000
1606134445.449,-3.906,-30.762,-28.809,45.898,0.000
1606134445.453,90.820,-20.508,-23.926,394.043,0.000
1606134445.457,20.020,-30.273,-27.832,166.992,0.000
1606134445.461,-124.512,-48.340,-41.016,-345.215,0.000
1606134445.465,-149.902,-44.434,-44.922,-461.426,0.000
1606134445.468,-26.855,-26.855,-33.691,-26.367,0.000
1606134445.472,68.848,-27.832,-28.320,360.352,0.000
1606134445.476,16.113,-35.645,-31.738,208.984,0.000
1606134445.480,-122.070,-44.434,-40.039,-308.594,0.000
1606134445.484,-154.297,-45.898,-35.156,-479.980,0.000
1606134445.488,-37.109,-34.668,-26.855,-82.520,0.000
1606134445.492,75.684,-24.414,-22.949,355.469,0.000
1606134445.496,46.875,-25.391,-26.855,293.945,0.000
1606134445.500,-98.145,-39.062,-36.621,-219.727,0.000
1606134445.504,-161.621,-41.016,-42.969,-479.004,0.000
1606134445.507,-63.477,-28.320,-40.039,-147.461,0.000
1606134445.511,62.988,-19.043,-25.391,333.008,0.000
1606134445.515,53.223,-20.020,-19.531,334.473,0.000
1606134445.519,-89.355,-27.344,-29.297,-163.574,0.000
1606134445.523,-166.016,-35.645,-34.180,-476.562,0.000
1606134445.527,-83.008,-35.156,-26.367,-213.867,0.000
1606134445.531,50.781,-24.414,-13.672,285.645,0.000
1606134445.535,64.941,-19.531,-10.742,371.582,0.000
1606134445.539,-67.871,-19.043,-25.879,-85.938,0.000
1606134445.543,-162.598,-24.414,-36.621,-460.449,0.000
1606134445.547,-104.980,-31.738,-33.203,-283.691,0.000
1606134445.550,36.133,-26.367,-23.438,234.375,0.000
1606134445.554,68.359,-24.902,-18.555,389.648,0.000
1606134445.558,-49.805,-25.879,-22.461,-30.762,0.000
1606134445.562,-150.391,-26.367,-28.809,-456.543,0.000
1606134445.566,-106.934,-30.762,-25.391,-350.586,0.000
1606134445.570,39.062,-24.414,-20.020,178.711,0.000
1606134445.574,82.031,-26.855,-20.020,398.438,0.000
1606134445.578,-28.809,-31.250,-30.273,19.531,0.000
1606134445.582,-142.578,-24.414,-33.691,-441.406,0.000
1606134445.586,-121.094,-25.879,-27.344,-401.855,0.000
1606134445.590,4.883,-23.438,-17.578,104.980,0.000
1606134445.593,58.105,-16.113,-5.859,382.812,0.000
1606134445.597,-43.945,-21.973,-10.254,63.965,0.000
1606134445.601,-189.941,-23.438,-26.367,-453.613,0.000
1606134445.605,-207.520,-24.902,-30.273,-509.277,0.000
1606134445.609,-69.824,-21.973,-16.602,0.000,0.000
1606134445.613,20.996,-20.508,-1.953,365.723,0.000
1606134445.617,-73.242,-35.156,-2.930,107.910,0.000
1606134445.621,-219.727,-41.016,-11.230,-431.152,0.000
1606134445.625,-237.793,-34.180,-6.348,-544.434,0.000
1606134445.629,-107.910,-24.414,0.488,-87.891,0.000
1606134445.632,-6.836,-21.973,2.930,311.523,0.000
1606134445.636,-68.848,-26.367,-7.324,142.090,0.000
1606134445.640,-215.820,-20.020,-23.926,-397.461,0.000
1606134445.644,-264.160,-17.090,-19.043,-601.562,0.000
1606134445.648,-153.320,-32.715,-1.465,-197.266,0.000
1606134445.652,-41.504,-35.645,-8.301,257.812,0.000
1606134445.656,-71.289,-32.715,-12.695,170.898,0.000
1606134445.660,-219.238,-35.156,-16.113,-378.418,0.000
1606134445.664,-284.180,-34.180,-10.254,-632.324,0.000
1606134445.668,-173.340,-29.297,5.371,-257.812,0.000
1606134445.672,-41.504,-21.484,6.836,228.516,0.000
1606134445.675,-49.805,-27.344,2.930,222.168,0.000
1606134445.679,-192.383,-35.156,1.953,-295.898,0.000
1606134445.683,-267.578,-37.109,0.977,-609.863,0.000
1606134445.687,-170.410,-37.109,-5.859,-314.941,0.000
1606134445.691,-24.902,-27.344,0.488,207.031,0.000
1606134445.695,-13.672,-35.645,0.977,278.809,0.000
1606134445.699,-139.160,-44.922,-10.254,-193.848,0.000
1606134445.703,-222.656,-38.574,-12.695,-556.641,0.000
1606134445.707,-146.973,-34.668,-15.137,-327.637,0.000
1606134445.711,10.742,-29.297,-18.555,221.191,0.000
1606134445.715,47.363,-29.297,-20.020,364.258,0.000
1606134445.718,-67.383,-44.434,-17.578,-55.664,0.000
1606134445.722,-165.527,-53.711,-25.391,-450.684,0.000
1606134445.726,-109.375,-42.969,-28.320,-300.293,0.000
1606134445.730,46.875,-31.250,-23.438,221.191,0.000
1606134445.734,105.957,-26.367,-22.461,417.480,0.000
1606134445.738,5.371,-27.344,-29.785,52.246,0.000
1606134445.742,-117.676,-27.832,-42.969,-380.371,0.000
1606134445.746,-91.309,-28.809,-30.762,-313.477,0.000
1606134445.750,57.129,-32.715,-15.137,206.543,0.000
1606134445.754,123.535,-39.062,-19.531,461.914,0.000
1606134445.757,34.668,-44.434,-36.133,135.742,0.000
1606134445.761,-80.566,-41.504,-46.387,-327.637,0.000
1606134445.765,-72.754,-37.109,-44.434,-343.262,0.000
1606134445.769,56.152,-33.691,-38.086,141.113,0.000
1606134445.773,132.812,-34.180,-30.762,460.449,0.000
1606134445.777,53.711,-36.133,-33.691,208.496,0.000
1606134445.781,-87.402,-42.480,-39.551,-299.316,0.000
1606134445.785,-96.191,-47.852,-38.086,-391.113,0.000
1606134445.789,39.551,-41.504,-24.902,70.801,0.000
1606134445.793,134.277,-32.715,-24.414,451.660,0.000
1606134445.797,80.078,-29.785,-35.645,266.602,0.000
1606134445.800,-63.477,-38.086,-40.039,-253.906,0.000
1606134445.804,-97.656,-43.457,-42.480,-409.668,0.000
1606134445.808,25.879,-29.297,-40.527,7.812,0.000
1606134445.812,129.395,-26.855,-33.691,419.922,0.000
1606134445.816,92.773,-26.367,-32.715,308.105,0.000
1606134445.820,-42.969,-25.391,-43.945,-193.848,0.000
1606134445.824,-90.820,-31.250,-40.039,-403.809,0.000
1606134445.828,21.484,-22.949,-19.531,-34.180,0.000
1606134445.832,139.160,-21.484,-11.230,402.344,0.000
1606134445.836,106.445,-34.180,-20.996,351.074,0.000
1606134445.840,-45.898,-16.113,-34.668,-145.020,0.000
1606134445.843,-113.770,6.836,-39.551,-418.945,0.000
1606134445.847,-16.113,-21.973,-32.715,-119.629,0.000
1606134445.851,108.887,-27.832,-21.973,353.027,0.000
1606134445.855,108.398,-20.996,-14.648,392.578,0.000
1606134445.859,-24.414,-25.879,-24.902,-85.449,0.000
1606134445.863,-116.211,-33.691,-41.504,-428.711,0.000
1606134445.867,-47.363,-41.504,-37.109,-197.266,0.000
1606134445.871,94.238,-29.297,-24.902,312.012,0.000
1606134445.875,111.328,-26.367,-29.297,412.598,0.000
1606134445.879,-14.648,-22.461,-33.691,-27.344,0.000
1606134445.882,-114.258,-16.113,-43.945,-416.016,0.000
1606134445.886,-59.082,-23.926,-36.621,-258.789,0.000
1606134445.890,84.473,-19.531,-25.879,260.742,0.000
1606134445.894,118.652,-18.066,-25.879,427.246,0.000
1606134445.898,-3.906,-23.926,-31.250,16.602,0.000
1606134445.902,-117.188,-27.344,-28.320,-404.785,0.000
1606134445.906,-76.660,-33.691,-25.391,-302.734,0.000
1606134445.910,58.594,-29.785,-31.738,194.824,0.000
1606134445.914,108.887,-11.719,-22.461,422.852,0.000
1606134445.918,11.719,-11.719,-26.367,96.680,0.000
1606134445.922,-117.676,9.766,-41.504,-375.488,0.000
1606134445.925,-106.934,-2.930,-42.480,-365.234,0.000
1606134445.929,34.180,-40.039,-30.273,139.160,0.000
1606134445.933,118.652,-29.785,-28.809,437.988,0.000
1606134445.937,38.086,-23.438,-27.832,168.945,0.000
1606134445.941,-110.840,-42.480,-30.273,-338.867,0.000
1606134445.945,-123.535,-49.316,-31.250,-403.809,0.000
1606134445.949,16.602,-31.250,-28.809,85.449,0.000
1606134445.953,111.816,-23.438,-20.020,452.637,0.000
1606134445.957,45.410,-28.320,-10.254,240.234,0.000
1606134445.961,-98.633,-42.480,-22.461,-285.156,0.000
1606134445.965,-126.953,-47.852,-28.320,-426.270,0.000
1606134445.968,-7.324,-42.969,-14.160,3.418,0.000
1606134445.972,94.727,-39.551,-9.277,414.551,0.000
1606134445.976,46.875,-38.086,-14.648,280.273,0.000
1606134445.980,-104.492,-40.039,-18.555,-246.582,0.000
1606134445.984,-154.785,-36.133,-21.973,-465.820,0.000
1606134445.988,-40.039,-30.273,-25.391,-84.473,0.000
1606134445.992,83.008,-26.367,-25.391,383.789,0.000
1606134445.996,56.152,-29.785,-24.902,333.008,0.000
1606134446.000,-94.727,-41.504,-37.598,-200.684,0.000
1606134446.004,-166.016,-46.875,-49.316,-504.395,0.000
1606134446.007,-55.176,-35.156,-35.156,-145.996,0.000
1606134446.011,88.379,-22.461,-19.531,383.789,0.000
1606134446.015,72.266,-32.715,-20.508,365.234,0.000
1606134446.019,-75.684,-36.621,-35.156,-160.156,0.000
1606134446.023,-172.363,-24.414,-41.504,-508.301,0.000
1606134446.027,-88.379,-25.391,-33.691,-242.188,0.000
1606134446.031,65.918,-19.531,-30.273,295.410,0.000
1606134446.035,77.637,-20.996,-30.762,388.184,0.000
1606134446.039,-60.547,-28.809,-39.062,-92.285,0.000
1606134446.043,-161.621,-32.227,-39.062,-490.723,0.000
1606134446.047,-92.773,-32.715,-30.762,-278.320,0.000
1606134446.050,60.059,-25.391,-23.926,276.367,0.000
1606134446.054,90.332,-30.762,-27.344,417.480,0.000
1606134446.058,-30.762,-27.344,-37.109,-3.418,0.000
1606134446.062,-144.531,-17.090,-39.551,-443.848,0.000
1606134446.066,-101.562,-32.715,-36.133,-343.262,0.000
1606134446.070,55.664,-27.832,-30.762,215.820,0.000
1606134446.074,112.793,-21.484,-14.160,460.938,0.000
1606134446.078,-5.859,-34.668,-14.648,73.730,0.000
1606134446.082,-135.254,-38.086,-29.785,-409.668,0.000
1606134446.086,-107.910,-26.367,-25.879,-369.629,0.000
1606134446.090,44.434,-18.066,-19.043,170.410,0.000
1606134446.093,109.863,-21.484,-21.973,461.914,0.000
1606134446.097,6.348,-25.391,-29.297,135.742,0.000
1606134446.101,-125.000,-36.133,-36.133,-381.348,0.000
1606134446.105,-121.582,-39.062,-38.574,-428.223,0.000
1606134446.109,20.996,-35.645,-25.391,78.613,0.000
1606134446.113,108.887,-30.273,-18.555,435.547,0.000
1606134446.117,35.645,-30.273,-27.832,191.406,0.000
1606134446.121,-109.375,-12.207,-30.762,-339.844,0.000
1606134446.125,-142.578,-11.719,-34.180,-454.102,0.000
1606134446.129,-8.301,-31.738,-25.879,5.859,0.000
1606134446.132,104.980,-20.020,-9.277,408.691,0.000
1606134446.136,48.828,-19.531,-15.625,254.395,0.000
1606134446.140,-109.863,-37.598,-31.250,-298.828,0.000
1606134446.144,-144.043,-44.922,-32.715,-448.730,0.000
1606134446.148,-24.414,-33.691,-29.785,-19.531,0.000
1606134446.152,80.078,-26.855,-25.879,364.746,0.000
1606134446.156,48.340,-33.691,-30.273,278.809,0.000
1606134446.160,-106.445,-40.527,-45.898,-232.910,0.000
1606134446.164,-158.691,-42.969,-39.551,-466.797,0.000
1606134446.168,-45.410,-37.109,-23.438,-118.652,0.000
1606134446.172,69.336,-29.297,-21.484,347.168,0.000
1606134446.175,48.828,-34.180,-20.508,328.125,0.000
1606134446.179,-84.473,-36.621,-26.367,-168.945,0.000
1606134446.183,-157.227,-36.621,-34.180,-461.914,0.000
1606134446.187,-69.336,-36.133,-25.391,-185.547,0.000
1606134446.191,64.941,-36.621,-24.902,304.199,0.000
1606134446.195,73.242,-45.410,-30.273,357.910,0.000
1606134446.199,-57.129,-24.902,-39.062,-110.840,0.000
1606134446.203,-138.672,13.184,-52.734,-464.844,0.000
1606134446.207,-67.383,-14.160,-38.574,-267.090,0.000
1606134446.211,60.547,-30.273,-18.066,237.793,0.000
1606134446.215,88.867,-21.973,-21.484,370.117,0.000
1606134446.218,-35.156,-31.250,-35.645,-55.176,0.000
1606134446.222,-142.090,-32.227,-42.480,-459.961,0.000
1606134446.226,-91.309,-34.668,-34.668,-316.406,0.000
1606134446.230,41.992,-34.180,-25.391,208.008,0.000
1606134446.234,84.961,-26.367,-22.461,395.508,0.000
1606134446.238,-19.531,-33.691,-22.949,15.137,0.000
1606134446.242,-138.184,-36.133,-25.391,-413.086,0.000
1606134446.246,-105.469,-19.043,-24.414,-339.355,0.000
1606134446.250,36.133,-9.277,-12.207,157.715,0.000
1606134446.254,86.914,-26.855,-14.648,399.414,0.000
1606134446.257,-14.648,-38.086,-34.668,79.102,0.000
1606134446.261,-134.766,-15.625,-37.598,-377.441,0.000
1606134446.265,-111.816,-20.020,-24.414,-375.977,0.000
1606134446.269,17.578,-30.762,-28.320,97.168,0.000
1606134446.273,75.684,-26.855,-40.527,391.602,0.000
1606134446.277,1.953,-34.180,-34.180,145.508,0.000
1606134446.281,-132.812,-39.062,-27.344,-336.426,0.000
1606134446.285,-153.320,-33.203,-27.832,-423.340,0.000
1606134446.289,-20.996,-22.949,-18.066,32.715,0.000
1606134446.293,76.172,-19.043,-15.625,415.527,0.000
1606134446.297,23.438,-27.832,-12.207,245.605,0.000
1606134446.300,-117.188,-16.113,-15.137,-271.973,0.000
1606134446.304,-155.273,-1.953,-24.902,-451.660,0.000
1606134446.308,-21.484,-16.602,-6.836,-36.133,0.000
1606134446.312,95.215,-26.367,-4.883,392.090,0.000
1606134446.316,50.781,-41.504,-14.648,281.250,0.000
1606134446.320,-87.891,-41.504,-21.973,-246.094,0.000
1606134446.324,-138.184,-30.273,-30.762,-467.285,0.000
1606134446.328,-38.574,-25.879,-26.855,-106.445,0.000
1606134446.332,82.520,-19.043,-23.438,346.191,0.000
1606134446.336,66.406,-27.832,-20.996,316.406,0.000
1606134446.340,-79.102,-8.789,-21.484,-192.871,0.000
1606134446.343,-152.344,-2.930,-24.414,-488.770,0.000
1606134446.347,-57.617,-30.762,-22.461,-182.617,0.000
1606134446.351,69.824,-29.297,-22.461,300.293,0.000
1606134446.355,66.895,-32.715,-26.367,328.613,0.000
1606134446.359,-66.895,-39.551,-27.344,-153.320,0.000
1606134446.363,-157.227,-44.434,-37.598,-504.395,0.000
1606134446.367,-78.125,-40.527,-33.203,-264.648,0.000
1606134446.371,72.266,-28.320,-17.090,277.832,0.000
1606134446.375,95.215,-24.902,-24.902,402.344,0.000
1606134446.379,-40.527,-32.227,-32.715,-62.012,0.000
1606134446.382,-156.250,-37.598,-41.016,-475.098,0.000
1606134446.386,-104.492,-33.691,-33.691,-304.199,0.000
1606134446.390,41.016,-26.367,-18.066,235.352,0.000
1606134446.394,76.660,-26.367,-19.043,424.316,0.000
1606134446.398,-41.504,-30.273,-29.785,21.973,0.000
1606134446.402,-159.180,-15.137,-36.621,-440.430,0.000
1606134446.406,-134.766,-20.996,-32.715,-358.398,0.000
1606134446.410,11.719,-35.645,-24.414,184.082,0.000
1606134446.414,83.496,-25.879,-22.949,441.895,0.000
1606134446.418,-16.602,-27.344,-20.508,99.121,0.000
1606134446.422,-139.160,-35.156,-22.461,-390.625,0.000
1606134446.425,-122.070,-38.574,-26.367,-402.344,0.000
1606134446.429,27.344,-28.320,-20.020,117.676,0.000
1606134446.433,114.258,-20.508,-11.719,451.660,0.000
1606134446.437,24.414,-27.832,-13.184,160.645,0.000
1606134446.441,-124.023,-21.484,-31.738,-367.676,0.000
1606134446.445,-138.184,-27.832,-43.457,-446.289,0.000
1606134446.449,-0.488,-28.320,-36.621,47.363,0.000
1606134446.453,93.262,-16.602,-28.809,430.664,0.000
1606134446.457,26.367,-22.461,-23.926,217.773,0.000
1606134446.461,-123.535,-32.227,-28.320,-328.613,0.000
1606134446.465,-158.203,-37.598,-24.414,-478.027,0.000
1606134446.468,-32.715,-31.250,-14.648,-35.156,0.000
1606134446.472,68.359,-24.414,-15.137,381.348,0.000
1606134446.476,19.531,-30.762,-18.555,246.094,0.000
1606134446.480,-128.906,-23.438,-15.137,-293.945,0.000
1606134446.484,-197.754,-14.160,-23.926,-535.156,0.000
1606134446.488,-90.820,-25.391,-25.391,-166.504,0.000
1606134446.492,23.438,-23.926,-11.719,306.641,0.000
1606134446.496,-18.555,-31.250,-18.555,247.559,0.000
1606134446.500,-178.223,-35.645,-22.461,-302.246,0.000
1606134446.504,-264.160,-41.016,-19.043,-604.980,0.000
1606134446.507,-185.547,-38.086,-10.742,-299.805,0.000
1606134446.511,-56.152,-11.230,-0.488,219.727,0.000
1606134446.515,-61.035,-13.184,-4.395,251.465,0.000
1606134446.519,-217.773,-31.250,-10.742,-277.344,0.000
1606134446.523,-312.988,-35.645,-18.066,-629.395,0.000
1606134446.527,-238.770,-28.809,-17.090,-372.559,0.000
1606134446.531,-98.633,-18.555,-12.207,149.902,0.000
1606134446.535,-81.055,-15.625,-10.254,235.352,0.000
1606134446.539,-214.844,-12.695,-13.184,-237.305,0.000
1606134446.543,-314.453,-17.090,-22.461,-638.672,0.000
1606134446.547,-251.465,-17.578,-20.996,-455.566,0.000
1606134446.550,-96.680,-5.859,-15.625,93.262,0.000
1606134446.554,-55.664,7.812,-17.578,256.836,0.000
1606134446.558,-172.852,9.766,-22.461,-166.504,0.000
1606134446.562,-274.902,-3.418,-27.344,-605.469,0.000
1606134446.566,-232.422,-4.883,-26.855,-504.883,0.000
1606134446.570,-79.590,8.789,-20.508,39.551,0.000
1606134446.574,-16.113,16.602,-19.531,295.898,0.000
1606134446.578,-123.535,3.418,-25.879,-77.148,0.000
1606134446.582,-250.000,7.812,-30.273,-571.777,0.000
1606134446.586,-228.027,7.812,-28.809,-536.621,0.000
1606134446.590,-70.312,8.789,-26.855,0.977,0.000
1606134446.593,8.301,23.438,-33.203,309.570,0.000
1606134446.597,-85.449,13.184,-39.551,16.602,0.000
1606134446.601,-221.680,-4.883,-41.992,-474.121,0.000
1606134446.605,-227.539,-12.207,-35.156,-518.066,0.000
1606134446.609,-84.473,1.465,-24.902,-28.809,0.000
1606134446.613,9.766,-0.488,-23.926,319.336,0.000
1606134446.617,-54.688,-13.184,-31.738,106.934,0.000
1606134446.621,-196.289,-9.277,-43.945,-381.348,0.000
1606134446.625,-217.773,-7.324,-37.109,-493.164,0.000
1606134446.629,-82.031,-15.625,-27.832,-47.852,0.000
1606134446.632,27.832,-14.160,-21.973,342.285,0.000
1606134446.636,-4.395,-22.461,-21.484,192.871,0.000
1606134446.640,-131.348,-40.039,-25.391,-291.992,0.000
1606134446.644,-173.828,-41.504,-33.203,-454.590,0.000
1606134446.648,-62.500,-32.227,-25.391,-62.500,0.000
1606134446.652,58.105,-35.645,-16.113,375.000,0.000
1606134446.656,37.109,-45.410,-28.320,300.781,0.000
1606134446.660,-83.008,-52.734,-35.645,-183.594,0.000
1606134446.664,-123.047,-55.664,-28.809,-395.020,0.000
1606134446.668,-19.531,-42.480,-26.855,-56.152,0.000
1606134446.672,110.840,-35.156,-24.414,391.602,0.000
1606134446.675,111.816,-49.316,-21.973,380.859,0.000
1606134446.679,-15.137,-37.598,-30.762,-106.445,0.000
1606134446.683,-80.078,-24.414,-42.969,-407.715,0.000
1606134446.687,11.230,-48.828,-39.551,-128.418,0.000
1606134446.691,145.996,-50.781,-25.879,361.816,0.000
1606134446.695,163.574,-47.852,-21.973,430.664,0.000
1606134446.699,46.875,-53.711,-35.156,-14.160,0.000
1606134446.703,-42.969,-66.895,-50.781,-368.652,0.000
1606134446.707,16.113,-70.312,-49.805,-181.641,0.000
1606134446.711,149.902,-49.316,-36.133,324.707,0.000
1606134446.715,180.176,-45.898,-32.227,465.820,0.000
1606134446.718,58.594,-42.480,-38.574,37.109,0.000
1606134446.722,-47.363,-35.156,-39.062,-369.141,0.000
1606134446.726,-0.977,-45.898,-43.945,-237.793,0.000
1606134446.730,135.742,-38.574,-39.551,282.715,0.000
1606134446.734,174.805,-34.668,-34.668,479.980,0.000
1606134446.738,70.801,-37.109,-39.062,105.469,0.000
1606134446.742,-46.875,-43.457,-45.410,-335.449,0.000
1606134446.746,-30.273,-54.688,-44.434,-276.367,0.000
1606134446.750,107.422,-47.852,-30.273,234.375,0.000
1606134446.754,165.527,-40.527,-28.320,484.375,0.000
1606134446.757,70.801,-41.992,-27.832,169.922,0.000
1606134446.761,-51.270,-35.156,-28.809,-299.316,0.000
1606134446.765,-52.246,-36.621,-36.621,-321.777,0.000
1606134446.769,80.078,-41.504,-38.086,153.809,0.000
1606134446.773,164.062,-35.156,-28.320,461.914,0.000
1606134446.777,83.008,-34.180,-25.391,214.355,0.000
1606134446.781,-63.965,-41.016,-41.992,-285.645,0.000
1606134446.785,-76.172,-41.016,-41.504,-379.883,0.000
1606134446.789,66.406,-32.715,-19.043,79.102,0.000
1606134446.793,156.738,-26.855,-17.578,458.496,0.000
1606134446.797,91.797,-29.297,-26.855,277.832,0.000
1606134446.800,-46.875,-31.250,-30.762,-250.977,0.000
1606134446.804,-81.543,-34.180,-29.785,-418.945,0.000
1606134446.808,41.504,-31.738,-21.484,5.371,0.000
1606134446.812,146.973,-25.391,-22.949,426.758,0.000
1606134446.816,105.957,-31.738,-28.809,316.895,0.000
1606134446.820,-41.992,-29.785,-32.227,-210.449,0.000
1606134446.824,-97.168,-32.227,-33.691,-447.754,0.000
1606134446.828,17.090,-40.527,-21.973,-80.078,0.000
1606134446.832,141.602,-33.691,-15.137,399.414,0.000
1606134446.836,117.676,-34.668,-18.555,376.465,0.000
1606134446.840,-31.738,-37.109,-26.855,-148.438,0.000
1606134446.843,-104.492,-44.922,-32.715,-454.590,0.000
1606134446.847,-21.973,-43.457,-23.438,-159.180,0.000
1606134446.851,110.840,-20.508,-14.648,353.516,0.000
1606134446.855,114.746,-17.578,-24.902,416.992,0.000
1606134446.859,-31.250,-23.438,-42.969,-82.031,0.000
1606134446.863,-130.371,-17.090,-45.898,-449.707,0.000
1606134446.867,-69.824,-31.250,-36.621,-229.004,0.000
1606134446.871,75.684,-34.180,-27.344,293.457,0.000
1606134446.875,102.539,-29.297,-25.391,423.340,0.000
1606134446.879,-38.086,-39.062,-33.691,-28.809,0.000
1606134446.882,-144.043,-40.039,-41.504,-440.918,0.000
1606134446.886,-81.543,-32.227,-32.227,-285.645,0.000
1606134446.890,56.152,-21.973,-16.602,250.977,0.000
1606134446.894,98.633,-21.484,-11.719,444.824,0.000
1606134446.898,-13.184,-34.668,-23.438,44.922,0.000
1606134446.902,-144.531,-42.480,-33.203,-415.039,0.000
1606134446.906,-111.816,-43.457,-30.762,-346.191,0.000
1606134446.910,39.551,-36.621,-24.902,186.523,0.000
1606134446.914,103.027,-33.203,-16.602,437.012,0.000
1606134446.918,3.418,-40.039,-21.484,97.656,0.000
1606134446.922,-122.559,-38.574,-27.344,-389.648,0.000
1606134446.925,-111.816,-36.133,-24.414,-395.020,0.000
1606134446.929,20.508,-33.691,-19.043,122.070,0.000
1606134446.933,97.168,-28.809,-18.555,442.383,0.000
1606134446.937,15.137,-35.156,-22.949,171.875,0.000
1606134446.941,-134.277,-37.598,-32.715,-358.398,0.000
1606134446.945,-147.461,-40.039,-33.691,-450.195,0.000
1606134446.949,4.883,-41.504,-26.367,48.828,0.000
1606134446.953,113.281,-31.738,-20.508,434.570,0.000
1606134446.957,49.316,-26.855,-17.090,227.051,0.000
1606134446.961,-104.980,-9.766,-24.902,-310.059,0.000
1606134446.965,-125.000,-8.301,-31.250,-449.219,0.000
1606134446.968,12.695,-20.508,-23.926,12.207,0.000
1606134446.972,107.910,-21.973,-21.484,437.500,0.000
1606134446.976,63.965,-31.250,-18.066,296.875,0.000
1606134446.980,-76.172,-36.621,-23.926,-246.094,0.000
1606134446.984,-139.160,-38.086,-33.691,-466.797,0.000
1606134446.988,-28.809,-34.668,-25.391,-62.500,0.000
1606134446.992,99.121,-30.273,-9.277,420.410,0.000
1606134446.996,76.660,-25.879,-3.906,376.465,0.000
1606134447.000,-75.684,-36.133,-23.438,-174.316,0.000
1606134447.004,-149.902,-42.969,-34.668,-484.863,0.000
1606134447.007,-51.270,-33.691,-26.855,-143.066,0.000
1606134447.011,86.914,-27.832,-21.484,369.629,0.000
1606134447.015,84.473,-27.832,-24.902,383.789,0.000
1606134447.019,-55.176,-30.273,-29.785,-134.277,0.000
1606134447.023,-136.230,-31.250,-30.273,-483.398,0.000
1606134447.027,-66.406,-29.297,-33.691,-225.098,0.000
1606134447.031,71.777,-33.203,-29.297,300.781,0.000
1606134447.035,90.820,-36.133,-17.090,395.996,0.000
1606134447.039,-46.875,-24.902,-27.832,-70.312,0.000
1606134447.043,-144.043,-20.020,-35.645,-454.102,0.000
1606134447.047,-88.379,-27.832,-33.691,-293.457,0.000
1606134447.050,54.688,-20.508,-31.738,220.703,0.000
1606134447.054,98.145,-13.184,-25.879,398.926,0.000
1606134447.058,-25.391,-23.438,-36.621,-9.766,0.000
1606134447.062,-137.695,-38.086,-45.410,-437.988,0.000
1606134447.066,-89.844,-31.738,-36.621,-335.938,0.000
1606134447.070,47.363,-26.855,-30.273,186.035,0.000
1606134447.074,103.516,-27.344,-26.855,422.852,0.000
1606134447.078,2.441,-33.203,-30.273,67.871,0.000
1606134447.082,-131.836,-44.434,-41.504,-396.484,0.000
1606134447.086,-114.746,-41.504,-40.527,-364.258,0.000
1606134447.090,28.809,-23.438,-31.738,131.348,0.000
1606134447.093,97.656,-16.113,-19.043,405.762,0.000
1606134447.097,9.277,-30.273,-19.043,125.977,0.000
1606134447.101,-118.652,-30.273,-37.109,-346.680,0.000
1606134447.105,-114.746,-23.438,-38.086,-392.578,0.000
1606134447.109,17.578,-21.973,-24.902,77.637,0.000
1606134447.113,97.168,-17.578,-16.113,408.691,0.000
1606134447.117,33.203,-23.438,-22.949,185.547,0.000
1606134447.121,-98.633,-34.180,-27.832,-292.969,0.000
1606134447.125,-125.488,-40.039,-20.996,-394.531,0.000
1606134447.129,-2.441,-38.086,-17.578,26.855,0.000
1606134447.132,93.262,-27.832,-15.625,396.484,0.000
1606134447.136,39.551,-24.902,-12.695,254.395,0.000
1606134447.140,-109.375,-42.969,-31.738,-254.883,0.000
1606134447.144,-142.090,-41.992,-42.969,-462.891,0.000
1606134447.148,-22.461,-26.855,-30.273,-79.102,0.000
1606134447.152,79.102,-26.367,-21.973,354.004,0.000
1606134447.156,48.340,-27.832,-20.996,278.809,0.000
1606134447.160,-88.867,-28.320,-24.414,-223.633,0.000
1606134447.164,-145.020,-26.855,-27.344,-454.102,0.000
1606134447.168,-41.504,-20.020,-19.043,-108.398,0.000
1606134447.172,86.914,-15.625,-14.648,339.844,0.000
1606134447.175,70.801,-18.066,-17.578,326.172,0.000
1606134447.179,-78.125,-26.855,-30.762,-156.250,0.000
1606134447.183,-152.832,-36.133,-41.016,-458.984,0.000
1606134447.187,-69.824,-32.227,-33.203,-187.988,0.000
1606134447.191,48.340,-14.648,-25.879,296.387,0.000
1606134447.195,61.035,-12.695,-28.809,337.402,0.000
1606134447.199,-52.734,-16.113,-39.062,-122.070,0.000
1606134447.203,-148.926,-25.879,-43.945,-464.844,0.000
1606134447.207,-94.727,-37.598,-36.621,-267.578,0.000
1606134447.211,47.363,-23.926,-20.508,243.652,0.000
1606134447.215,83.008,-23.926,-17.578,403.809,0.000
1606134447.218,-32.715,-32.227,-38.086,-19.043,0.000
1606134447.222,-140.625,-29.785,-42.480,-440.430,0.000
1606134447.226,-96.191,-26.367,-28.809,-310.059,0.000
1606134447.230,56.641,-15.137,-24.902,219.238,0.000
1606134447.234,113.770,-19.043,-27.344,441.895,0.000
1606134447.238,10.254,-25.391,-38.574,58.594,0.000
1606134447.242,-109.375,-10.254,-46.875,-408.691,0.000
1606134447.246,-76.660,-12.695,-45.410,-340.820,0.000
1606134447.250,67.871,-21.484,-30.762,184.570,0.000
1606134447.254,128.418,-20.020,-23.438,447.754,0.000
1606134447.257,39.062,-21.973,-36.133,136.719,0.000
1606134447.261,-96.191,-29.297,-43.945,-339.355,0.000
1606134447.265,-93.750,-31.738,-42.969,-369.629,0.000
1606134447.269,41.992,-25.391,-32.715,111.328,0.000
1606134447.273,121.094,-20.996,-19.043,440.918,0.000
1606134447.277,44.434,-23.926,-28.809,194.336,0.000
1606134447.281,-99.609,-34.668,-43.945,-316.406,0.000
1606134447.285,-120.605,-42.969,-44.922,-410.645,0.000
1606134447.289,8.789,-29.785,-31.738,49.805,0.000
1606134447.293,109.863,-18.555,-22.949,430.176,0.000
1606134447.297,54.688,-23.438,-25.879,253.418,0.000
1606134447.300,-85.938,-33.203,-37.598,-273.438,0.000
1606134447.304,-116.211,-36.133,-37.598,-443.359,0.000
1606134447.308,2.441,-23.438,-24.414,-23.438,0.000
1606134447.312,110.352,-18.555,-21.973,408.691,0.000
1606134447.316,71.289,-25.879,-26.367,299.805,0.000
1606134447.320,-69.824,-26.367,-29.297,-224.121,0.000
1606134447.324,-116.699,-24.902,-26.855,-444.336,0.000
1606134447.328,-22.949,-27.832,-30.762,-99.609,0.000
1606134447.332,92.285,-21.484,-29.785,351.562,0.000
1606134447.336,81.055,-23.438,-27.344,340.820,0.000
1606134447.340,-59.082,-30.762,-33.691,-150.391,0.000
1606134447.343,-128.418,-27.344,-35.156,-457.520,0.000
1606134447.347,-33.203,-23.438,-25.391,-165.527,0.000
1606134447.351,109.863,-11.719,-12.695,339.844,0.000
1606134447.355,108.398,-17.578,-17.090,392.578,0.000
1606134447.359,-42.969,-32.715,-30.273,-93.750,0.000
1606134447.363,-135.742,-36.133,-32.227,-453.125,0.000
1606134447.367,-64.941,-33.203,-30.762,-233.398,0.000
1606134447.371,75.684,-21.973,-27.344,280.273,0.000
1606134447.375,96.191,-26.855,-25.391,399.902,0.000
1606134447.379,-39.062,-31.738,-27.344,-47.852,0.000
1606134447.382,-146.484,-24.414,-22.461,-453.613,0.000
1606134447.386,-87.402,-29.297,-13.672,-288.574,0.000
1606134447.390,67.871,-26.367,-11.230,249.512,0.000
1606134447.394,108.398,-25.391,-16.602,428.223,0.000
1606134447.398,-13.184,-32.227,-22.949,25.391,0.000
1606134447.402,-133.301,-39.551,-35.645,-418.945,0.000
1606134447.406,-113.770,-40.527,-42.969,-351.562,0.000
1606134447.410,36.133,-33.691,-36.133,169.434,0.000
1606134447.414,105.469,-28.809,-35.156,433.105,0.000
1606134447.418,0.000,-30.273,-37.598,97.656,0.000
1606134447.422,-129.883,-15.137,-44.434,-390.625,0.000
1606134447.425,-119.141,-17.090,-44.922,-409.180,0.000
1606134447.429,27.344,-35.156,-20.996,105.957,0.000
1606134447.433,106.934,-23.926,-12.207,438.477,0.000
1606134447.437,26.367,-25.391,-20.020,168.457,0.000
1606134447.441,-111.816,-39.062,-23.438,-348.145,0.000
1606134447.445,-126.953,-41.992,-22.949,-439.453,0.000
1606134447.449,14.160,-29.785,-25.391,36.133,0.000
1606134447.453,118.652,-24.414,-27.344,421.875,0.000
1606134447.457,52.734,-28.320,-25.391,228.027,0.000
1606134447.461,-103.516,-35.645,-27.344,-296.875,0.000
1606134447.465,-135.254,-36.621,-27.832,-445.801,0.000
1606134447.468,-7.324,-26.855,-21.973,-24.414,0.000
1606134447.472,104.980,-17.090,-13.672,396.973,0.000
1606134447.476,60.547,-24.414,-24.414,279.297,0.000
1606134447.480,-83.008,-35.156,-29.297,-240.723,0.000
1606134447.484,-127.441,-34.180,-23.926,-473.633,0.000
1606134447.488,-20.020,-29.297,-24.902,-105.957,0.000
1606134447.492,91.309,-25.391,-25.879,359.375,0.000
1606134447.496,56.152,-24.902,-19.043,313.477,0.000
1606134447.500,-90.332,-35.156,-22.949,-202.637,0.000
1606134447.504,-148.438,-38.574,-22.461,-469.238,0.000
1606134447.507,-48.828,-25.391,-11.719,-155.273,0.000
1606134447.511,77.637,-11.230,-13.184,325.684,0.000
1606134447.515,78.613,-15.625,-9.766,358.398,0.000
1606134447.519,-68.359,-28.320,-26.855,-147.949,0.000
1606134447.523,-162.109,-20.996,-43.945,-480.469,0.000
1606134447.527,-80.078,-21.973,-27.832,-215.332,0.000
1606134447.531,46.387,-25.879,-16.602,287.109,0.000
1606134447.535,59.570,-24.902,-8.301,384.766,0.000
1606134447.539,-66.895,-33.691,-11.719,-84.473,0.000
1606134447.543,-170.898,-37.598,-31.738,-482.910,0.000
1606134447.547,-110.840,-32.715,-30.762,-306.152,0.000
1606134447.550,37.598,-26.367,-17.090,220.215,0.000
1606134447.554,81.543,-22.949,-15.625,403.809,0.000
1606134447.558,-34.180,-25.391,-31.738,-0.977,0.000
1606134447.562,-153.320,-35.156,-44.434,-453.125,0.000
1606134447.566,-111.816,-40.039,-35.156,-355.469,0.000
1606134447.570,42.969,-29.785,-19.043,188.477,0.000
1606134447.574,100.098,-19.531,-16.113,421.875,0.000
1606134447.578,-8.789,-24.902,-24.902,69.336,0.000
1606134447.582,-127.441,-27.344,-28.809,-412.598,0.000
1606134447.586,-113.281,-20.020,-33.203,-418.457,0.000
1606134447.590,23.438,-11.230,-33.691,108.887,0.000
1606134447.593,102.051,-11.230,-14.160,432.129,0.000
1606134447.597,18.555,-23.926,-20.508,135.254,0.000
1606134447.601,-120.605,-34.668,-44.922,-384.277,0.000
1606134447.605,-137.207,-35.645,-41.504,-442.383,0.000
1606134447.609,-0.977,-26.367,-24.414,58.594,0.000
1606134447.613,96.680,-17.090,-16.602,428.711,0.000
1606134447.617,23.438,-25.391,-21.973,197.754,0.000
1606134447.621,-122.070,-21.973,-29.297,-329.590,0.000
1606134447.625,-146.973,-15.625,-26.855,-451.172,0.000
1606134447.629,-16.602,-25.879,-20.996,-1.953,0.000
1606134447.632,92.773,-25.391,-18.555,412.598,0.000
1606134447.636,47.852,-28.809,-19.043,280.273,0.000
1606134447.640,-100.586,-33.203,-26.367,-248.047,0.000
1606134447.644,-157.227,-33.691,-26.367,-465.820,0.000
1606134447.648,-45.898,-36.133,-18.066,-71.289,0.000
1606134447.652,90.820,-23.926,-13.184,395.020,0.000
1606134447.656,66.895,-24.414,-16.113,308.594,0.000
1606134447.660,-104.004,-20.020,-24.414,-240.234,0.000
1606134447.664,-186.035,-17.090,-35.156,-512.695,0.000
1606134447.668,-73.242,-25.879,-28.320,-173.340,0.000
1606134447.672,64.941,-20.020,-16.602,312.988,0.000
1606134447.675,55.176,-20.996,-22.949,312.988,0.000
1606134447.679,-78.125,-28.809,-33.203,-187.500,0.000
1606134447.683,-151.367,-36.133,-39.062,-486.816,0.000
1606134447.687,-63.477,-34.180,-33.691,-213.379,0.000
1606134447.691,75.684,-19.531,-20.020,284.180,0.000
1606134447.695,91.309,-9.766,-17.578,364.746,0.000
1606134447.699,-39.551,-16.602,-30.762,-91.309,0.000
1606134447.703,-145.996,-23.438,-38.574,-463.867,0.000
1606134447.707,-87.891,-27.832,-27.832,-286.133,0.000
1606134447.711,51.270,-27.832,-21.484,219.238,0.000
1606134447.715,82.520,-28.809,-25.879,384.766,0.000
1606134447.718,-28.809,-31.250,-27.832,-17.578,0.000
1606134447.722,-141.602,-34.180,-31.738,-441.895,0.000
1606134447.726,-105.957,-32.715,-26.855,-329.102,0.000
1606134447.730,43.457,-20.508,-18.555,197.754,0.000
1606134447.734,91.797,-14.160,-21.973,409.668,0.000
1606134447.738,-22.461,-18.555,-28.320,35.156,0.000
1606134447.742,-148.438,-27.832,-34.668,-416.992,0.000
1606134447.746,-123.535,-32.227,-33.203,-370.117,0.000
1606134447.750,21.484,-24.902,-25.391,141.113,0.000
1606134447.754,85.938,-24.902,-19.043,421.875,0.000
1606134447.757,-7.812,-39.062,-18.555,120.605,0.000
1606134447.761,-135.254,-25.879,-27.832,-365.234,0.000
1606134447.765,-126.465,-24.902,-30.273,-414.551,0.000
1606134447.769,16.602,-34.668,-22.949,79.590,0.000
1606134447.773,106.445,-26.855,-22.949,437.012,0.000
1606134447.777,39.551,-29.785,-22.461,195.312,0.000
1606134447.781,-110.840,-37.598,-26.855,-333.496,0.000
1606134447.785,-132.812,-36.621,-33.203,-440.918,0.000
1606134447.789,16.602,-21.973,-18.066,25.391,0.000
1606134447.793,125.488,-18.066,-14.648,436.523,0.000
1606134447.797,64.453,-26.367,-20.996,269.043,0.000
1606134447.800,-92.773,-27.344,-23.438,-283.203,0.000
1606134447.804,-132.812,-31.250,-34.180,-460.938,0.000
1606134447.808,-3.418,-28.320,-25.879,-48.340,0.000
1606134447.812,113.281,-22.461,-13.672,389.160,0.000
1606134447.816,78.125,-22.461,-16.113,313.965,0.000
1606134447.820,-77.637,-25.879,-28.320,-226.562,0.000
1606134447.824,-147.949,-31.250,-41.016,-500.000,0.000
1606134447.828,-42.969,-29.785,-34.180,-142.578,0.000
1606134447.832,92.773,-17.578,-23.438,351.562,0.000
1606134447.836,83.496,-17.578,-25.391,344.238,0.000
1606134447.840,-82.031,-16.602,-27.832,-176.758,0.000
1606134447.843,-167.969,-15.137,-37.598,-485.352,0.000
1606134447.847,-78.613,-35.156,-32.227,-200.195,0.000
1606134447.851,56.641,-30.762,-28.809,290.039,0.000
1606134447.855,72.266,-23.926,-28.809,349.609,0.000
1606134447.859,-69.336,-30.273,-24.414,-108.398,0.000
1606134447.863,-165.527,-38.574,-35.156,-458.496,0.000
1606134447.867,-94.727,-33.203,-35.645,-245.605,0.000
1606134447.871,60.547,-16.602,-25.879,274.414,0.000
1606134447.875,96.680,-12.207,-18.066,407.715,0.000
1606134447.879,-39.551,-22.949,-24.414,-16.113,0.000
1606134447.882,-156.738,-32.715,-33.691,-429.688,0.000
1606134447.886,-107.422,-24.902,-20.996,-301.758,0.000
1606134447.890,45.898,-10.254,-9.277,221.680,0.000
1606134447.894,89.844,-13.672,-21.973,413.086,0.000
1606134447.898,-30.273,-27.832,-36.621,20.020,0.000
1606134447.902,-159.180,-20.508,-37.109,-424.316,0.000
1606134447.906,-129.395,-20.020,-30.762,-366.699,0.000
1606134447.910,23.438,-25.391,-29.297,147.461,0.000
1606134447.914,84.961,-20.996,-27.344,423.340,0.000
1606134447.918,-5.371,-27.344,-23.438,101.562,0.000
1606134447.922,-131.836,-35.156,-25.879,-394.043,0.000
1606134447.925,-133.301,-37.109,-26.367,-426.270,0.000
1606134447.929,8.789,-31.738,-20.996,95.215,0.000
1606134447.933,99.609,-18.066,-20.996,446.289,0.000
1606134447.937,21.484,-19.531,-25.879,168.945,0.000
1606134447.941,-122.070,-29.785,-38.086,-356.445,0.000
1606134447.945,-136.719,-36.133,-36.621,-448.730,0.000
1606134447.949,4.883,-32.227,-23.438,31.738,0.000
1606134447.953,103.516,-21.973,-18.066,427.246,0.000
1606134447.957,41.504,-24.414,-23.926,231.445,0.000
1606134447.961,-97.168,-32.715,-31.738,-309.082,0.000
1606134447.965,-130.371,-34.668,-35.156,-463.867,0.000
1606134447.968,-14.160,-28.809,-38.086,-40.527,0.000
1606134447.972,98.633,-24.414,-28.809,377.441,0.000
1606134447.976,56.641,-28.809,-19.531,276.367,0.000
1606134447.980,-101.562,-37.598,-28.320,-233.398,0.000
1606134447.984,-157.715,-39.551,-36.621,-472.656,0.000
1606134447.988,-43.457,-26.367,-26.855,-112.305,0.000
1606134447.992,78.125,-17.578,-17.090,349.609,0.000
1606134447.996,60.547,-16.113,-11.230,313.477,0.000
1606134448.000,-83.984,-25.879,-19.531,-194.824,0.000
1606134448.004,-153.320,-40.039,-25.879,-472.656,0.000
1606134448.007,-61.035,-36.621,-28.320,-168.945,0.000
1606134448.011,70.312,-22.949,-24.902,307.617,0.000
1606134448.015,71.289,-23.926,-22.461,339.844,0.000
1606134448.019,-63.477,-26.855,-27.344,-136.230,0.000
1606134448.023,-148.926,-22.949,-28.809,-458.008,0.000
1606134448.027,-77.637,-25.879,-36.621,-223.633,0.000
1606134448.031,60.547,-21.973,-36.621,270.996,0.000
1606134448.035,74.707,-19.043,-28.320,357.910,0.000
1606134448.039,-51.270,-22.461,-33.203,-90.820,0.000
1606134448.043,-147.461,-30.273,-40.039,-458.496,0.000
1606134448.047,-87.891,-29.297,-29.785,-289.551,0.000
1606134448.050,62.500,-15.625,-20.508,232.422,0.000
1606134448.054,95.703,-16.602,-21.973,411.621,0.000
1606134448.058,-23.438,-27.832,-22.949,10.742,0.000
1606134448.062,-133.301,-37.598,-18.555,-431.641,0.000
1606134448.066,-104.004,-35.156,-25.879,-359.863,0.000
1606134448.070,46.387,-22.461,-28.320,170.898,0.000
1606134448.074,112.305,-13.184,-21.484,431.641,0.000
1606134448.078,0.977,-14.160,-24.414,73.242,0.000
1606134448.082,-136.719,-18.066,-35.645,-425.781,0.000
1606134448.086,-131.348,-24.902,-35.156,-421.875,0.000
1606134448.090,11.230,-26.855,-33.203,103.027,0.000
1606134448.093,98.145,-21.484,-31.250,418.945,0.000
1606134448.097,10.742,-27.344,-27.832,131.348,0.000
1606134448.101,-140.625,-39.062,-30.273,-374.023,0.000
1606134448.105,-151.367,-39.551,-28.320,-436.035,0.000
1606134448.109,-9.277,-33.203,-18.555,49.316,0.000
1606134448.113,85.938,-28.809,-15.625,425.781,0.000
1606134448.117,20.996,-30.762,-29.785,216.309,0.000
1606134448.121,-121.094,-27.832,-37.598,-314.941,0.000
1606134448.125,-152.832,-26.367,-28.809,-458.984,0.000
1606134448.129,-23.926,-27.832,-16.602,-13.184,0.000
1606134448.132,83.984,-22.461,-16.113,408.203,0.000
1606134448.136,33.203,-29.785,-23.926,270.020,0.000
1606134448.140,-117.188,-40.039,-32.715,-266.113,0.000
1606134448.144,-161.133,-38.574,-35.645,-473.633,0.000
1606134448.148,-43.457,-27.832,-30.762,-87.402,0.000
1606134448.152,83.984,-14.648,-30.762,368.652,0.000
1606134448.156,58.105,-22.461,-33.691,305.664,0.000
1606134448.160,-93.262,-38.086,-40.039,-221.680,0.000
1606134448.164,-155.273,-37.109,-36.133,-483.887,0.000
1606134448.168,-42.480,-25.391,-26.367,-139.160,0.000
1606134448.172,81.055,-16.602,-25.391,336.426,0.000
1606134448.175,62.988,-19.531,-28.809,332.031,0.000
1606134448.179,-67.871,-19.531,-34.668,-171.875,0.000
1606134448.183,-148.926,-8.301,-39.062,-502.441,0.000
1606134448.187,-70.801,-17.090,-24.414,-234.863,0.000
1606134448.191,74.219,-20.508,-10.742,284.180,0.000
1606134448.195,86.914,-19.531,-23.926,366.699,0.000
1606134448.199,-50.781,-38.086,-32.227,-94.727,0.000
1606134448.203,-146.484,-44.922,-33.691,-467.773,0.000
1606134448.207,-87.402,-34.180,-36.621,-284.180,0.000
1606134448.211,57.129,-19.531,-28.320,247.559,0.000
1606134448.215,95.703,-15.625,-19.531,416.992,0.000
1606134448.218,-32.715,-23.438,-28.320,-9.277,0.000
1606134448.222,-157.227,-27.832,-34.180,-447.754,0.000
1606134448.226,-111.816,-31.250,-20.996,-334.473,0.000
1606134448.230,50.781,-15.137,-11.719,213.867,0.000
1606134448.234,104.980,-10.742,-15.137,447.266,0.000
1606134448.238,-11.719,-27.344,-26.367,66.895,0.000
1606134448.242,-136.719,-32.227,-28.809,-403.320,0.000
1606134448.246,-109.375,-30.273,-29.297,-366.699,0.000
1606134448.250,43.945,-21.973,-24.902,161.133,0.000
1606134448.254,109.375,-23.438,-23.926,450.684,0.000
1606134448.257,-2.441,-29.297,-23.438,122.070,0.000
1606134448.261,-148.438,-7.324,-25.391,-367.188,0.000
1606134448.265,-142.578,-16.602,-35.156,-410.156,0.000
1606134448.269,0.488,-35.156,-21.484,65.430,0.000
1606134448.273,96.680,-23.926,-12.207,423.340,0.000
1606134448.277,36.133,-29.297,-22.949,184.570,0.000
1606134448.281,-119.629,-41.992,-31.250,-345.703,0.000
1606134448.285,-142.090,-45.410,-23.926,-465.332,0.000
1606134448.289,7.324,-30.762,-18.066,11.719,0.000
1606134448.293,116.699,-15.625,-20.020,431.152,0.000
1606134448.297,66.406,-20.020,-26.855,254.883,0.000
1606134448.300,-81.543,-28.320,-31.250,-290.527,0.000
1606134448.304,-128.906,-26.855,-23.926,-469.727,0.000
1606134448.308,-8.789,-17.090,-20.020,-50.293,0.000
1606134448.312,110.352,-12.207,-18.555,386.230,0.000
1606134448.316,77.148,-25.391,-19.531,291.992,0.000
1606134448.320,-82.031,-20.996,-32.227,-255.371,0.000
1606134448.324,-149.902,-18.555,-33.691,-512.695,0.000
1606134448.328,-43.945,-33.691,-26.855,-144.043,0.000
1606134448.332,82.520,-28.809,-19.043,354.492,0.000
1606134448.336,63.477,-38.574,-9.277,346.191,0.000
1606134448.340,-86.914,-44.922,-12.695,-167.969,0.000
1606134448.343,-160.645,-41.016,-20.996,-481.934,0.000
1606134448.347,-67.871,-40.039,-20.508,-202.637,0.000
1606134448.351,81.055,-32.227,-12.695,315.918,0.000
1606134448.355,97.656,-21.973,-6.348,404.297,0.000
1606134448.359,-49.316,-20.508,-25.879,-81.543,0.000
1606134448.363,-147.461,-18.555,-32.227,-468.262,0.000
1606134448.367,-74.219,-30.273,-26.855,-247.559,0.000
1606134448.371,72.266,-35.156,-28.809,273.438,0.000
1606134448.375,93.750,-34.180,-22.461,397.461,0.000
1606134448.379,-37.109,-42.480,-19.043,-30.762,0.000
1606134448.382,-145.020,-45.410,-23.926,-434.082,0.000
1606134448.386,-83.984,-40.039,-15.625,-294.922,0.000
1606134448.390,58.594,-28.809,-14.160,222.656,0.000
1606134448.394,98.145,-25.879,-23.926,416.016,0.000
1606134448.398,-7.812,-31.250,-28.320,31.738,0.000
1606134448.402,-131.836,-35.156,-26.367,-419.434,0.000
1606134448.406,-106.934,-36.133,-29.785,-373.535,0.000
1606134448.410,35.156,-29.297,-40.039,148.926,0.000
1606134448.414,106.445,-21.973,-37.598,423.340,0.000
1606134448.418,22.949,-19.531,-31.738,102.539,0.000
1606134448.422,-114.258,-32.715,-41.504,-395.996,0.000
1606134448.425,-121.094,-35.156,-46.387,-434.570,0.000
1606134448.429,29.297,-20.996,-25.879,83.984,0.000
1606134448.433,120.117,-17.090,-13.184,445.801,0.000
1606134448.437,30.273,-19.043,-18.066,187.500,0.000
1606134448.441,-125.000,-23.926,-28.320,-356.934,0.000
1606134448.445,-137.207,-26.367,-24.414,-459.961,0.000
1606134448.449,11.719,-17.578,-14.648,39.551,0.000
1606134448.453,121.094,-7.812,-9.277,449.219,0.000
1606134448.457,58.594,-19.043,-12.207,246.094,0.000
1606134448.461,-103.027,-15.625,-28.320,-306.641,0.000
1606134448.465,-142.578,0.000,-34.180,-469.727,0.000
1606134448.468,-19.043,-17.090,-26.855,-39.062,0.000
1606134448.472,88.867,-22.949,-18.066,408.203,0.000
1606134448.476,45.898,-23.926,-18.555,299.316,0.000
1606134448.480,-106.934,-31.738,-31.250,-250.000,0.000
1606134448.484,-155.762,-31.738,-35.156,-479.980,0.000
1606134448.488,-38.086,-28.809,-21.973,-114.258,0.000
1606134448.492,79.590,-26.855,-17.090,352.539,0.000
1606134448.496,70.312,-30.762,-24.414,332.520,0.000
1606134448.500,-69.336,-24.414,-32.715,-178.223,0.000
1606134448.504,-156.738,-20.996,-37.109,-471.680,0.000
1606134448.507,-58.105,-32.715,-29.785,-169.434,0.000
1606134448.511,81.055,-28.809,-18.066,322.266,0.000
1606134448.515,79.590,-28.320,-19.531,355.469,0.000
1606134448.519,-55.664,-39.062,-34.668,-126.465,0.000
1606134448.523,-146.484,-44.434,-45.410,-455.078,0.000
1606134448.527,-72.754,-35.156,-44.434,-223.145,0.000
1606134448.531,67.383,-26.367,-31.738,260.742,0.000
1606134448.535,83.008,-33.691,-24.414,357.422,0.000
1606134448.539,-50.781,-29.297,-30.273,-72.754,0.000
1606134448.543,-144.531,-13.184,-40.039,-439.941,0.000
1606134448.547,-91.797,-30.273,-38.574,-284.668,0.000
1606134448.550,41.504,-30.762,-29.785,196.777,0.000
1606134448.554,82.520,-30.762,-27.832,349.121,0.000
1606134448.558,-25.391,-28.809,-34.180,-17.578,0.000
1606134448.562,-127.441,-18.066,-37.109,-400.391,0.000
1606134448.566,-88.379,-30.273,-25.879,-312.012,0.000
1606134448.570,34.180,-26.855,-21.973,167.480,0.000
1606134448.574,81.543,-17.578,-21.973,392.090,0.000
1606134448.578,-15.625,-28.809,-20.996,66.895,0.000
1606134448.582,-134.766,-34.668,-30.762,-385.254,0.000
1606134448.586,-112.305,-25.879,-26.855,-368.164,0.000
1606134448.590,20.996,-19.043,-17.090,123.047,0.000
1606134448.593,86.914,-16.602,-25.391,399.902,0.000
1606134448.597,6.348,-23.926,-33.691,122.559,0.000
1606134448.601,-118.164,-11.230,-34.668,-350.098,0.000
1606134448.605,-129.395,-19.043,-25.879,-408.691,0.000
1606134448.609,-9.277,-32.227,-22.949,44.434,0.000
1606134448.613,80.566,-22.461,-23.926,385.254,0.000
1606134448.617,15.137,-24.902,-24.902,178.223,0.000
1606134448.621,-127.441,-36.133,-37.109,-316.406,0.000
1606134448.625,-145.996,-45.898,-38.086,-433.594,0.000
1606134448.629,-24.414,-35.156,-27.832,-16.602,0.000
1606134448.632,79.102,-19.531,-22.461,369.141,0.000
1606134448.636,41.016,-32.715,-26.855,247.070,0.000
1606134448.640,-100.098,-22.461,-41.016,-255.371,0.000
1606134448.644,-152.832,-4.395,-44.922,-457.520,0.000
1606134448.648,-40.039,-22.949,-30.273,-92.773,0.000
1606134448.652,82.520,-23.926,-20.996,345.215,0.000
1606134448.656,52.246,-24.414,-24.902,287.109,0.000
1606134448.660,-85.938,-30.762,-34.180,-216.309,0.000
1606134448.664,-150.879,-36.621,-37.598,-467.773,0.000
1606134448.668,-63.477,-34.180,-23.438,-148.926,0.000
1606134448.672,63.965,-20.996,-16.602,321.289,0.000
1606134448.675,57.617,-26.367,-29.785,326.172,0.000
1606134448.679,-74.219,-23.438,-33.691,-152.344,0.000
1606134448.683,-148.438,-22.949,-32.227,-445.801,0.000
1606134448.687,-68.359,-31.738,-29.785,-201.660,0.000
1606134448.691,64.941,-23.438,-12.695,289.062,0.000
1606134448.695,68.848,-25.391,-11.719,366.699,0.000
1606134448.699,-56.641,-14.648,-32.227,-83.984,0.000
1606134448.703,-150.391,-23.926,-42.480,-446.289,0.000
1606134448.707,-101.562,-39.062,-39.062,-278.809,0.000
1606134448.711,40.039,-21.973,-24.902,233.398,0.000
1606134448.715,75.195,-14.648,-24.902,388.672,0.000
1606134448.718,-46.875,-23.438,-28.320,-18.555,0.000
1606134448.722,-152.344,-38.086,-24.902,-438.477,0.000
1606134448.726,-104.980,-34.668,-26.367,-335.449,0.000
1606134448.730,39.062,-17.090,-22.949,184.570,0.000
1606134448.734,85.449,-19.531,-18.555,390.625,0.000
1606134448.738,-20.508,-30.762,-25.879,35.645,0.000
1606134448.742,-145.996,-13.672,-38.086,-415.527,0.000
1606134448.746,-129.883,-15.625,-40.039,-396.973,0.000
1606134448.750,20.508,-30.273,-28.809,113.770,0.000
1606134448.754,99.609,-23.926,-22.949,408.691,0.000
1606134448.757,6.348,-31.738,-31.250,117.188,0.000
1606134448.761,-127.441,-41.992,-41.016,-365.234,0.000
1606134448.765,-128.906,-41.992,-39.551,-416.992,0.000
1606134448.769,-2.930,-37.109,-36.621,54.199,0.000
1606134448.773,88.379,-26.367,-30.762,402.344,0.000
1606134448.777,21.973,-34.180,-22.461,174.316,0.000
1606134448.781,-119.629,-37.109,-31.250,-336.914,0.000
1606134448.785,-139.160,-32.227,-41.504,-456.055,0.000
1606134448.789,-11.230,-28.320,-30.762,1.953,0.000
1606134448.793,88.867,-19.043,-24.414,406.250,0.000
1606134448.797,37.598,-26.855,-20.508,247.070,0.000
1606134448.800,-102.051,-37.109,-25.879,-279.297,0.000
1606134448.804,-146.973,-38.086,-34.668,-475.098,0.000
1606134448.808,-38.574,-32.227,-34.668,-84.961,0.000
1606134448.812,76.660,-28.320,-26.367,359.863,0.000
1606134448.816,52.246,-26.855,-26.367,299.805,0.000
1606134448.820,-91.797,-29.785,-40.039,-223.633,0.000
1606134448.824,-158.203,-36.621,-45.898,-484.863,0.000
1606134448.828,-53.223,-33.203,-34.668,-139.648,0.000
1606134448.832,79.102,-25.391,-24.414,333.496,0.000
1606134448.836,71.777,-26.855,-25.391,350.098,0.000
1606134448.840,-75.195,-18.555,-25.391,-151.367,0.000
1606134448.843,-161.621,-1.953,-32.227,-485.352,0.000
1606134448.847,-77.148,-18.066,-37.109,-218.750,0.000
1606134448.851,66.895,-26.367,-29.297,294.434,0.000
1606134448.855,81.543,-24.902,-23.926,387.695,0.000
1606134448.859,-54.199,-36.133,-20.020,-84.961,0.000
1606134448.863,-148.926,-37.598,-26.855,-468.750,0.000
1606134448.867,-85.938,-29.297,-28.809,-276.367,0.000
1606134448.871,56.641,-20.508,-21.973,252.930,0.000
1606134448.875,88.867,-23.438,-27.832,403.320,0.000
1606134448.879,-38.574,-20.996,-31.250,-30.762,0.000
1606134448.882,-159.180,-12.207,-31.738,-467.285,0.000
1606134448.886,-112.305,-25.879,-24.902,-347.656,0.000
1606134448.890,40.527,-25.879,-21.484,192.383,0.000
1606134448.894,89.355,-24.902,-16.602,418.457,0.000
1606134448.898,-21.973,-27.344,-20.508,31.250,0.000
1606134448.902,-145.996,-30.762,-33.691,-432.129,0.000
1606134448.906,-122.559,-37.109,-26.855,-382.812,0.000
1606134448.910,29.785,-28.320,-19.531,137.695,0.000
1606134448.914,106.445,-21.973,-11.230,438.965,0.000
1606134448.918,8.301,-31.250,-19.531,130.859,0.000
1606134448.922,-138.672,-16.113,-41.016,-395.508,0.000
1606134448.925,-141.113,-12.695,-38.086,-444.824,0.000
1606134448.929,4.395,-28.320,-28.809,75.684,0.000
1606134448.933,96.680,-22.949,-18.555,432.129,0.000
1606134448.937,25.391,-25.879,-19.043,177.246,0.000
1606134448.941,-117.676,-35.645,-28.809,-348.145,0.000
1606134448.945,-139.648,-33.203,-30.762,-447.754,0.000
1606134448.949,-6.348,-24.902,-25.879,21.484,0.000
1606134448.953,96.191,-21.484,-14.160,409.180,0.000
1606134448.957,36.133,-25.879,-16.602,232.422,0.000
1606134448.961,-109.863,-31.738,-39.551,-290.039,0.000
1606134448.965,-137.207,-30.762,-41.992,-468.750,0.000
1606134448.968,-26.855,-22.949,-28.809,-62.012,0.000
1606134448.972,75.684,-21.484,-18.066,365.234,0.000
1606134448.976,47.852,-28.320,-16.113,265.625,0.000
1606134448.980,-96.191,-19.531,-25.391,-238.770,0.000
1606134448.984,-148.926,-19.531,-26.367,-462.891,0.000
1606134448.988,-44.922,-31.738,-13.184,-110.352,0.000
1606134448.992,72.754,-30.273,-5.371,337.891,0.000
1606134448.996,62.500,-26.855,-4.395,314.941,0.000
1606134449.000,-68.359,-29.785,-11.719,-170.410,0.000
1606134449.004,-147.461,-40.039,-28.320,-460.449,0.000
1606134449.007,-57.617,-36.621,-28.809,-144.531,0.000
1606134449.011,78.613,-20.020,-13.672,337.402,0.000
1606134449.015,67.871,-26.855,-16.602,337.402,0.000
1606134449.019,-65.918,-31.250,-40.527,-125.977,0.000
1606134449.023,-145.020,-15.137,-41.016,-447.266,0.000
1606134449.027,-71.289,-24.414,-24.414,-229.492,0.000
1606134449.031,64.453,-24.902,-15.137,239.746,0.000
1606134449.035,79.102,-19.043,-8.789,349.609,0.000
1606134449.039,-41.016,-31.738,-24.414,-59.570,0.000
1606134449.043,-127.930,-33.691,-36.621,-430.176,0.000
1606134449.047,-76.660,-34.668,-21.973,-280.273,0.000
1606134449.050,51.758,-31.250,-16.113,213.867,0.000
1606134449.054,94.238,-24.414,-18.066,401.855,0.000
1606134449.058,-14.160,-31.250,-21.973,31.250,0.000
1606134449.062,-133.789,-31.738,-28.320,-400.879,0.000
1606134449.066,-101.562,-28.809,-26.855,-332.520,0.000
1606134449.070,36.133,-20.996,-12.207,168.457,0.000
1606134449.074,94.238,-11.719,-8.789,415.527,0.000
1606134449.078,4.395,-21.973,-29.785,85.449,0.000
1606134449.082,-117.676,-37.598,-39.551,-374.512,0.000
1606134449.086,-114.746,-37.598,-31.738,-374.512,0.000
1606134449.090,20.508,-32.715,-25.391,107.422,0.000
1606134449.093,95.215,-22.461,-23.926,403.809,0.000
1606134449.097,14.648,-21.973,-28.809,138.672,0.000
1606134449.101,-111.816,-28.320,-37.109,-339.844,0.000
1606134449.105,-120.605,-23.438,-36.133,-397.461,0.000
1606134449.109,6.836,-16.602,-22.461,62.988,0.000
1606134449.113,96.191,-11.719,-16.113,403.809,0.000
1606134449.117,25.391,-21.973,-27.344,196.289,0.000
1606134449.121,-120.117,-35.156,-44.434,-311.523,0.000
1606134449.125,-144.043,-31.250,-41.016,-447.266,0.000
1606134449.129,-17.090,-26.855,-16.602,-21.973,0.000
1606134449.132,84.961,-23.438,-14.648,382.324,0.000
1606134449.136,37.598,-24.414,-24.414,260.254,0.000
1606134449.140,-114.258,-33.691,-33.691,-259.277,0.000
1606134449.144,-148.926,-32.715,-33.203,-444.336,0.000
1606134449.148,-34.668,-23.438,-22.461,-70.801,0.000
1606134449.152,69.336,-18.066,-13.184,350.586,0.000
1606134449.156,46.387,-28.809,-25.391,297.363,0.000
1606134449.160,-97.656,-32.227,-40.039,-211.914,0.000
1606134449.164,-159.180,-23.926,-32.227,-470.703,0.000
1606134449.168,-61.035,-20.996,-22.949,-151.367,0.000
1606134449.172,66.406,-16.113,-14.160,328.125,0.000
1606134449.175,61.035,-19.531,-17.578,341.797,0.000
1606134449.179,-73.242,-26.855,-29.785,-144.043,0.000
1606134449.183,-155.762,-30.273,-32.227,-464.355,0.000
1606134449.187,-83.984,-25.391,-17.090,-220.703,0.000
1606134449.191,49.805,-14.160,-9.277,273.926,0.000
1606134449.195,65.918,-18.555,-19.531,363.281,0.000
1606134449.199,-56.152,-17.090,-27.832,-74.707,0.000
1606134449.203,-166.016,10.254,-37.598,-448.242,0.000
1606134449.207,-112.305,-9.766,-35.156,-290.527,0.000
1606134449.211,39.062,-30.762,-22.461,212.402,0.000
1606134449.215,77.637,-29.785,-10.742,381.836,0.000
1606134449.218,-38.574,-38.086,-21.973,-18.066,0.000
1606134449.222,-144.531,-37.598,-37.109,-445.801,0.000
1606134449.226,-103.027,-36.621,-24.902,-350.098,0.000
1606134449.230,42.969,-23.926,-2.441,176.270,0.000
1606134449.234,94.238,-20.020,-6.348,405.273,0.000
1606134449.238,-5.371,-21.973,-14.648,52.734,0.000
1606134449.242,-113.770,-20.996,-11.719,-383.789,0.000
1606134449.246,-98.145,-23.926,-19.043,-352.539,0.000
1606134449.250,29.785,-22.949,-21.973,118.652,0.000
1606134449.254,85.938,-20.508,-18.555,384.766,0.000
1606134449.257,-7.324,-29.785,-20.508,95.215,0.000
1606134449.261,-141.602,-23.438,-31.738,-388.672,0.000
1606134449.265,-149.414,-30.762,-35.645,-436.035,0.000
1606134449.269,-12.695,-41.992,-25.879,48.340,0.000
1606134449.273,77.637,-28.809,-31.250,398.926,0.000
1606134449.277,16.602,-23.926,-25.879,193.848,0.000
1606134449.281,-122.070,-37.598,-19.043,-318.848,0.000
1606134449.285,-158.203,-46.387,-21.484,-452.148,0.000
1606134449.289,-34.180,-36.621,-19.043,-3.418,0.000
1606134449.293,85.938,-27.344,-12.207,419.922,0.000
1606134449.297,45.410,-25.879,-16.113,285.156,0.000
1606134449.300,-109.863,-15.625,-24.902,-273.438,0.000
1606134449.304,-162.598,-7.324,-34.668,-492.676,0.000
1606134449.308,-43.945,-24.414,-35.156,-88.867,0.000
1606134449.312,71.289,-29.297,-16.602,371.094,0.000
1606134449.316,39.062,-23.926,-19.531,303.711,0.000
1606134449.320,-109.863,-38.086,-24.902,-228.027,0.000
1606134449.324,-176.270,-50.293,-26.855,-497.559,0.000
1606134449.328,-64.453,-36.133,-27.344,-155.762,0.000
1606134449.332,76.660,-23.438,-11.719,336.914,0.000
1606134449.336,70.312,-30.762,-11.230,351.074,0.000
1606134449.340,-74.707,-34.180,-37.598,-156.250,0.000
1606134449.343,-158.691,-29.297,-42.480,-493.164,0.000
1606134449.347,-72.266,-30.273,-33.691,-228.516,0.000
1606134449.351,72.754,-20.996,-25.879,285.156,0.000
1606134449.355,82.520,-19.043,-19.531,374.512,0.000
1606134449.359,-61.523,-24.414,-27.832,-97.656,0.000
1606134449.363,-159.180,-26.855,-38.574,-485.840,0.000
1606134449.367,-96.680,-29.785,-38.086,-308.105,0.000
1606134449.371,47.852,-25.879,-27.344,227.051,0.000
1606134449.375,84.473,-23.926,-27.832,397.949,0.000
1606134449.379,-37.598,-33.691,-34.180,-27.832,0.000
1606134449.382,-144.043,-43.457,-37.598,-448.730,0.000
1606134449.386,-102.539,-30.273,-34.180,-324.219,0.000
1606134449.390,42.480,-24.414,-30.273,206.543,0.000
1606134449.394,89.844,-32.715,-31.250,419.434,0.000
1606134449.398,-29.785,-34.180,-26.367,31.250,0.000
1606134449.402,-156.250,-18.066,-26.855,-435.547,0.000
1606134449.406,-131.836,-20.020,-32.227,-385.254,0.000
1606134449.410,19.531,-27.832,-24.902,138.672,0.000
1606134449.414,98.633,-15.137,-13.672,419.922,0.000
1606134449.418,2.930,-19.531,-21.484,107.422,0.000
1606134449.422,-134.277,-35.645,-34.668,-381.348,0.000
1606134449.425,-127.930,-39.062,-34.668,-420.898,0.000
1606134449.429,9.277,-28.320,-28.320,63.477,0.000
1606134449.433,93.750,-24.414,-21.484,409.668,0.000
1606134449.437,17.578,-27.832,-20.508,170.410,0.000
1606134449.441,-119.629,-22.949,-26.367,-331.543,0.000
1606134449.445,-134.277,-28.809,-33.691,-430.664,0.000
1606134449.449,-15.137,-38.574,-32.227,7.812,0.000
1606134449.453,81.543,-35.645,-15.625,395.996,0.000
1606134449.457,40.527,-31.738,-12.695,244.629,0.000
1606134449.461,-100.586,-30.273,-26.367,-275.391,0.000
1606134449.465,-142.578,-33.203,-33.691,-452.637,0.000
1606134449.468,-23.926,-35.156,-27.832,-58.594,0.000
1606134449.472,89.844,-23.438,-19.043,367.676,0.000
1606134449.476,52.246,-18.555,-22.461,286.621,0.000
1606134449.480,-93.750,-10.742,-32.227,-226.074,0.000
1606134449.484,-145.508,0.977,-26.855,-482.422,0.000
1606134449.488,-34.180,-12.207,-19.043,-138.184,0.000
1606134449.492,97.168,-12.207,-21.484,352.539,0.000
1606134449.496,88.867,-16.602,-18.555,357.422,0.000
1606134449.500,-58.594,-29.785,-19.043,-156.250,0.000
1606134449.504,-142.578,-33.203,-27.344,-482.910,0.000
1606134449.507,-60.547,-28.320,-33.203,-207.520,0.000
1606134449.511,71.777,-15.625,-28.809,314.941,0.000
1606134449.515,77.637,-15.625,-26.855,386.719,0.000
1606134449.519,-61.523,-30.273,-28.809,-110.352,0.000
1606134449.523,-157.227,-32.715,-32.227,-482.910,0.000
1606134449.527,-90.332,-27.832,-35.645,-261.230,0.000
1606134449.531,58.105,-24.902,-23.438,274.902,0.000
1606134449.535,86.914,-20.020,-15.625,414.551,0.000
1606134449.539,-36.621,-13.672,-29.785,-29.785,0.000
1606134449.543,-139.648,-9.277,-38.574,-450.195,0.000
1606134449.547,-88.867,-23.926,-25.391,-308.594,0.000
1606134449.550,65.918,-21.973,-18.066,223.633,0.000
1606134449.554,108.398,-24.414,-23.438,418.945,0.000
1606134449.558,-7.324,-24.414,-23.926,38.574,0.000
1606134449.562,-129.395,-27.344,-22.461,-409.668,0.000
1606134449.566,-109.863,-33.691,-22.461,-355.469,0.000
1606134449.570,34.668,-25.879,-20.020,161.621,0.000
1606134449.574,99.609,-20.508,-17.090,434.570,0.000
1606134449.578,4.395,-31.250,-20.996,109.375,0.000
1606134449.582,-130.859,-21.973,-41.992,-381.348,0.000
1606134449.586,-124.023,-20.020,-46.387,-402.344,0.000
1606134449.590,24.414,-34.668,-22.949,93.750,0.000
1606134449.593,102.051,-32.227,-17.090,418.945,0.000
1606134449.597,14.160,-40.039,-20.996,161.621,0.000
1606134449.601,-129.395,-46.875,-25.391,-352.051,0.000
1606134449.605,-134.766,-42.480,-22.949,-425.293,0.000
1606134449.609,-6.348,-34.180,-14.648,42.480,0.000
1606134449.613,82.520,-29.297,-15.137,393.066,0.000
1606134449.617,27.344,-29.297,-18.066,208.984,0.000
1606134449.621,-119.141,-44.434,-27.344,-290.039,0.000
1606134449.625,-163.574,-53.223,-37.598,-455.078,0.000
1606134449.629,-49.316,-42.480,-36.621,-58.105,0.000
1606134449.632,59.570,-30.762,-22.461,358.887,0.000
1606134449.636,19.043,-31.250,-21.973,257.324,0.000
1606134449.640,-115.234,-35.156,-31.250,-245.605,0.000
1606134449.644,-148.438,-36.621,-30.273,-450.195,0.000
1606134449.648,-28.809,-33.203,-19.043,-90.820,0.000
1606134449.652,87.402,-28.809,-10.742,351.074,0.000
1606134449.656,72.754,-32.715,-26.367,315.430,0.000
1606134449.660,-62.500,-40.527,-37.109,-183.594,0.000
1606134449.664,-136.719,-36.621,-37.109,-460.449,0.000
1606134449.668,-41.992,-30.762,-30.762,-156.250,0.000
1606134449.672,91.309,-26.367,-23.438,329.102,0.000
1606134449.675,96.191,-19.531,-9.766,375.488,0.000
1606134449.679,-50.293,-21.484,-15.137,-115.234,0.000
1606134449.683,-145.508,-15.625,-32.715,-466.797,0.000
1606134449.687,-68.848,-21.973,-26.367,-231.934,0.000
1606134449.691,70.801,-26.855,-25.879,285.156,0.000
1606134449.695,95.703,-25.391,-28.320,398.438,0.000
1606134449.699,-34.668,-25.879,-30.273,-51.758,0.000
1606134449.703,-148.438,-31.738,-33.691,-449.219,0.000
1606134449.707,-97.168,-34.180,-35.156,-298.828,0.000
1606134449.711,45.898,-21.484,-29.785,225.098,0.000
1606134449.715,81.543,-25.879,-17.578,409.668,0.000
1606134449.718,-34.180,-25.879,-19.531,11.230,0.000
1606134449.722,-152.832,-17.578,-18.066,-437.988,0.000
1606134449.726,-129.883,-29.785,-22.949,-364.258,0.000
1606134449.730,24.902,-24.902,-29.785,163.574,0.000
1606134449.734,99.121,-14.160,-23.438,421.387,0.000
1606134449.738,-16.602,-33.203,-28.320,73.242,0.000
1606134449.742,-153.320,-41.992,-30.273,-414.551,0.000
1606134449.746,-138.672,-35.156,-31.250,-408.691,0.000
1606134449.750,4.395,-24.414,-30.273,102.051,0.000
1606134449.754,91.797,-19.043,-25.391,421.875,0.000
1606134449.757,11.230,-27.344,-25.391,157.227,0.000
1606134449.761,-137.695,-34.668,-28.320,-356.445,0.000
1606134449.765,-143.066,-33.691,-26.367,-430.664,0.000
1606134449.769,-3.906,-29.297,-20.996,51.270,0.000
1606134449.773,81.055,-29.297,-21.973,404.785,0.000
1606134449.777,20.020,-32.227,-24.902,196.289,0.000
1606134449.781,-128.418,-37.598,-33.203,-326.660,0.000
1606134449.785,-157.715,-44.434,-37.598,-460.938,0.000
1606134449.789,-32.715,-41.504,-23.926,-23.438,0.000
1606134449.793,70.801,-26.855,-19.043,387.695,0.000
1606134449.797,30.273,-26.855,-20.020,258.789,0.000
1606134449.800,-108.398,-30.762,-20.020,-261.719,0.000
1606134449.804,-148.438,-24.902,-26.855,-454.102,0.000
1606134449.808,-24.414,-21.484,-25.879,-75.195,0.000
1606134449.812,97.656,-17.090,-16.113,372.559,0.000
1606134449.816,71.777,-17.090,-19.531,322.754,0.000
1606134449.820,-75.195,-19.531,-38.086,-206.055,0.000
1606134449.824,-137.695,-18.066,-44.434,-491.211,0.000
1606134449.828,-26.855,-19.043,-36.621,-168.457,0.000
1606134449.832,104.492,-11.230,-24.902,335.938,0.000
1606134449.836,89.355,-13.672,-25.391,363.770,0.000
1606134449.840,-59.082,-23.438,-35.645,-145.996,0.000
1606134449.843,-148.926,-23.926,-36.621,-482.910,0.000
1606134449.847,-74.219,-19.531,-33.203,-227.539,0.000
1606134449.851,71.289,-12.207,-26.855,307.129,0.000
1606134449.855,85.938,-22.461,-26.855,420.898,0.000
1606134449.859,-51.270,-30.762,-30.762,-64.453,0.000
1606134449.863,-155.762,-22.461,-41.504,-490.723,0.000
1606134449.867,-93.262,-27.344,-34.668,-316.895,0.000
1606134449.871,59.570,-28.809,-30.762,227.539,0.000
1606134449.875,92.285,-25.879,-32.227,406.738,0.000
1606134449.879,-25.391,-28.809,-29.297,-3.906,0.000
1606134449.882,-145.996,-39.062,-38.574,-450.195,0.000
1606134449.886,-111.328,-40.039,-36.621,-350.586,0.000
1606134449.890,46.387,-26.367,-27.832,188.477,0.000
1606134449.894,99.609,-30.273,-31.738,417.969,0.000
1606134449.898,-8.301,-32.715,-33.691,69.824,0.000
1606134449.902,-130.859,-25.391,-34.180,-393.555,0.000
1606134449.906,-116.699,-29.785,-34.180,-389.160,0.000
1606134449.910,26.855,-30.273,-28.320,118.652,0.000
1606134449.914,98.145,-27.344,-23.438,416.504,0.000
1606134449.918,7.324,-31.738,-28.320,127.930,0.000
1606134449.922,-127.930,-44.434,-37.598,-362.793,0.000
1606134449.925,-127.930,-43.945,-39.062,-411.133,0.000
1606134449.929,14.648,-22.949,-27.344,69.824,0.000
1606134449.933,98.633,-19.531,-13.672,413.086,0.000
1606134449.937,12.695,-33.691,-16.602,185.547,0.000
1606134449.941,-133.789,-38.086,-32.715,-316.406,0.000
1606134449.945,-160.645,-37.598,-36.621,-421.875,0.000
1606134449.949,-30.273,-31.250,-22.949,20.020,0.000
1606134449.953,71.777,-21.484,-18.555,393.066,0.000
1606134449.957,14.648,-27.344,-28.320,218.262,0.000
1606134449.961,-118.164,-21.973,-37.598,-301.270,0.000
1606134449.965,-156.250,-15.625,-46.875,-490.723,0.000
1606134449.968,-40.527,-28.809,-36.133,-99.121,0.000
1606134449.972,80.078,-21.973,-23.926,343.750,0.000
1606134449.976,43.457,-21.973,-23.926,272.949,0.000
1606134449.980,-101.562,-36.621,-29.785,-237.305,0.000
1606134449.984,-157.715,-43.945,-33.203,-477.539,0.000
1606134449.988,-51.270,-37.109,-19.531,-124.023,0.000
1606134449.992,75.195,-24.414,-21.484,352.051,0.000
1606134449.996,69.336,-27.344,-32.715,355.469,0.000
1606134450.000,-68.359,-25.391,-33.203,-150.391,0.000
1606134450.004,-155.762,-23.438,-39.551,-478.516,0.000
1606134450.007,-78.613,-35.645,-40.527,-204.590,0.000
1606134450.011,62.500,-26.367,-25.391,311.523,0.000
1606134450.015,77.637,-29.297,-22.461,385.742,0.000
1606134450.019,-64.941,-41.992,-33.691,-94.238,0.000
1606134450.023,-162.109,-42.480,-33.203,-465.820,0.000
1606134450.027,-93.262,-41.504,-23.438,-260.742,0.000
1606134450.031,55.176,-30.273,-21.484,266.602,0.000
1606134450.035,85.449,-32.715,-26.367,408.691,0.000
1606134450.039,-48.340,-37.598,-37.598,-24.414,0.000
1606134450.043,-156.250,-21.973,-42.480,-440.430,0.000
1606134450.047,-108.887,-34.668,-37.109,-318.848,0.000
1606134450.050,36.133,-34.668,-32.715,201.172,0.000
1606134450.054,91.309,-29.785,-30.273,412.109,0.000
1606134450.058,-9.766,-26.367,-37.109,33.203,0.000
1606134450.062,-127.930,-13.184,-41.992,-439.941,0.000
1606134450.066,-106.445,-22.949,-40.039,-395.996,0.000
1606134450.070,43.457,-18.066,-26.367,129.883,0.000
1606134450.074,115.723,-9.277,-22.461,414.551,0.000
1606134450.078,19.043,-17.578,-30.762,109.375,0.000
1606134450.082,-122.559,-34.180,-39.551,-391.602,0.000
1606134450.086,-120.117,-41.016,-44.922,-425.293,0.000
1606134450.090,33.203,-28.320,-33.691,94.727,0.000
1606134450.093,113.281,-20.020,-23.438,435.547,0.000
1606134450.097,33.203,-29.785,-31.250,190.430,0.000
1606134450.101,-104.980,-24.902,-39.551,-333.008,0.000
1606134450.105,-125.977,-19.531,-36.133,-440.918,0.000
1606134450.109,-2.930,-24.902,-18.066,37.598,0.000
1606134450.113,94.727,-20.020,-13.672,426.758,0.000
1606134450.117,35.156,-27.344,-22.949,243.164,0.000
1606134450.121,-116.699,-38.086,-22.461,-287.598,0.000
1606134450.125,-161.133,-39.551,-33.203,-475.586,0.000
1606134450.129,-48.828,-41.992,-31.738,-64.941,0.000
1606134450.132,66.406,-37.598,-12.695,387.695,0.000
1606134450.136,30.762,-38.574,-18.555,288.574,0.000
1606134450.140,-120.605,-26.855,-28.320,-252.441,0.000
1606134450.144,-179.688,-19.043,-22.461,-500.000,0.000
1606134450.148,-74.707,-44.434,-26.855,-152.344,0.000
1606134450.152,51.758,-44.434,-29.297,321.777,0.000
1606134450.156,41.504,-36.133,-26.855,311.523,0.000
1606134450.160,-101.074,-39.062,-31.738,-209.961,0.000
1606134450.164,-170.898,-36.133,-23.438,-509.766,0.000
1606134450.168,-68.848,-31.250,-21.484,-203.125,0.000
1606134450.172,66.895,-23.438,-30.273,303.223,0.000
1606134450.175,68.848,-18.555,-30.762,354.004,0.000
1606134450.179,-68.848,-17.090,-29.297,-133.789,0.000
1606134450.183,-162.109,-23.438,-36.621,-500.488,0.000
1606134450.187,-85.938,-30.762,-47.852,-291.016,0.000
1606134450.191,60.547,-24.414,-41.504,234.375,0.000
1606134450.195,87.402,-24.902,-33.203,363.770,0.000
1606134450.199,-29.297,-15.625,-25.879,-72.266,0.000
1606134450.203,-138.184,-19.043,-30.273,-475.586,0.000
