timestamps,TP9,AF7,AF8,TP10,Right AUX
1606139821.758,-0.488,0.000,0.000,-0.488,0.000
1606139821.762,-0.488,0.000,0.000,-1.465,0.000
1606139821.766,1.953,-0.977,-0.977,11.230,0.000
1606139821.769,-4.395,0.977,0.977,-20.508,0.000
1606139821.773,11.230,-8.789,-7.324,78.125,0.000
1606139821.777,47.852,-25.391,-15.137,320.312,0.000
1606139821.781,-8.301,-32.715,-17.090,169.922,0.000
1606139821.785,-122.070,-41.016,-21.484,-269.531,0.000
1606139821.789,-139.160,-42.969,-25.879,-392.578,0.000
1606139821.793,-35.645,-34.180,-21.973,-37.109,0.000
1606139821.797,52.734,-24.902,-13.184,311.035,0.000
1606139821.801,12.207,-32.227,-23.438,193.359,0.000
1606139821.805,-102.051,-39.551,-28.809,-227.539,0.000
1606139821.808,-132.324,-42.480,-27.832,-384.277,0.000
1606139821.812,-38.086,-36.621,-22.461,-80.078,0.000
1606139821.816,48.828,-29.297,-21.484,275.879,0.000
1606139821.820,12.695,-34.668,-22.949,218.750,0.000
1606139821.824,-85.938,-28.320,-21.484,-179.688,0.000
1606139821.828,-137.207,-34.668,-28.809,-385.254,0.000
1606139821.832,-77.637,-42.969,-40.039,-142.578,0.000
1606139821.836,22.461,-39.062,-37.109,243.652,0.000
1606139821.840,15.137,-36.133,-28.809,248.535,0.000
1606139821.844,-88.379,-39.062,-30.762,-152.344,0.000
1606139821.848,-149.414,-41.504,-30.273,-407.715,0.000
1606139821.851,-79.590,-36.133,-26.367,-208.008,0.000
1606139821.855,29.297,-31.250,-9.277,212.891,0.000
1606139821.859,35.156,-34.668,-8.301,296.875,0.000
1606139821.863,-60.547,-38.574,-42.969,-73.730,0.000
1606139821.867,-130.371,-37.598,-45.898,-390.137,0.000
1606139821.871,-79.102,-23.926,-31.738,-243.164,0.000
1606139821.875,30.762,17.090,-30.273,190.430,0.000
1606139821.879,55.664,19.043,-31.250,307.129,0.000
1606139821.883,-28.809,-14.160,-30.273,-47.852,0.000
1606139821.887,-128.418,-19.531,-42.480,-402.344,0.000
1606139821.891,-109.375,-28.320,-43.457,-309.082,0.000
1606139821.894,4.395,-27.832,-33.691,120.117,0.000
1606139821.898,47.852,-20.508,-28.320,305.176,0.000
1606139821.902,-35.156,-33.203,-31.738,19.531,0.000
1606139821.906,-134.277,-36.621,-43.457,-353.027,0.000
1606139821.910,-116.699,-35.645,-45.410,-331.543,0.000
1606139821.914,-0.977,-31.250,-39.551,78.125,0.000
1606139821.918,57.129,-26.855,-34.180,319.824,0.000
1606139821.922,-3.418,-24.902,-35.156,88.379,0.000
1606139821.926,-103.516,-28.320,-40.527,-312.012,0.000
1606139821.930,-103.027,-27.832,-32.715,-337.402,0.000
1606139821.933,-0.488,-27.344,-29.785,45.410,0.000
1606139821.937,71.777,-31.738,-35.645,322.266,0.000
1606139821.941,12.695,-33.203,-38.086,143.066,0.000
1606139821.945,-99.609,-33.691,-37.109,-274.902,0.000
1606139821.949,-117.188,-34.180,-40.527,-369.629,0.000
1606139821.953,-20.508,-32.227,-38.086,-20.020,0.000
1606139821.957,66.406,-23.926,-24.902,309.082,0.000
1606139821.961,20.996,-28.809,-23.926,192.383,0.000
1606139821.965,-88.379,-34.668,-37.598,-235.352,0.000
1606139821.969,-109.863,-30.762,-47.363,-379.395,0.000
1606139821.973,-19.043,-13.672,-34.180,-58.594,0.000
1606139821.976,71.289,0.000,-18.555,287.598,0.000
1606139821.980,40.039,-22.461,-24.902,221.680,0.000
1606139821.984,-77.637,-40.527,-29.785,-195.312,0.000
1606139821.988,-126.953,-37.109,-29.297,-399.902,0.000
1606139821.992,-47.363,-28.809,-31.250,-129.395,0.000
1606139821.996,51.270,-21.973,-30.762,252.930,0.000
1606139822.000,40.527,-22.949,-35.645,250.000,0.000
1606139822.004,-70.801,-34.668,-44.922,-151.855,0.000
1606139822.008,-127.930,-39.062,-44.922,-403.809,0.000
1606139822.012,-56.152,-33.203,-37.598,-187.500,0.000
1606139822.016,53.711,-22.949,-30.273,230.957,0.000
1606139822.019,62.500,-26.367,-28.320,288.574,0.000
1606139822.023,-47.363,-30.273,-28.809,-95.215,0.000
1606139822.027,-128.418,-30.273,-36.621,-395.996,0.000
1606139822.031,-79.102,-30.762,-36.133,-240.234,0.000
1606139822.035,36.133,-23.926,-30.273,188.477,0.000
1606139822.039,65.430,-20.020,-34.180,316.406,0.000
1606139822.043,-42.969,-28.809,-31.738,-23.926,0.000
1606139822.047,-137.695,-42.480,-37.109,-367.676,0.000
1606139822.051,-97.168,-39.062,-38.086,-278.809,0.000
1606139822.055,21.973,-31.250,-30.273,152.344,0.000
1606139822.058,64.453,-26.367,-27.832,323.730,0.000
1606139822.062,-21.973,-24.902,-21.973,28.320,0.000
1606139822.066,-117.188,-36.621,-29.785,-333.008,0.000
1606139822.070,-103.027,-41.016,-32.227,-313.477,0.000
1606139822.074,-3.418,-21.484,-31.738,92.285,0.000
1606139822.078,43.945,-25.391,-33.203,336.914,0.000
1606139822.082,-18.555,-36.133,-35.156,98.633,0.000
1606139822.086,-122.070,-41.016,-39.551,-320.312,0.000
1606139822.090,-120.117,-46.875,-42.969,-358.887,0.000
1606139822.094,-8.301,-41.016,-45.898,37.109,0.000
1606139822.098,54.688,-34.668,-39.551,323.730,0.000
1606139822.101,-4.395,-27.832,-33.691,140.137,0.000
1606139822.105,-117.188,-29.297,-30.273,-279.297,0.000
1606139822.109,-129.395,-30.762,-31.250,-375.977,0.000
1606139822.113,-23.438,-24.414,-24.902,-12.695,0.000
1606139822.117,65.430,-21.973,-15.625,329.102,0.000
1606139822.121,28.809,-19.531,-16.602,200.684,0.000
1606139822.125,-91.797,3.906,-28.809,-239.258,0.000
1606139822.129,-123.535,2.930,-32.715,-394.043,0.000
1606139822.133,-25.879,-25.879,-18.555,-65.430,0.000
1606139822.137,58.105,-34.668,-19.531,302.246,0.000
1606139822.141,24.414,-34.668,-32.715,235.840,0.000
1606139822.144,-89.355,-37.598,-27.832,-197.754,0.000
1606139822.148,-136.719,-38.574,-20.508,-413.574,0.000
1606139822.152,-40.039,-24.902,-16.113,-126.465,0.000
1606139822.156,72.266,-13.184,-14.160,283.691,0.000
1606139822.160,47.363,-21.484,-29.297,280.762,0.000
1606139822.164,-77.148,-35.645,-41.992,-152.344,0.000
1606139822.168,-136.230,-43.457,-41.992,-425.293,0.000
1606139822.172,-60.059,-23.438,-36.621,-188.965,0.000
1606139822.176,60.059,8.789,-27.832,254.395,0.000
1606139822.180,62.012,-1.465,-26.367,320.801,0.000
1606139822.183,-53.711,-26.367,-35.645,-82.520,0.000
1606139822.187,-127.930,-32.715,-33.691,-400.879,0.000
1606139822.191,-82.031,-38.574,-18.066,-241.211,0.000
1606139822.195,27.344,-32.715,-9.766,199.707,0.000
1606139822.199,54.688,-26.367,-9.766,340.332,0.000
1606139822.203,-47.363,-38.086,-15.625,-2.930,0.000
1606139822.207,-140.625,-46.387,-29.297,-382.324,0.000
1606139822.211,-105.469,-38.086,-33.203,-295.410,0.000
1606139822.215,18.066,-23.438,-22.949,158.691,0.000
1606139822.219,68.359,-19.531,-8.301,354.492,0.000
1606139822.223,-19.531,-29.785,-16.113,49.316,0.000
1606139822.226,-112.793,-39.062,-22.461,-339.355,0.000
1606139822.230,-90.820,-37.598,-14.160,-312.988,0.000
1606139822.234,24.414,-30.273,-14.648,113.281,0.000
1606139822.238,77.148,-24.414,-18.066,354.492,0.000
1606139822.242,1.465,-26.367,-20.508,104.004,0.000
1606139822.246,-96.680,-30.762,-24.414,-290.039,0.000
1606139822.250,-84.961,-38.086,-30.273,-313.965,0.000
1606139822.254,27.832,3.906,-17.090,73.242,0.000
1606139822.258,83.984,20.996,-3.418,336.914,0.000
1606139822.262,12.207,-24.414,-14.160,135.742,0.000
1606139822.266,-96.191,-35.156,-37.109,-263.672,0.000
1606139822.269,-95.703,-37.109,-36.621,-337.891,0.000
1606139822.273,11.230,-38.574,-22.949,16.113,0.000
1606139822.277,81.543,-31.250,-22.461,322.266,0.000
1606139822.281,36.133,-28.320,-21.484,201.172,0.000
1606139822.285,-68.359,-31.738,-26.855,-207.520,0.000
1606139822.289,-101.562,-35.645,-28.320,-347.656,0.000
1606139822.293,-14.160,-17.578,-18.555,-23.438,0.000
1606139822.297,74.219,-10.742,-14.648,313.965,0.000
1606139822.301,44.434,-26.855,-19.531,231.934,0.000
1606139822.305,-57.617,-30.273,-35.156,-176.758,0.000
1606139822.308,-94.727,-31.738,-31.738,-362.793,0.000
1606139822.312,-18.555,-20.020,-19.531,-86.914,0.000
1606139822.316,74.707,-11.719,-24.414,291.992,0.000
1606139822.320,57.617,-27.832,-22.949,284.668,0.000
1606139822.324,-54.688,-33.691,-23.926,-119.629,0.000
1606139822.328,-113.281,-36.133,-30.273,-368.164,0.000
1606139822.332,-45.898,-37.598,-24.414,-143.066,0.000
1606139822.336,50.781,-35.645,-14.648,250.000,0.000
1606139822.340,49.805,-32.715,-23.438,295.898,0.000
1606139822.344,-49.805,-27.344,-23.926,-62.988,0.000
1606139822.348,-123.047,-38.574,-14.160,-360.840,0.000
1606139822.351,-75.195,-41.504,-26.855,-213.379,0.000
1606139822.355,36.621,-12.695,-31.738,211.426,0.000
1606139822.359,65.430,-8.301,-19.531,340.820,0.000
1606139822.363,-35.156,-33.203,-23.926,-8.789,0.000
1606139822.367,-129.395,-39.551,-36.621,-357.910,0.000
1606139822.371,-89.355,-32.715,-32.715,-257.812,0.000
1606139822.375,30.273,-32.227,-20.508,170.410,0.000
1606139822.379,65.430,-30.762,-24.902,335.938,0.000
1606139822.383,-24.902,-32.715,-31.738,27.832,0.000
1606139822.387,-112.793,-32.715,-28.320,-335.938,0.000
1606139822.391,-90.332,-32.715,-33.203,-294.434,0.000
1606139822.394,14.648,-28.809,-32.715,113.770,0.000
1606139822.398,66.895,-27.832,-25.879,334.473,0.000
1606139822.402,-1.465,-32.227,-19.043,86.914,0.000
1606139822.406,-101.562,-34.668,-16.113,-304.199,0.000
1606139822.410,-100.098,-38.574,-23.926,-329.102,0.000
1606139822.414,-0.488,-27.344,-25.391,57.129,0.000
1606139822.418,63.965,-16.113,-15.137,332.520,0.000
1606139822.422,5.371,-27.832,-22.461,141.602,0.000
1606139822.426,-102.051,-32.715,-30.273,-274.414,0.000
1606139822.430,-111.816,-31.250,-22.949,-356.445,0.000
1606139822.433,-14.648,-31.738,-20.996,5.371,0.000
1606139822.437,62.012,-23.438,-20.996,320.801,0.000
1606139822.441,9.766,-28.320,-26.367,172.363,0.000
1606139822.445,-103.027,-38.574,-26.367,-252.930,0.000
1606139822.449,-127.930,-41.992,-30.273,-382.812,0.000
1606139822.453,-39.062,-20.996,-24.902,-55.176,0.000
1606139822.457,58.594,0.000,-11.719,295.898,0.000
1606139822.461,26.855,-22.461,-22.949,215.332,0.000
1606139822.465,-94.727,-38.086,-38.574,-210.449,0.000
1606139822.469,-132.324,-36.133,-40.527,-403.809,0.000
1606139822.473,-52.734,-32.715,-32.715,-127.441,0.000
1606139822.476,48.340,-22.461,-20.020,261.719,0.000
1606139822.480,40.039,-16.113,-22.949,259.277,0.000
1606139822.484,-74.219,-22.949,-38.086,-147.949,0.000
1606139822.488,-128.418,-37.598,-33.691,-389.648,0.000
1606139822.492,-58.105,-10.254,-27.344,-164.062,0.000
1606139822.496,40.527,16.113,-23.438,224.121,0.000
1606139822.500,38.086,-19.043,-20.020,271.973,0.000
1606139822.504,-60.059,-33.203,-23.926,-79.590,0.000
1606139822.508,-120.117,-41.992,-25.879,-351.074,0.000
1606139822.512,-67.871,-39.062,-21.973,-190.918,0.000
1606139822.516,31.250,-21.973,-11.719,193.359,0.000
1606139822.519,45.898,-22.461,-7.324,285.156,0.000
1606139822.523,-39.062,-32.227,-35.156,-36.133,0.000
1606139822.527,-100.586,-40.039,-40.527,-317.871,0.000
1606139822.531,-56.641,-32.227,-33.203,-195.801,0.000
1606139822.535,37.109,13.184,-31.738,171.387,0.000
1606139822.539,53.223,7.812,-27.344,291.016,0.000
1606139822.543,-23.926,-26.367,-29.785,9.766,0.000
1606139822.547,-89.844,-30.273,-33.203,-301.270,0.000
1606139822.551,-64.941,-29.785,-38.574,-237.305,0.000
1606139822.555,33.691,-26.855,-32.227,139.648,0.000
1606139822.558,85.449,-28.809,-19.043,328.125,0.000
1606139822.562,14.160,-28.320,-20.996,102.051,0.000
1606139822.566,-77.637,-31.738,-24.902,-258.301,0.000
1606139822.570,-72.266,-35.156,-33.691,-277.344,0.000
1606139822.574,19.043,-28.809,-29.297,95.703,0.000
1606139822.578,74.707,-32.715,-23.438,332.520,0.000
1606139822.582,16.602,-36.621,-30.273,126.465,0.000
1606139822.586,-83.984,-34.180,-29.785,-254.883,0.000
1606139822.590,-91.797,-38.574,-31.250,-317.871,0.000
1606139822.594,4.883,-15.137,-28.320,25.879,0.000
1606139822.598,72.266,-10.742,-26.855,320.312,0.000
1606139822.601,23.926,-35.156,-31.738,189.453,0.000
1606139822.605,-77.637,-40.527,-39.551,-211.914,0.000
1606139822.609,-88.867,-34.180,-38.574,-331.055,0.000
1606139822.613,6.836,-24.902,-25.391,-14.160,0.000
1606139822.617,84.473,-20.020,-26.367,309.570,0.000
1606139822.621,47.363,-21.484,-31.738,233.398,0.000
1606139822.625,-63.477,-22.461,-25.879,-166.016,0.000
1606139822.629,-104.004,-29.785,-33.203,-354.980,0.000
1606139822.633,-21.484,-6.836,-34.180,-88.867,0.000
1606139822.637,70.801,17.578,-21.973,275.879,0.000
1606139822.641,51.270,-13.184,-29.297,260.254,0.000
1606139822.644,-53.711,-29.297,-33.203,-126.953,0.000
1606139822.648,-110.352,-34.668,-27.344,-371.094,0.000
1606139822.652,-43.945,-37.598,-28.809,-151.855,0.000
1606139822.656,54.199,-29.297,-28.809,247.070,0.000
1606139822.660,40.527,-33.691,-26.367,281.738,0.000
1606139822.664,-65.430,-38.574,-29.785,-95.215,0.000
1606139822.668,-123.535,-39.062,-34.668,-379.883,0.000
1606139822.672,-67.383,-19.531,-29.785,-208.008,0.000
1606139822.676,42.480,0.000,-18.066,210.938,0.000
1606139822.680,59.570,-24.414,-24.902,312.500,0.000
1606139822.683,-37.598,-36.133,-26.367,-26.367,0.000
1606139822.687,-107.910,-31.738,-19.043,-357.422,0.000
1606139822.691,-73.730,-36.133,-36.621,-270.508,0.000
1606139822.695,35.156,-27.832,-50.781,152.344,0.000
1606139822.699,82.520,-16.113,-41.016,332.031,0.000
1606139822.703,-4.395,-26.367,-37.598,31.738,0.000
1606139822.707,-111.328,-40.039,-40.039,-344.238,0.000
1606139822.711,-86.426,-26.855,-33.691,-296.387,0.000
1606139822.715,32.715,-19.043,-34.668,130.859,0.000
1606139822.719,82.520,-24.414,-24.902,354.492,0.000
1606139822.723,7.812,-20.996,-15.137,97.168,0.000
1606139822.726,-103.027,-32.227,-33.203,-310.059,0.000
1606139822.730,-103.516,-41.016,-36.621,-333.008,0.000
1606139822.734,15.625,-0.977,-24.902,72.754,0.000
1606139822.738,82.031,15.137,-22.949,335.938,0.000
1606139822.742,12.695,-25.391,-31.250,125.977,0.000
1606139822.746,-103.027,-44.922,-38.086,-288.086,0.000
1606139822.750,-114.258,-43.945,-38.574,-362.305,0.000
1606139822.754,-7.324,-32.715,-24.414,20.996,0.000
1606139822.758,65.918,-29.785,-19.043,328.613,0.000
1606139822.762,17.578,-30.273,-16.113,181.641,0.000
1606139822.766,-83.984,-28.809,-22.461,-232.910,0.000
1606139822.769,-101.562,-29.297,-34.668,-368.652,0.000
1606139822.773,-9.277,-6.348,-31.738,-42.969,0.000
1606139822.777,65.430,-1.953,-29.297,297.363,0.000
1606139822.781,24.902,-29.785,-24.902,214.844,0.000
1606139822.785,-85.938,-38.574,-29.785,-201.172,0.000
1606139822.789,-125.000,-35.645,-33.203,-385.742,0.000
1606139822.793,-43.457,-26.855,-33.203,-107.422,0.000
1606139822.797,52.246,-22.461,-22.949,259.766,0.000
1606139822.801,39.062,-21.484,-8.789,251.465,0.000
1606139822.805,-72.266,-29.785,-18.555,-145.996,0.000
1606139822.808,-126.953,-36.133,-34.180,-388.184,0.000
1606139822.812,-52.734,-19.531,-30.273,-148.438,0.000
1606139822.816,44.922,-6.836,-25.391,229.004,0.000
1606139822.820,34.668,-25.879,-24.902,238.770,0.000
1606139822.824,-70.312,-43.945,-36.133,-122.559,0.000
1606139822.828,-125.977,-41.016,-36.621,-370.117,0.000
1606139822.832,-62.500,-27.344,-29.297,-191.406,0.000
1606139822.836,37.109,-21.484,-23.438,186.035,0.000
1606139822.840,41.016,-21.484,-22.949,262.207,0.000
1606139822.844,-54.688,-35.645,-32.227,-56.641,0.000
1606139822.848,-116.699,-41.504,-34.180,-336.426,0.000
1606139822.851,-73.242,-35.645,-28.320,-217.773,0.000
1606139822.855,28.320,-29.297,-20.996,164.062,0.000
1606139822.859,56.641,-24.414,-22.461,291.504,0.000
1606139822.863,-26.855,-29.785,-32.715,-5.859,0.000
1606139822.867,-105.957,-30.762,-37.109,-324.219,0.000
1606139822.871,-84.961,-29.297,-23.438,-264.648,0.000
1606139822.875,14.648,-20.996,-19.043,111.816,0.000
1606139822.879,62.500,-16.113,-26.855,297.852,0.000
1606139822.883,-6.348,-27.344,-32.715,54.688,0.000
1606139822.887,-91.309,-31.738,-35.156,-289.062,0.000
1606139822.891,-69.824,-25.879,-26.367,-284.668,0.000
1606139822.894,25.391,-27.832,-20.996,64.941,0.000
1606139822.898,63.965,-29.297,-17.090,292.969,0.000
1606139822.902,2.441,-32.227,-19.531,111.816,0.000
1606139822.906,-92.773,-37.109,-25.391,-251.953,0.000
1606139822.910,-97.656,-36.133,-22.461,-307.617,0.000
1606139822.914,-7.324,-15.625,-27.832,23.438,0.000
1606139822.918,50.781,-11.230,-29.297,287.598,0.000
1606139822.922,1.465,-30.762,-20.020,153.320,0.000
1606139822.926,-104.980,-38.086,-31.250,-231.934,0.000
1606139822.930,-116.699,-36.621,-39.062,-344.727,0.000
1606139822.933,-18.066,-28.809,-19.043,-25.391,0.000
1606139822.937,59.082,-23.926,-13.672,293.945,0.000
1606139822.941,27.832,-25.391,-21.484,207.031,0.000
1606139822.945,-69.824,-26.367,-13.672,-173.828,0.000
1606139822.949,-106.445,-23.926,-12.207,-336.914,0.000
1606139822.953,-30.273,-20.996,-18.066,-76.660,0.000
1606139822.957,52.246,-25.391,-26.367,257.812,0.000
1606139822.961,31.738,-34.180,-30.273,231.934,0.000
1606139822.965,-70.801,-36.621,-22.949,-144.531,0.000
1606139822.969,-129.883,-34.668,-28.320,-371.094,0.000
1606139822.973,-58.105,-35.645,-36.133,-151.367,0.000
1606139822.976,43.457,-28.320,-23.438,235.840,0.000
1606139822.980,29.297,-24.902,-22.949,272.949,0.000
1606139822.984,-69.824,-35.645,-29.297,-90.332,0.000
1606139822.988,-123.535,-38.086,-31.738,-359.375,0.000
1606139822.992,-61.035,-33.203,-28.320,-184.082,0.000
1606139822.996,49.316,-21.973,-20.508,224.121,0.000
1606139823.000,58.594,-15.625,-20.996,312.988,0.000
1606139823.004,-45.898,-27.832,-26.367,-45.410,0.000
1606139823.008,-114.258,-33.203,-36.133,-368.164,0.000
1606139823.012,-72.266,-27.832,-32.715,-243.164,0.000
1606139823.016,24.902,-11.230,-25.879,169.434,0.000
1606139823.019,51.270,-20.508,-20.020,305.176,0.000
1606139823.023,-36.133,-41.016,-24.902,2.441,0.000
1606139823.027,-121.094,-40.527,-39.062,-349.609,0.000
1606139823.031,-91.797,-36.621,-36.621,-296.875,0.000
1606139823.035,18.066,-27.832,-24.414,122.559,0.000
1606139823.039,62.988,-24.902,-14.160,332.031,0.000
1606139823.043,-10.742,-26.855,-23.926,77.148,0.000
1606139823.047,-103.516,-35.156,-32.715,-310.547,0.000
1606139823.051,-92.285,-40.039,-29.297,-331.543,0.000
1606139823.055,16.113,-15.625,-31.250,67.871,0.000
1606139823.058,77.637,-13.672,-25.391,331.543,0.000
1606139823.062,17.578,-21.973,-22.461,133.789,0.000
1606139823.066,-90.820,-27.344,-26.855,-265.137,0.000
1606139823.070,-109.375,-40.527,-37.598,-355.469,0.000
1606139823.074,-4.395,-37.109,-31.250,0.000,0.000
1606139823.078,77.637,-29.297,-21.484,323.242,0.000
1606139823.082,23.926,-31.250,-34.180,179.199,0.000
1606139823.086,-87.891,-31.250,-35.645,-259.277,0.000
1606139823.090,-108.887,-41.504,-26.855,-387.695,0.000
1606139823.094,-12.207,-6.348,-15.137,-34.180,0.000
1606139823.098,73.242,18.066,-23.926,316.895,0.000
1606139823.101,47.363,-23.926,-31.738,226.074,0.000
1606139823.105,-61.035,-33.203,-31.738,-212.891,0.000
1606139823.109,-106.934,-40.039,-30.762,-407.227,0.000
1606139823.113,-24.414,-38.574,-33.691,-109.863,0.000
1606139823.117,72.754,-25.391,-34.180,271.973,0.000
1606139823.121,53.223,-25.879,-28.809,253.906,0.000
1606139823.125,-60.059,-28.809,-33.203,-151.855,0.000
1606139823.129,-115.234,-35.645,-43.457,-393.066,0.000
1606139823.133,-48.340,-35.645,-44.922,-159.180,0.000
1606139823.137,59.570,-17.090,-33.203,245.605,0.000
1606139823.141,59.570,-14.648,-30.273,284.180,0.000
1606139823.144,-48.828,-22.461,-28.320,-101.562,0.000
1606139823.148,-111.328,-32.227,-22.461,-370.117,0.000
1606139823.152,-51.758,-17.578,-19.531,-183.594,0.000
1606139823.156,52.246,-5.371,-19.043,215.820,0.000
1606139823.160,57.129,-22.461,-23.926,287.598,0.000
1606139823.164,-37.109,-24.414,-31.250,-51.758,0.000
1606139823.168,-106.934,-31.250,-33.691,-338.867,0.000
1606139823.172,-65.430,-29.785,-36.133,-222.656,0.000
1606139823.176,41.504,-19.043,-34.180,170.898,0.000
1606139823.180,61.035,-22.949,-31.738,307.129,0.000
1606139823.183,-27.832,-28.809,-36.621,7.324,0.000
1606139823.187,-108.398,-33.691,-45.898,-326.172,0.000
1606139823.191,-90.332,-22.461,-46.875,-269.531,0.000
1606139823.195,13.184,17.578,-21.973,125.000,0.000
1606139823.199,61.035,8.789,-6.836,319.336,0.000
1606139823.203,-15.137,-32.227,-25.879,62.012,0.000
1606139823.207,-119.141,-35.156,-29.297,-311.523,0.000
1606139823.211,-114.746,-30.762,-27.832,-315.430,0.000
1606139823.215,-4.883,-33.203,-21.973,75.684,0.000
1606139823.219,54.199,-36.621,-13.672,329.590,0.000
1606139823.223,-4.395,-37.109,-14.648,125.488,0.000
1606139823.226,-99.609,-41.016,-26.855,-260.742,0.000
1606139823.230,-104.004,-43.945,-27.832,-325.195,0.000
1606139823.234,-9.766,-24.414,-31.738,25.879,0.000
1606139823.238,52.734,-20.508,-32.227,319.336,0.000
1606139823.242,2.930,-34.180,-21.973,169.434,0.000
1606139823.246,-99.121,-35.645,-27.344,-245.117,0.000
1606139823.250,-117.188,-32.715,-28.809,-365.723,0.000
1606139823.254,-24.414,-32.227,-22.461,-34.668,0.000
1606139823.258,55.664,-24.902,-18.555,303.223,0.000
1606139823.262,16.113,-19.531,-26.855,201.660,0.000
1606139823.266,-90.332,-31.250,-34.180,-213.867,0.000
1606139823.269,-120.605,-36.621,-32.227,-378.906,0.000
1606139823.273,-36.621,-28.320,-19.531,-95.703,0.000
1606139823.277,52.734,-18.066,-15.137,277.344,0.000
1606139823.281,41.504,-12.695,-26.855,263.184,0.000
1606139823.285,-59.570,-17.578,-28.809,-132.812,0.000
1606139823.289,-114.746,-31.250,-26.367,-371.094,0.000
1606139823.293,-49.805,-19.043,-26.855,-146.484,0.000
1606139823.297,49.805,4.395,-26.367,250.488,0.000
1606139823.301,47.363,-17.090,-32.227,271.973,0.000
1606139823.305,-55.176,-41.016,-39.551,-117.188,0.000
1606139823.308,-117.188,-42.969,-38.574,-379.395,0.000
1606139823.312,-67.383,-39.062,-31.250,-202.637,0.000
1606139823.316,36.133,-28.809,-15.625,213.867,0.000
1606139823.320,45.898,-25.391,-18.066,308.594,0.000
1606139823.324,-49.805,-32.715,-27.832,-41.504,0.000
1606139823.328,-123.535,-39.062,-29.297,-345.703,0.000
1606139823.332,-81.055,-35.156,-28.320,-226.074,0.000
1606139823.336,31.738,-19.531,-23.926,179.688,0.000
1606139823.340,53.711,-21.484,-24.902,308.594,0.000
1606139823.344,-35.156,-30.762,-22.461,1.953,0.000
1606139823.348,-122.559,-37.109,-29.785,-341.309,0.000
1606139823.351,-101.562,-40.039,-35.645,-282.715,0.000
1606139823.355,0.977,-34.668,-21.973,128.418,0.000
1606139823.359,40.527,-33.691,-18.066,317.871,0.000
1606139823.363,-31.738,-41.504,-21.484,58.594,0.000
1606139823.367,-123.535,-41.992,-31.250,-305.664,0.000
1606139823.371,-107.422,-29.297,-29.297,-302.734,0.000
1606139823.375,3.906,-6.836,-18.066,89.844,0.000
1606139823.379,58.594,-14.160,-27.832,319.336,0.000
1606139823.383,-7.812,-30.762,-30.273,97.656,0.000
1606139823.387,-105.957,-35.645,-30.273,-282.715,0.000
1606139823.391,-104.004,-32.227,-41.992,-332.520,0.000
1606139823.394,-4.883,-18.555,-35.156,24.414,0.000
1606139823.398,53.711,-25.391,-24.902,289.551,0.000
1606139823.402,4.395,-36.621,-28.320,140.625,0.000
1606139823.406,-89.844,-43.945,-30.273,-234.863,0.000
1606139823.410,-104.492,-39.551,-30.273,-341.797,0.000
1606139823.414,-4.395,-26.367,-15.625,-19.531,0.000
1606139823.418,71.289,-23.926,-5.859,284.180,0.000
1606139823.422,31.738,-29.297,-14.160,192.383,0.000
1606139823.426,-70.312,-39.062,-36.621,-195.801,0.000
1606139823.430,-106.445,-42.969,-45.898,-353.027,0.000
1606139823.433,-23.926,-16.602,-26.855,-61.523,0.000
1606139823.437,61.035,-10.254,-21.973,275.391,0.000
1606139823.441,36.133,-26.855,-25.879,234.375,0.000
1606139823.445,-61.523,-30.762,-30.273,-133.789,0.000
1606139823.449,-104.980,-33.691,-30.762,-329.590,0.000
1606139823.453,-32.227,-22.949,-14.160,-96.680,0.000
1606139823.457,50.293,-16.602,-11.230,246.094,0.000
1606139823.461,30.273,-27.832,-25.391,245.117,0.000
1606139823.465,-63.965,-37.109,-30.762,-111.816,0.000
1606139823.469,-120.605,-39.551,-37.598,-344.727,0.000
1606139823.473,-67.871,-27.344,-35.645,-165.527,0.000
1606139823.476,32.227,-8.301,-19.531,206.055,0.000
1606139823.480,42.969,-20.020,-23.438,271.973,0.000
1606139823.484,-57.617,-41.016,-32.227,-65.430,0.000
1606139823.488,-120.117,-47.852,-34.180,-346.680,0.000
1606139823.492,-71.289,-36.621,-31.250,-214.844,0.000
1606139823.496,39.062,-24.414,-12.695,177.734,0.000
1606139823.500,70.801,-29.785,-11.230,298.340,0.000
1606139823.504,-21.484,-39.551,-34.668,-9.766,0.000
1606139823.508,-100.586,-37.109,-43.457,-327.148,0.000
1606139823.512,-69.824,-17.090,-29.297,-253.906,0.000
1606139823.516,31.250,-5.371,-30.762,127.930,0.000
1606139823.519,64.453,-26.855,-39.062,295.898,0.000
1606139823.523,-12.207,-37.598,-29.785,41.992,0.000
1606139823.527,-96.191,-39.551,-33.691,-304.688,0.000
1606139823.531,-83.008,-30.273,-28.809,-289.062,0.000
1606139823.535,21.973,-13.672,-16.113,91.309,0.000
1606139823.539,71.289,-17.578,-18.066,316.895,0.000
1606139823.543,-7.324,-25.879,-28.809,97.656,0.000
1606139823.547,-101.074,-31.738,-38.086,-269.531,0.000
1606139823.551,-101.562,-30.762,-37.109,-313.477,0.000
1606139823.555,-9.766,-25.391,-36.133,22.461,0.000
1606139823.558,58.105,-21.484,-26.855,295.410,0.000
1606139823.562,7.812,-23.926,-21.973,151.367,0.000
1606139823.566,-92.285,-31.738,-26.367,-234.375,0.000
1606139823.570,-114.258,-41.016,-37.109,-350.098,0.000
1606139823.574,-12.695,2.441,-45.410,-31.250,0.000
1606139823.578,83.008,25.879,-28.320,301.270,0.000
1606139823.582,15.137,-22.461,-20.508,186.523,0.000
1606139823.586,-107.910,-37.598,-28.320,-219.238,0.000
1606139823.590,-126.953,-39.551,-32.227,-371.582,0.000
1606139823.594,-45.410,-33.691,-23.438,-94.727,0.000
1606139823.598,39.062,-21.484,-11.230,249.512,0.000
1606139823.601,2.930,-31.250,-23.438,200.195,0.000
1606139823.605,-107.910,-33.203,-36.133,-192.383,0.000
1606139823.609,-146.973,-41.504,-33.691,-390.137,0.000
1606139823.613,-73.730,-10.254,-27.832,-156.738,0.000
1606139823.617,22.461,4.883,-12.207,215.332,0.000
1606139823.621,24.902,-39.062,-9.277,244.629,0.000
1606139823.625,-73.730,-47.852,-24.902,-130.371,0.000
1606139823.629,-129.883,-48.340,-26.855,-379.883,0.000
1606139823.633,-63.965,-41.504,-18.555,-181.641,0.000
1606139823.637,40.527,-36.133,-17.090,210.449,0.000
1606139823.641,50.781,-37.109,-20.020,288.574,0.000
1606139823.644,-41.016,-34.180,-21.484,-51.270,0.000
1606139823.648,-113.281,-40.527,-18.066,-357.422,0.000
1606139823.652,-74.219,-24.902,-23.438,-238.770,0.000
1606139823.656,35.156,-10.254,-20.508,171.875,0.000
1606139823.660,60.059,-20.508,-15.625,311.035,0.000
1606139823.664,-37.109,-34.668,-21.484,1.465,0.000
1606139823.668,-126.953,-52.734,-16.602,-337.402,0.000
1606139823.672,-93.750,-30.762,-24.414,-272.949,0.000
1606139823.676,15.137,-8.789,-30.273,123.047,0.000
1606139823.680,52.246,-25.879,-24.414,305.176,0.000
1606139823.683,-35.645,-42.969,-34.180,39.062,0.000
1606139823.687,-137.695,-52.734,-31.250,-326.172,0.000
1606139823.691,-124.023,-48.828,-24.414,-320.312,0.000
1606139823.695,-11.230,-35.645,-20.020,63.965,0.000
1606139823.699,51.758,-25.879,-18.066,303.711,0.000
1606139823.703,-9.277,-28.320,-21.484,94.727,0.000
1606139823.707,-110.840,-43.945,-19.531,-298.340,0.000
1606139823.711,-116.699,-38.574,-26.367,-343.750,0.000
1606139823.715,-10.742,-8.789,-25.879,26.367,0.000
1606139823.719,64.941,-15.137,-12.207,302.734,0.000
1606139823.723,13.184,-33.691,-16.602,135.254,0.000
1606139823.726,-97.656,-42.480,-34.668,-267.090,0.000
1606139823.730,-114.258,-47.363,-37.109,-373.535,0.000
1606139823.734,-12.695,-38.574,-30.273,-43.945,0.000
1606139823.738,65.430,-29.785,-29.297,277.832,0.000
1606139823.742,18.555,-30.762,-26.367,176.270,0.000
1606139823.746,-83.984,-33.691,-25.879,-212.891,0.000
1606139823.750,-102.539,-35.645,-26.855,-344.727,0.000
1606139823.754,-21.484,4.395,-25.391,-65.430,0.000
1606139823.758,47.852,20.020,-25.391,251.465,0.000
1606139823.762,22.461,-29.785,-30.273,198.730,0.000
1606139823.766,-68.359,-38.086,-28.809,-162.109,0.000
1606139823.769,-98.145,-32.227,-24.902,-336.914,0.000
1606139823.773,-26.367,-31.738,-25.391,-107.910,0.000
1606139823.777,59.082,-27.832,-25.391,233.398,0.000
1606139823.781,49.805,-27.344,-25.879,243.652,0.000
1606139823.785,-45.898,-34.180,-29.785,-106.934,0.000
1606139823.789,-98.633,-36.621,-31.250,-338.867,0.000
1606139823.793,-49.805,-24.902,-26.855,-151.855,0.000
1606139823.797,38.086,-20.508,-12.207,229.492,0.000
1606139823.801,44.434,-27.344,-10.254,288.086,0.000
1606139823.805,-53.711,-34.668,-24.902,-51.758,0.000
1606139823.808,-119.141,-48.828,-23.926,-329.590,0.000
1606139823.812,-74.707,-17.578,-22.949,-204.102,0.000
1606139823.816,21.973,6.836,-22.949,177.246,0.000
1606139823.820,46.875,-22.461,-22.461,298.828,0.000
1606139823.824,-33.691,-37.109,-27.832,-10.742,0.000
1606139823.828,-107.422,-38.574,-28.809,-311.523,0.000
1606139823.832,-78.125,-34.668,-31.738,-226.074,0.000
1606139823.836,26.367,-31.250,-22.461,146.484,0.000
1606139823.840,64.453,-29.297,-16.113,320.312,0.000
1606139823.844,-14.648,-31.738,-24.414,63.477,0.000
1606139823.848,-102.539,-42.969,-32.715,-294.434,0.000
1606139823.851,-88.867,-30.273,-33.691,-278.320,0.000
1606139823.855,16.602,35.645,-20.996,91.309,0.000
1606139823.859,70.801,15.625,-12.695,295.898,0.000
1606139823.863,4.883,-42.969,-25.879,84.473,0.000
1606139823.867,-94.238,-49.805,-43.457,-282.227,0.000
1606139823.871,-97.168,-43.945,-40.527,-311.523,0.000
1606139823.875,-1.465,-29.785,-31.738,43.945,0.000
1606139823.879,54.199,-26.855,-29.297,293.457,0.000
1606139823.883,0.000,-28.320,-21.484,133.789,0.000
1606139823.887,-93.750,-38.574,-26.855,-238.770,0.000
1606139823.891,-99.609,-33.203,-32.715,-318.848,0.000
1606139823.894,-13.672,9.277,-27.344,-4.883,0.000
1606139823.898,47.852,-3.418,-29.785,274.414,0.000
1606139823.902,8.301,-37.598,-38.086,169.434,0.000
1606139823.906,-79.102,-34.180,-35.156,-196.777,0.000
1606139823.910,-101.562,-34.180,-32.227,-339.355,0.000
1606139823.914,-27.344,-28.809,-30.762,-68.359,0.000
1606139823.918,59.082,-27.344,-20.508,265.137,0.000
1606139823.922,51.270,-33.691,-19.043,230.957,0.000
1606139823.926,-66.406,-34.180,-37.598,-167.969,0.000
1606139823.930,-129.395,-41.504,-51.270,-390.625,0.000
1606139823.933,-49.316,-25.391,-41.504,-140.137,0.000
1606139823.937,37.598,-18.066,-28.320,218.750,0.000
1606139823.941,24.414,-38.574,-19.531,221.191,0.000
1606139823.945,-75.684,-42.480,-28.320,-151.367,0.000
1606139823.949,-136.230,-54.199,-41.992,-399.902,0.000
1606139823.953,-68.848,-5.371,-36.621,-202.637,0.000
1606139823.957,39.062,20.996,-23.438,183.594,0.000
1606139823.961,45.898,-30.273,-20.508,261.719,0.000
1606139823.965,-50.293,-40.527,-34.180,-76.660,0.000
1606139823.969,-113.281,-45.410,-34.668,-360.840,0.000
1606139823.973,-57.129,-36.621,-26.855,-222.168,0.000
1606139823.976,46.387,-29.785,-21.973,162.109,0.000
1606139823.980,65.918,-34.180,-23.438,286.133,0.000
1606139823.984,-21.973,-34.180,-29.785,-16.602,0.000
1606139823.988,-110.840,-49.805,-41.016,-350.098,0.000
1606139823.992,-77.637,-29.785,-41.992,-272.949,0.000
1606139823.996,38.574,-1.465,-24.414,131.836,0.000
1606139824.000,76.172,-23.438,-20.508,313.477,0.000
1606139824.004,-11.230,-29.297,-26.367,51.758,0.000
1606139824.008,-113.770,-35.645,-35.645,-300.293,0.000
1606139824.012,-99.609,-43.945,-32.715,-292.480,0.000
1606139824.016,8.789,-37.598,-16.113,98.145,0.000
1606139824.019,55.176,-34.180,-16.113,331.055,0.000
1606139824.023,-20.996,-34.180,-21.973,92.285,0.000
1606139824.027,-119.141,-41.992,-28.809,-293.457,0.000
1606139824.031,-115.723,-39.062,-26.855,-320.801,0.000
1606139824.035,-18.555,31.250,-12.207,41.992,0.000
1606139824.039,44.922,24.414,-5.859,308.594,0.000
1606139824.043,-8.301,-39.062,-21.484,135.742,0.000
1606139824.047,-116.211,-42.480,-32.715,-262.695,0.000
1606139824.051,-131.348,-44.922,-27.832,-359.863,0.000
1606139824.055,-29.785,-39.551,-18.555,-23.926,0.000
1606139824.058,47.363,-34.668,-18.066,290.527,0.000
1606139824.062,5.371,-38.574,-17.578,179.199,0.000
1606139824.066,-103.027,-43.945,-19.043,-225.098,0.000
1606139824.070,-138.672,-44.922,-29.785,-387.207,0.000
1606139824.074,-49.316,-33.691,-31.250,-93.262,0.000
1606139824.078,44.434,-27.832,-13.672,257.812,0.000
1606139824.082,15.625,-30.273,-19.531,204.590,0.000
1606139824.086,-98.145,-38.086,-38.574,-197.754,0.000
1606139824.090,-139.648,-45.410,-41.992,-399.902,0.000
1606139824.094,-57.617,-21.973,-39.062,-143.555,0.000
1606139824.098,36.133,-16.113,-33.691,237.305,0.000
1606139824.101,30.273,-32.227,-21.484,256.836,0.000
1606139824.105,-72.266,-33.203,-20.508,-123.535,0.000
1606139824.109,-133.789,-37.598,-29.297,-374.023,0.000
1606139824.113,-73.242,-40.039,-36.133,-171.387,0.000
1606139824.117,25.879,-32.715,-33.203,199.707,0.000
1606139824.121,41.504,-26.367,-20.996,267.578,0.000
1606139824.125,-48.828,-26.367,-28.809,-54.688,0.000
1606139824.129,-125.488,-44.922,-27.832,-350.586,0.000
1606139824.133,-76.172,-6.348,-21.484,-216.797,0.000
1606139824.137,32.227,51.758,-23.438,177.246,0.000
1606139824.141,45.898,-4.883,-25.391,295.410,0.000
1606139824.144,-58.594,-51.270,-31.250,-24.902,0.000
1606139824.148,-141.113,-49.805,-30.273,-358.887,0.000
1606139824.152,-98.633,-37.598,-25.391,-279.785,0.000
1606139824.156,11.719,-26.367,-13.184,122.559,0.000
1606139824.160,48.828,-30.762,-16.602,298.340,0.000
1606139824.164,-29.297,-37.109,-30.762,30.273,0.000
1606139824.168,-118.652,-41.992,-35.645,-312.988,0.000
1606139824.172,-98.145,-18.555,-34.180,-290.527,0.000
1606139824.176,4.883,1.953,-24.414,72.754,0.000
1606139824.180,49.316,-20.508,-19.531,282.227,0.000
1606139824.183,-21.973,-33.691,-29.297,65.918,0.000
1606139824.187,-121.582,-48.340,-47.363,-304.199,0.000
1606139824.191,-111.328,-43.945,-37.598,-328.613,0.000
1606139824.195,-10.254,-31.250,-29.297,24.902,0.000
1606139824.199,44.434,-41.992,-33.203,267.578,0.000
1606139824.203,-12.695,-46.387,-24.414,115.234,0.000
1606139824.207,-115.723,-44.922,-35.156,-251.465,0.000
1606139824.211,-121.582,-42.969,-37.109,-333.496,0.000
1606139824.215,-26.367,-34.180,-26.367,-10.254,0.000
1606139824.219,37.109,-35.645,-30.762,272.461,0.000
1606139824.223,-2.441,-40.527,-29.785,161.621,0.000
1606139824.226,-97.168,-43.457,-25.391,-212.402,0.000
1606139824.230,-118.652,-47.852,-24.414,-336.426,0.000
1606139824.234,-37.109,-1.953,-20.508,-48.828,0.000
1606139824.238,41.992,18.066,-8.789,262.695,0.000
1606139824.242,19.531,-26.367,-14.160,209.961,0.000
1606139824.246,-85.449,-44.434,-19.531,-157.715,0.000
1606139824.250,-127.930,-44.922,-18.555,-336.426,0.000
1606139824.254,-50.781,-42.480,-33.203,-98.633,0.000
1606139824.258,41.992,-34.180,-23.926,246.582,0.000
1606139824.262,28.809,-31.738,-17.578,250.000,0.000
1606139824.266,-68.848,-40.039,-30.762,-108.887,0.000
1606139824.269,-125.000,-52.734,-41.504,-345.215,0.000
1606139824.273,-60.059,-7.324,-27.832,-154.785,0.000
1606139824.277,35.645,11.719,-17.578,208.496,0.000
1606139824.281,36.621,-31.250,-26.367,261.719,0.000
1606139824.285,-49.316,-36.621,-25.391,-69.824,0.000
1606139824.289,-108.887,-34.668,-23.926,-336.426,0.000
1606139824.293,-55.664,-26.367,-25.391,-195.312,0.000
1606139824.297,42.969,-18.066,-23.438,180.176,0.000
1606139824.301,59.082,-20.508,-26.855,296.875,0.000
1606139824.305,-23.438,-26.855,-23.926,1.465,0.000
1606139824.308,-96.191,-38.086,-25.879,-311.523,0.000
1606139824.312,-61.035,-4.395,-34.180,-225.586,0.000
1606139824.316,40.039,42.480,-25.879,154.785,0.000
1606139824.320,61.035,2.930,-20.508,308.594,0.000
1606139824.324,-23.438,-35.156,-25.879,42.480,0.000
1606139824.328,-99.121,-30.762,-21.484,-297.363,0.000
1606139824.332,-83.984,-31.250,-23.926,-280.273,0.000
1606139824.336,15.625,-35.645,-30.762,98.145,0.000
1606139824.340,68.848,-34.180,-23.926,322.754,0.000
1606139824.344,0.000,-32.715,-19.531,104.004,0.000
1606139824.348,-101.562,-39.062,-18.555,-275.391,0.000
1606139824.351,-102.051,-40.039,-23.438,-320.801,0.000
1606139824.355,3.418,-27.344,-24.414,48.340,0.000
1606139824.359,64.453,-24.902,-24.414,315.918,0.000
1606139824.363,1.953,-25.391,-31.738,142.090,0.000
1606139824.367,-93.750,-33.691,-28.320,-252.930,0.000
1606139824.371,-96.680,-32.227,-21.484,-337.891,0.000
1606139824.375,0.977,-2.930,-20.508,3.418,0.000
1606139824.379,71.777,-19.531,-21.973,310.547,0.000
1606139824.383,19.043,-39.062,-29.297,193.359,0.000
1606139824.387,-81.055,-32.715,-27.344,-205.078,0.000
1606139824.391,-102.539,-26.855,-23.438,-348.633,0.000
1606139824.394,-20.508,-20.020,-20.996,-53.223,0.000
1606139824.398,68.848,-27.832,-14.160,287.109,0.000
1606139824.402,41.504,-37.109,-19.531,239.746,0.000
1606139824.406,-68.848,-34.668,-25.391,-145.996,0.000
1606139824.410,-118.652,-47.852,-30.762,-367.188,0.000
1606139824.414,-46.875,-21.973,-17.578,-127.441,0.000
1606139824.418,53.223,1.465,-9.766,256.348,0.000
1606139824.422,48.828,-27.344,-19.531,264.160,0.000
1606139824.426,-54.688,-40.039,-24.902,-117.676,0.000
1606139824.430,-114.258,-45.410,-27.344,-362.793,0.000
1606139824.433,-53.223,-42.480,-24.902,-161.621,0.000
1606139824.437,48.828,-36.621,-15.137,232.910,0.000
1606139824.441,55.664,-32.715,-10.742,298.340,0.000
1606139824.445,-45.410,-35.156,-29.785,-64.941,0.000
1606139824.449,-118.652,-47.363,-39.062,-355.469,0.000
1606139824.453,-67.383,-24.902,-35.156,-208.984,0.000
1606139824.457,45.410,-9.766,-22.949,190.918,0.000
1606139824.461,65.918,-37.598,-14.160,303.711,0.000
1606139824.465,-30.762,-48.828,-31.250,-20.996,0.000
1606139824.469,-111.816,-52.734,-46.875,-342.285,0.000
1606139824.473,-79.102,-46.875,-38.574,-258.301,0.000
1606139824.476,28.320,-36.133,-26.367,139.648,0.000
1606139824.480,65.918,-30.762,-26.855,307.129,0.000
1606139824.484,-14.648,-35.156,-33.691,33.691,0.000
1606139824.488,-94.727,-35.645,-38.574,-301.758,0.000
1606139824.492,-69.336,-30.273,-26.855,-271.973,0.000
1606139824.496,30.273,-27.832,-24.902,93.750,0.000
1606139824.500,75.684,-20.996,-34.180,303.223,0.000
1606139824.504,7.812,-22.949,-30.762,86.426,0.000
1606139824.508,-95.215,-40.527,-33.203,-278.320,0.000
1606139824.512,-90.820,-27.344,-41.504,-306.641,0.000
1606139824.516,9.277,21.973,-35.156,49.316,0.000
1606139824.519,68.359,10.254,-29.297,290.039,0.000
1606139824.523,19.043,-26.367,-28.809,126.953,0.000
1606139824.527,-74.219,-34.668,-16.602,-223.633,0.000
1606139824.531,-83.984,-28.809,-23.926,-299.316,0.000
1606139824.535,-4.395,-25.391,-32.715,7.812,0.000
1606139824.539,62.988,-30.273,-15.137,283.203,0.000
1606139824.543,26.855,-29.785,-22.461,168.457,0.000
1606139824.547,-71.289,-36.133,-49.316,-200.684,0.000
1606139824.551,-87.891,-30.762,-39.551,-326.172,0.000
1606139824.555,-9.766,-4.883,-28.320,-44.922,0.000
1606139824.558,60.059,-13.672,-30.273,266.602,0.000
1606139824.562,34.180,-22.949,-24.902,211.914,0.000
1606139824.566,-62.500,-21.484,-26.855,-154.785,0.000
1606139824.570,-103.516,-38.086,-30.762,-337.402,0.000
1606139824.574,-24.902,-34.668,-28.320,-88.379,0.000
1606139824.578,65.430,-25.879,-19.531,264.648,0.000
1606139824.582,44.434,-29.297,-15.625,255.371,0.000
1606139824.586,-60.547,-30.762,-27.832,-114.258,0.000
1606139824.590,-109.375,-38.574,-27.832,-343.262,0.000
1606139824.594,-43.945,-3.906,-25.391,-138.184,0.000
1606139824.598,50.781,21.484,-24.414,229.004,0.000
1606139824.601,46.387,-15.625,-21.484,267.090,0.000
1606139824.605,-56.152,-37.598,-26.367,-86.426,0.000
1606139824.609,-118.164,-40.039,-33.691,-356.934,0.000
1606139824.613,-71.777,-38.086,-31.250,-215.820,0.000
1606139824.617,32.715,-38.086,-17.578,170.410,0.000
1606139824.621,49.316,-32.715,-17.090,281.738,0.000
1606139824.625,-40.039,-32.715,-25.391,-25.391,0.000
1606139824.629,-114.746,-42.480,-26.367,-333.008,0.000
1606139824.633,-85.938,-41.016,-26.855,-254.395,0.000
1606139824.637,18.066,-29.297,-24.414,130.371,0.000
1606139824.641,50.781,-29.297,-18.066,291.992,0.000
1606139824.644,-30.762,-37.598,-27.832,18.555,0.000
1606139824.648,-116.699,-44.434,-34.668,-326.660,0.000
1606139824.652,-93.750,-21.484,-22.949,-287.109,0.000
1606139824.656,17.090,-0.488,-19.531,101.074,0.000
1606139824.660,64.453,-17.090,-21.973,300.781,0.000
1606139824.664,-8.301,-28.809,-26.367,73.730,0.000
1606139824.668,-94.727,-33.203,-21.973,-279.297,0.000
1606139824.672,-85.938,-29.785,-13.672,-301.758,0.000
1606139824.676,8.301,-29.785,-17.578,52.734,0.000
1606139824.680,69.824,-29.785,-22.949,307.129,0.000
1606139824.683,27.832,-26.855,-22.949,145.508,0.000
1606139824.687,-67.383,-37.109,-30.273,-226.562,0.000
1606139824.691,-94.727,-31.738,-41.504,-333.496,0.000
1606139824.695,-0.488,11.230,-20.020,-11.230,0.000
1606139824.699,82.031,7.324,-16.113,307.617,0.000
1606139824.703,30.273,-23.438,-39.551,191.406,0.000
1606139824.707,-79.590,-29.785,-39.062,-210.449,0.000
1606139824.711,-104.492,-33.203,-34.668,-345.215,0.000
1606139824.715,-15.625,-29.785,-31.738,-54.199,0.000
1606139824.719,75.195,-21.484,-13.672,278.809,0.000
1606139824.723,50.781,-11.230,-13.672,227.539,0.000
1606139824.726,-55.664,-21.484,-33.691,-170.410,0.000
1606139824.730,-101.074,-38.086,-33.691,-358.887,0.000
1606139824.734,-24.902,-24.902,-28.320,-103.027,0.000
1606139824.738,67.871,-20.020,-30.762,256.348,0.000
1606139824.742,65.430,-24.902,-16.602,270.996,0.000
1606139824.746,-37.598,-28.809,-17.090,-103.516,0.000
1606139824.750,-107.910,-38.086,-40.527,-362.793,0.000
1606139824.754,-42.969,-32.715,-35.645,-164.551,0.000
1606139824.758,64.941,-22.949,-25.391,223.633,0.000
1606139824.762,66.895,-19.043,-25.391,277.832,0.000
1606139824.766,-39.551,-26.367,-24.902,-74.219,0.000
1606139824.769,-105.957,-39.062,-32.227,-344.238,0.000
1606139824.773,-54.199,-37.109,-36.133,-188.965,0.000
1606139824.777,48.340,-30.762,-24.414,197.266,0.000
1606139824.781,63.477,-25.879,-26.855,303.711,0.000
1606139824.785,-28.809,-23.438,-27.832,-16.602,0.000
1606139824.789,-105.957,-37.109,-28.809,-341.309,0.000
1606139824.793,-73.242,-28.809,-36.133,-261.719,0.000
1606139824.797,36.133,-10.742,-20.996,146.484,0.000
1606139824.801,71.289,-16.113,-13.184,322.754,0.000
1606139824.805,-17.090,-31.738,-28.809,35.156,0.000
1606139824.808,-102.051,-41.016,-37.598,-318.848,0.000
1606139824.812,-73.730,-33.691,-31.250,-271.973,0.000
1606139824.816,25.879,-30.273,-25.391,113.281,0.000
1606139824.820,71.289,-26.855,-20.996,317.383,0.000
1606139824.824,13.672,-24.414,-19.531,99.609,0.000
1606139824.828,-75.684,-29.297,-25.391,-252.930,0.000
1606139824.832,-75.684,-26.855,-23.926,-278.320,0.000
1606139824.836,20.020,-12.695,-17.578,65.430,0.000
1606139824.840,67.871,-26.855,-18.066,298.340,0.000
1606139824.844,13.184,-40.527,-20.020,133.789,0.000
1606139824.848,-74.707,-36.621,-24.902,-221.680,0.000
1606139824.851,-85.449,-36.133,-27.344,-294.922,0.000
1606139824.855,2.930,-32.715,-32.227,18.555,0.000
1606139824.859,75.195,-25.391,-22.461,295.410,0.000
1606139824.863,34.668,-22.461,-16.113,187.012,0.000
1606139824.867,-71.777,-31.250,-26.855,-191.406,0.000
1606139824.871,-97.656,-37.598,-28.320,-323.730,0.000
1606139824.875,-14.648,-13.672,-33.691,-26.855,0.000
1606139824.879,71.289,-9.766,-23.926,287.598,0.000
1606139824.883,49.805,-29.297,-15.625,215.332,0.000
1606139824.887,-55.176,-30.273,-20.020,-151.855,0.000
1606139824.891,-94.238,-30.273,-29.297,-326.172,0.000
1606139824.894,-18.066,-25.879,-31.250,-89.844,0.000
1606139824.898,65.430,-24.414,-19.531,252.930,0.000
1606139824.902,45.410,-28.320,-18.555,243.652,0.000
1606139824.906,-57.129,-34.180,-29.785,-124.023,0.000
1606139824.910,-111.816,-39.062,-35.156,-342.773,0.000
1606139824.914,-52.734,-38.574,-29.785,-145.508,0.000
1606139824.918,42.480,-30.273,-24.414,212.891,0.000
1606139824.922,48.828,-29.785,-24.902,271.484,0.000
1606139824.926,-44.434,-35.156,-30.273,-62.500,0.000
1606139824.930,-110.840,-38.574,-31.738,-328.613,0.000
1606139824.933,-56.641,-30.762,-19.043,-172.363,0.000
1606139824.937,44.434,-24.414,-23.926,205.566,0.000
1606139824.941,53.223,-36.621,-32.715,294.434,0.000
1606139824.945,-36.133,-41.504,-28.809,-13.672,0.000
1606139824.949,-113.281,-44.922,-33.203,-313.965,0.000
1606139824.953,-81.055,-40.039,-26.855,-221.680,0.000
1606139824.957,22.949,-36.133,-22.949,151.855,0.000
1606139824.961,54.688,-34.668,-27.832,291.992,0.000
1606139824.965,-24.902,-30.762,-28.809,26.855,0.000
1606139824.969,-102.539,-33.203,-31.738,-281.738,0.000
1606139824.973,-80.566,-13.672,-34.180,-250.000,0.000
1606139824.976,38.086,23.438,-27.832,125.000,0.000
1606139824.980,77.637,5.371,-15.625,319.824,0.000
1606139824.984,-38.086,-30.762,-14.648,61.523,0.000
1606139824.988,-143.555,-42.480,-24.902,-292.480,0.000
1606139824.992,-131.348,-45.898,-25.391,-310.547,0.000
1606139824.996,-44.922,-38.086,-23.438,17.578,0.000
1606139825.000,6.348,-35.645,-22.949,247.559,0.000
1606139825.004,-46.875,-33.203,-15.625,82.520,0.000
1606139825.008,-149.414,-37.598,-22.949,-293.945,0.000
1606139825.012,-150.879,-41.992,-32.715,-367.188,0.000
1606139825.016,-43.945,-31.250,-30.762,-28.809,0.000
1606139825.019,27.344,-27.832,-25.879,258.301,0.000
1606139825.023,-16.113,-37.109,-26.855,140.625,0.000
1606139825.027,-119.629,-45.898,-32.715,-245.605,0.000
1606139825.031,-135.742,-37.598,-29.785,-365.234,0.000
1606139825.035,-35.645,-33.691,-22.949,-59.082,0.000
1606139825.039,46.387,-30.762,-22.949,259.277,0.000
1606139825.043,17.578,-32.227,-24.902,196.289,0.000
1606139825.047,-82.520,-33.203,-26.855,-182.617,0.000
1606139825.051,-125.977,-35.156,-26.855,-374.512,0.000
1606139825.055,-52.246,-34.180,-29.297,-118.164,0.000
1606139825.058,46.387,-19.043,-25.391,255.371,0.000
1606139825.062,40.039,-18.066,-27.832,263.672,0.000
1606139825.066,-65.430,-22.949,-38.086,-110.840,0.000
1606139825.070,-130.371,-35.156,-34.668,-362.305,0.000
1606139825.074,-69.824,-32.715,-27.832,-168.457,0.000
1606139825.078,31.738,-18.066,-24.414,228.027,0.000
1606139825.082,25.879,-31.250,-21.484,277.344,0.000
1606139825.086,-76.660,-41.992,-27.344,-83.008,0.000
1606139825.090,-144.043,-40.039,-33.691,-364.258,0.000
1606139825.094,-87.891,-32.227,-26.855,-207.031,0.000
1606139825.098,25.391,-21.973,-22.949,205.078,0.000
1606139825.101,44.922,-21.484,-28.809,312.500,0.000
1606139825.105,-43.457,-30.273,-29.297,-12.207,0.000
1606139825.109,-121.582,-33.691,-26.367,-331.543,0.000
1606139825.113,-80.078,-33.203,-27.344,-242.676,0.000
1606139825.117,40.039,-22.461,-25.879,151.855,0.000
1606139825.121,68.359,-14.160,-31.250,312.988,0.000
1606139825.125,-13.184,-19.043,-34.668,41.016,0.000
1606139825.129,-95.215,-24.414,-33.203,-320.312,0.000
1606139825.133,-74.707,-19.531,-34.180,-293.457,0.000
1606139825.137,25.879,-16.602,-31.738,102.051,0.000
1606139825.141,76.172,-16.602,-25.391,324.219,0.000
1606139825.144,1.953,-21.973,-25.879,90.332,0.000
1606139825.148,-105.957,-37.109,-29.785,-297.363,0.000
1606139825.152,-102.051,-32.227,-27.344,-316.895,0.000
1606139825.156,3.906,-15.137,-22.949,70.312,0.000
1606139825.160,64.941,-19.043,-19.043,325.195,0.000
1606139825.164,-1.953,-28.809,-24.414,129.883,0.000
1606139825.168,-109.375,-39.062,-31.250,-267.090,0.000
1606139825.172,-118.164,-23.926,-29.297,-345.703,0.000
1606139825.176,-17.578,-3.418,-26.367,8.301,0.000
1606139825.180,59.570,-15.625,-25.391,313.477,0.000
1606139825.183,9.766,-21.484,-27.832,183.594,0.000
1606139825.187,-102.051,-25.879,-27.832,-224.121,0.000
1606139825.191,-131.836,-33.691,-30.762,-359.375,0.000
1606139825.195,-40.527,-29.785,-22.461,-53.223,0.000
1606139825.199,47.852,-18.555,-12.695,285.645,0.000
1606139825.203,20.020,-22.461,-20.996,222.168,0.000
1606139825.207,-82.031,-32.715,-22.949,-174.316,0.000
1606139825.211,-113.770,-23.926,-22.949,-354.980,0.000
1606139825.215,-45.410,-15.137,-25.879,-105.957,0.000
1606139825.219,41.016,-20.996,-15.137,249.512,0.000
1606139825.223,35.156,-28.320,-14.648,246.094,0.000
1606139825.226,-71.777,-39.551,-37.598,-134.277,0.000
1606139825.230,-123.535,-45.410,-38.086,-351.562,0.000
1606139825.234,-47.363,-34.668,-19.531,-134.766,0.000
1606139825.238,48.340,-26.855,-17.578,216.797,0.000
1606139825.242,41.016,-25.879,-25.879,255.371,0.000
1606139825.246,-51.270,-29.297,-26.855,-82.031,0.000
1606139825.250,-111.328,-32.715,-29.785,-342.773,0.000
1606139825.254,-61.523,-31.738,-32.227,-190.430,0.000
1606139825.258,37.598,-30.273,-21.973,188.965,0.000
1606139825.262,47.363,-36.133,-18.555,278.320,0.000
1606139825.266,-36.133,-33.203,-23.926,-37.109,0.000
1606139825.269,-110.840,-28.809,-30.273,-336.426,0.000
1606139825.273,-79.590,-37.109,-32.715,-246.094,0.000
1606139825.277,30.273,-30.273,-22.461,146.484,0.000
1606139825.281,63.477,-17.090,-17.090,309.082,0.000
1606139825.285,-21.484,-22.949,-27.832,21.484,0.000
1606139825.289,-108.887,-34.180,-33.203,-322.754,0.000
1606139825.293,-86.426,-31.738,-30.762,-276.367,0.000
1606139825.297,6.836,-22.949,-27.344,111.816,0.000
1606139825.301,46.387,-16.113,-21.484,308.594,0.000
1606139825.305,-20.020,-25.879,-20.508,70.801,0.000
1606139825.308,-111.328,-32.715,-32.227,-285.645,0.000
1606139825.312,-100.586,-32.715,-31.738,-305.176,0.000
1606139825.316,-9.277,-35.645,-27.832,53.223,0.000
1606139825.320,45.410,-30.273,-26.367,301.270,0.000
1606139825.324,-6.348,-29.785,-26.855,118.164,0.000
1606139825.328,-101.562,-34.668,-30.762,-252.441,0.000
1606139825.332,-107.422,-36.621,-28.320,-315.430,0.000
1606139825.336,-26.367,-30.762,-26.855,9.277,0.000
1606139825.340,38.574,-23.438,-27.344,285.156,0.000
1606139825.344,8.301,-21.973,-26.367,170.410,0.000
1606139825.348,-90.820,-27.832,-33.691,-217.285,0.000
1606139825.351,-118.164,-36.133,-49.805,-358.887,0.000
1606139825.355,-31.738,-38.086,-44.434,-57.129,0.000
1606139825.359,47.363,-25.879,-28.809,273.438,0.000
1606139825.363,24.902,-20.020,-27.832,202.148,0.000
1606139825.367,-78.613,-31.738,-36.621,-184.570,0.000
1606139825.371,-123.047,-38.574,-38.574,-360.352,0.000
1606139825.375,-48.828,-27.832,-36.133,-104.004,0.000
1606139825.379,40.527,-24.414,-34.180,239.746,0.000
1606139825.383,35.645,-21.973,-28.320,227.539,0.000
1606139825.387,-58.594,-24.414,-29.785,-129.883,0.000
1606139825.391,-103.516,-31.738,-34.180,-339.355,0.000
1606139825.394,-42.480,-28.320,-23.438,-141.602,0.000
1606139825.398,43.945,-21.973,-14.648,220.703,0.000
1606139825.402,40.527,-25.391,-27.832,256.348,0.000
1606139825.406,-59.082,-30.762,-35.156,-93.262,0.000
1606139825.410,-111.816,-30.273,-32.227,-347.168,0.000
1606139825.414,-59.082,-30.762,-31.738,-193.848,0.000
1606139825.418,32.715,-19.043,-33.203,178.223,0.000
1606139825.422,53.223,-14.648,-31.250,276.855,0.000
1606139825.426,-39.062,-32.715,-42.969,-41.016,0.000
1606139825.430,-111.816,-32.227,-44.922,-340.820,0.000
1606139825.433,-65.430,-23.438,-31.250,-233.398,0.000
1606139825.437,40.039,-21.973,-25.879,159.668,0.000
1606139825.441,64.941,-16.113,-22.949,300.781,0.000
1606139825.445,-19.531,-22.949,-31.738,6.348,0.000
1606139825.449,-100.098,-31.738,-36.621,-327.637,0.000
1606139825.453,-77.148,-32.227,-24.902,-273.438,0.000
1606139825.457,20.508,-25.879,-21.484,111.328,0.000
1606139825.461,56.152,-19.043,-20.508,303.711,0.000
1606139825.465,-16.602,-23.926,-28.809,61.523,0.000
1606139825.469,-105.469,-31.250,-40.039,-299.805,0.000
1606139825.473,-95.215,-29.785,-35.156,-313.477,0.000
1606139825.476,4.395,-23.438,-26.367,51.758,0.000
1606139825.480,64.941,-20.020,-27.344,298.828,0.000
1606139825.484,4.395,-25.879,-38.086,109.863,0.000
1606139825.488,-97.656,-43.945,-42.480,-283.203,0.000
1606139825.492,-107.422,-40.039,-36.621,-358.887,0.000
1606139825.496,-13.672,-24.902,-39.551,-22.949,0.000
1606139825.500,65.918,-24.414,-35.156,273.926,0.000
1606139825.504,26.855,-20.020,-25.391,161.133,0.000
1606139825.508,-79.590,-24.902,-31.250,-228.027,0.000
1606139825.512,-100.586,-33.203,-33.691,-356.445,0.000
1606139825.516,-20.996,-33.203,-24.414,-58.594,0.000
1606139825.519,55.664,-23.438,-20.508,274.902,0.000
1606139825.523,26.367,-27.344,-25.879,211.914,0.000
1606139825.527,-74.219,-34.180,-29.297,-173.340,0.000
1606139825.531,-113.281,-29.785,-32.715,-354.492,0.000
1606139825.535,-47.852,-21.973,-29.297,-106.445,0.000
1606139825.539,40.039,-22.461,-25.879,248.535,0.000
1606139825.543,31.738,-26.855,-28.320,242.188,0.000
1606139825.547,-80.078,-32.227,-35.645,-144.531,0.000
1606139825.551,-129.883,-38.086,-28.320,-380.859,0.000
1606139825.555,-51.758,-29.785,-22.461,-163.086,0.000
1606139825.558,51.270,-22.461,-20.996,229.004,0.000
1606139825.562,54.688,-19.043,-9.277,287.598,0.000
1606139825.566,-54.199,-21.973,-16.113,-80.078,0.000
1606139825.570,-130.371,-34.668,-29.297,-375.977,0.000
1606139825.574,-80.078,-30.273,-28.809,-218.262,0.000
1606139825.578,32.227,-20.996,-22.461,200.195,0.000
1606139825.582,55.664,-23.926,-20.020,306.641,0.000
1606139825.586,-43.457,-33.203,-21.484,-35.645,0.000
1606139825.590,-135.742,-41.504,-26.367,-366.211,0.000
1606139825.594,-101.562,-35.645,-30.273,-263.184,0.000
1606139825.598,12.207,-33.203,-24.414,151.855,0.000
1606139825.601,52.246,-32.227,-21.973,314.941,0.000
1606139825.605,-28.809,-30.762,-29.297,20.996,0.000
1606139825.609,-120.605,-35.645,-27.344,-338.379,0.000
1606139825.613,-107.910,-36.621,-20.020,-299.805,0.000
1606139825.617,0.977,-25.879,-22.461,104.980,0.000
1606139825.621,55.664,-25.391,-24.902,326.172,0.000
1606139825.625,-21.973,-26.855,-25.879,89.355,0.000
1606139825.629,-120.605,-36.133,-33.691,-299.805,0.000
1606139825.633,-108.398,-34.180,-30.273,-328.613,0.000
1606139825.637,-14.160,-30.762,-20.508,41.016,0.000
1606139825.641,46.387,-35.645,-21.973,301.758,0.000
1606139825.644,-5.371,-26.367,-26.855,119.629,0.000
1606139825.648,-122.070,-38.574,-36.133,-296.875,0.000
1606139825.652,-134.766,-33.203,-41.504,-380.859,0.000
1606139825.656,-16.602,-17.090,-20.020,-10.742,0.000
1606139825.660,60.547,-25.391,-15.137,292.969,0.000
1606139825.664,9.766,-27.832,-36.133,153.809,0.000
1606139825.668,-93.750,-22.949,-32.715,-245.117,0.000
1606139825.672,-121.094,-20.020,-25.879,-379.883,0.000
1606139825.676,-31.738,-20.508,-29.785,-73.242,0.000
1606139825.680,54.199,-23.926,-20.996,263.184,0.000
1606139825.683,23.926,-26.855,-31.250,184.082,0.000
1606139825.687,-84.961,-28.809,-40.527,-214.355,0.000
1606139825.691,-129.395,-28.809,-31.250,-395.996,0.000
1606139825.695,-48.340,-25.391,-23.926,-129.395,0.000
1606139825.699,49.316,-27.832,-16.113,243.164,0.000
1606139825.703,33.203,-25.391,-31.250,229.004,0.000
1606139825.707,-84.473,-34.668,-41.016,-172.363,0.000
1606139825.711,-137.207,-34.180,-37.109,-399.414,0.000
1606139825.715,-63.477,-20.508,-34.668,-175.293,0.000
1606139825.719,43.945,-18.066,-30.273,209.473,0.000
1606139825.723,43.945,-24.902,-35.156,251.465,0.000
1606139825.726,-62.988,-35.645,-37.598,-108.887,0.000
1606139825.730,-124.512,-42.480,-38.574,-372.559,0.000
1606139825.734,-63.477,-9.766,-38.086,-208.496,0.000
1606139825.738,36.133,7.812,-24.902,167.480,0.000
1606139825.742,36.133,-31.250,-21.973,254.395,0.000
1606139825.746,-44.434,-38.574,-27.832,-51.758,0.000
1606139825.750,-104.980,-33.203,-20.996,-335.938,0.000
1606139825.754,-80.566,-31.738,-21.484,-244.141,0.000
1606139825.758,8.301,-32.715,-31.738,116.211,0.000
1606139825.762,42.480,-30.273,-37.598,260.742,0.000
1606139825.766,-29.297,-33.691,-34.668,0.488,0.000
1606139825.769,-118.164,-46.875,-28.320,-307.129,0.000
1606139825.773,-95.215,-31.738,-28.320,-258.301,0.000
1606139825.777,17.578,-10.742,-28.809,97.656,0.000
1606139825.781,52.734,-19.043,-18.555,291.016,0.000
1606139825.785,-24.902,-30.762,-15.625,64.453,0.000
1606139825.789,-104.492,-35.156,-31.250,-291.992,0.000
1606139825.793,-107.910,-41.504,-32.715,-307.129,0.000
1606139825.797,-13.184,-33.691,-27.344,51.758,0.000
1606139825.801,58.105,-30.273,-25.879,291.504,0.000
1606139825.805,0.488,-39.551,-17.090,105.957,0.000
1606139825.808,-94.238,-41.992,-20.508,-255.371,0.000
1606139825.812,-104.004,-37.109,-33.691,-315.918,0.000
1606139825.816,-11.230,-21.973,-31.738,2.441,0.000
1606139825.820,47.852,-20.996,-22.461,275.879,0.000
1606139825.824,0.000,-34.668,-23.438,145.508,0.000
1606139825.828,-81.543,-31.250,-30.273,-226.074,0.000
1606139825.832,-106.934,-33.203,-28.809,-340.332,0.000
1606139825.836,-47.852,-40.527,-23.438,-58.105,0.000
1606139825.840,31.250,-34.180,-23.438,252.930,0.000
1606139825.844,11.230,-37.598,-23.926,182.129,0.000
1606139825.848,-84.961,-42.480,-22.461,-193.848,0.000
1606139825.851,-116.211,-38.574,-23.438,-365.234,0.000
1606139825.855,-39.062,-26.855,-25.879,-98.145,0.000
1606139825.859,39.551,-29.297,-27.832,240.234,0.000
1606139825.863,19.531,-38.574,-20.020,215.820,0.000
1606139825.867,-73.242,-39.062,-27.344,-145.508,0.000
1606139825.871,-130.859,-40.039,-33.691,-371.582,0.000
1606139825.875,-81.055,-32.715,-29.297,-173.828,0.000
1606139825.879,14.648,-29.297,-28.809,191.406,0.000
1606139825.883,24.414,-30.762,-29.297,238.281,0.000
1606139825.887,-66.895,-35.645,-27.832,-107.422,0.000
1606139825.891,-131.348,-44.922,-29.785,-361.816,0.000
1606139825.894,-86.426,-42.969,-27.344,-206.055,0.000
1606139825.898,11.719,-38.086,-16.113,170.410,0.000
1606139825.902,23.438,-39.551,-16.602,267.090,0.000
1606139825.906,-63.477,-38.086,-29.785,-40.527,0.000
1606139825.910,-129.395,-37.598,-31.738,-340.820,0.000
1606139825.914,-83.008,-34.668,-26.367,-251.465,0.000
1606139825.918,16.113,-33.203,-29.785,131.836,0.000
1606139825.922,41.504,-36.133,-32.715,292.969,0.000
1606139825.926,-36.621,-37.109,-29.785,26.855,0.000
1606139825.930,-123.535,-43.457,-26.367,-318.848,0.000
1606139825.933,-99.121,-42.969,-21.484,-283.691,0.000
1606139825.937,6.836,-33.203,-19.043,103.516,0.000
1606139825.941,48.828,-33.203,-17.090,310.547,0.000
1606139825.945,-22.949,-40.527,-18.555,81.543,0.000
1606139825.949,-113.281,-36.133,-31.738,-297.363,0.000
1606139825.953,-111.328,-42.480,-40.527,-321.777,0.000
1606139825.957,-25.879,-56.641,-33.691,42.969,0.000
1606139825.961,32.227,-43.945,-25.879,289.062,0.000
1606139825.965,-14.160,-37.109,-25.391,108.887,0.000
1606139825.969,-105.469,-36.133,-31.250,-278.809,0.000
1606139825.973,-111.328,-37.598,-37.109,-352.051,0.000
1606139825.976,-19.531,-34.668,-28.809,-8.301,0.000
1606139825.980,43.457,-26.855,-18.555,288.574,0.000
1606139825.984,-0.977,-30.762,-19.531,167.969,0.000
1606139825.988,-92.773,-33.203,-30.762,-237.305,0.000
1606139825.992,-119.141,-31.250,-33.691,-367.188,0.000
1606139825.996,-38.574,-30.762,-32.715,-59.570,0.000
1606139826.000,44.434,-31.250,-29.785,273.438,0.000
1606139826.004,19.531,-33.691,-15.625,220.215,0.000
1606139826.008,-73.730,-34.668,-20.020,-169.434,0.000
1606139826.012,-118.164,-31.738,-36.133,-375.000,0.000
1606139826.016,-46.875,-26.855,-28.320,-110.840,0.000
1606139826.019,45.410,-25.879,-16.113,258.789,0.000
1606139826.023,24.414,-31.738,-26.855,230.957,0.000
1606139826.027,-76.172,-41.992,-33.691,-154.297,0.000
1606139826.031,-114.746,-42.480,-23.926,-371.094,0.000
1606139826.035,-55.664,-40.527,-24.414,-159.180,0.000
1606139826.039,46.387,-32.715,-24.414,221.680,0.000
1606139826.043,62.500,-28.809,-25.879,272.949,0.000
1606139826.047,-48.828,-41.504,-35.645,-83.496,0.000
1606139826.051,-127.441,-51.758,-36.133,-370.605,0.000
1606139826.055,-62.500,-41.992,-29.785,-216.309,0.000
1606139826.058,40.039,-32.715,-24.414,187.012,0.000
1606139826.062,47.852,-34.668,-27.344,297.852,0.000
1606139826.066,-34.180,-38.086,-39.062,-25.391,0.000
1606139826.070,-112.305,-45.410,-40.527,-356.934,0.000
1606139826.074,-79.590,-47.363,-31.250,-256.836,0.000
1606139826.078,24.414,-40.527,-22.949,155.762,0.000
1606139826.082,53.711,-31.738,-19.043,312.500,0.000
1606139826.086,-19.043,-30.273,-22.461,30.762,0.000
1606139826.090,-104.004,-32.227,-31.250,-325.684,0.000
1606139826.094,-87.891,-18.555,-36.133,-292.969,0.000
1606139826.098,20.996,-10.742,-31.738,107.910,0.000
1606139826.101,62.012,-27.344,-28.809,315.430,0.000
1606139826.105,-5.371,-35.156,-32.227,68.359,0.000
1606139826.109,-101.074,-39.062,-32.715,-307.617,0.000
1606139826.113,-94.727,-33.203,-25.391,-315.918,0.000
1606139826.117,22.949,-20.508,-14.648,61.035,0.000
1606139826.121,80.566,-18.066,-23.926,315.918,0.000
1606139826.125,13.184,-23.926,-33.203,128.906,0.000
1606139826.129,-94.727,-37.109,-34.180,-273.926,0.000
1606139826.133,-117.676,-46.387,-31.738,-358.887,0.000
1606139826.137,-22.461,-35.156,-21.973,-7.324,0.000
1606139826.141,52.734,-20.020,-19.531,289.551,0.000
1606139826.144,12.695,-16.602,-18.555,150.391,0.000
1606139826.148,-86.426,-32.227,-25.391,-236.816,0.000
1606139826.152,-109.375,-22.949,-33.691,-353.516,0.000
1606139826.156,-17.090,-7.812,-34.180,-55.664,0.000
1606139826.160,58.594,-25.391,-29.297,261.719,0.000
1606139826.164,20.996,-30.762,-19.531,198.730,0.000
1606139826.168,-79.102,-33.203,-24.414,-182.129,0.000
1606139826.172,-107.910,-31.738,-31.738,-343.262,0.000
1606139826.176,-35.645,-30.762,-31.738,-90.332,0.000
1606139826.180,44.434,-31.250,-31.250,237.305,0.000
1606139826.183,37.598,-25.879,-32.715,227.051,0.000
1606139826.187,-47.363,-32.715,-32.715,-122.559,0.000
1606139826.191,-110.840,-41.992,-31.250,-325.195,0.000
1606139826.195,-46.387,-19.531,-30.762,-125.488,0.000
1606139826.199,63.965,-11.230,-17.578,222.656,0.000
1606139826.203,59.570,-26.855,-17.578,267.578,0.000
1606139826.207,-45.898,-36.621,-20.508,-70.801,0.000
1606139826.211,-107.910,-34.180,-22.949,-335.938,0.000
1606139826.215,-49.316,-24.414,-21.973,-177.734,0.000
1606139826.219,53.223,-21.973,-15.137,201.660,0.000
1606139826.223,70.801,-20.020,-18.555,284.668,0.000
1606139826.226,-20.020,-26.367,-24.902,-26.855,0.000
1606139826.230,-91.797,-30.762,-36.621,-315.918,0.000
1606139826.234,-62.500,-26.367,-39.551,-219.238,0.000
1606139826.238,27.832,-27.832,-28.320,151.855,0.000
1606139826.242,64.941,-27.832,-23.438,301.270,0.000
1606139826.246,-16.602,-33.203,-30.762,20.996,0.000
1606139826.250,-90.820,-30.762,-36.133,-314.941,0.000
1606139826.254,-67.871,-30.762,-35.156,-260.254,0.000
1606139826.258,20.020,-32.715,-25.391,117.188,0.000
1606139826.262,60.059,-26.855,-21.973,300.293,0.000
1606139826.266,3.418,-22.949,-23.926,73.730,0.000
1606139826.269,-92.773,-29.785,-29.297,-280.762,0.000
1606139826.273,-95.215,-34.668,-38.086,-286.133,0.000
1606139826.277,12.207,-23.438,-33.691,65.430,0.000
1606139826.281,75.195,-18.555,-31.250,287.109,0.000
1606139826.285,15.137,-24.902,-35.645,118.652,0.000
1606139826.289,-95.215,-39.062,-31.250,-234.863,0.000
1606139826.293,-101.074,-29.785,-30.762,-298.828,0.000
1606139826.297,18.555,0.977,-30.273,28.809,0.000
1606139826.301,86.914,-9.277,-31.738,296.387,0.000
1606139826.305,22.949,-27.832,-30.762,158.691,0.000
1606139826.308,-89.844,-36.133,-24.414,-218.262,0.000
1606139826.312,-111.328,-32.715,-31.738,-334.473,0.000
1606139826.316,-24.414,-35.156,-24.414,-27.344,0.000
1606139826.320,62.500,-33.203,-19.531,287.598,0.000
1606139826.324,33.203,-26.367,-25.391,209.961,0.000
1606139826.328,-70.312,-32.227,-36.621,-169.922,0.000
1606139826.332,-111.328,-34.668,-46.875,-340.332,0.000
1606139826.336,-52.246,-29.297,-30.273,-74.219,0.000
1606139826.340,48.828,-23.438,-36.133,251.465,0.000
1606139826.344,38.086,-24.902,-35.645,225.586,0.000
1606139826.348,-70.312,-42.969,-29.297,-111.816,0.000
1606139826.351,-93.750,-34.668,-39.062,-328.613,0.000
1606139826.355,-28.320,-20.508,-37.598,-153.320,0.000
1606139826.359,34.180,-28.809,-21.484,215.332,0.000
1606139826.363,21.484,-37.109,-11.719,283.691,0.000
1606139826.367,-56.152,-36.621,-30.762,-80.566,0.000
1606139826.371,-94.238,-27.344,-36.133,-328.125,0.000
1606139826.375,-36.133,-6.836,-23.926,-151.367,0.000
1606139826.379,52.246,-14.160,-14.648,200.195,0.000
1606139826.383,39.551,-32.715,-20.508,284.668,0.000
1606139826.387,-51.758,-31.250,-31.738,-32.715,0.000
1606139826.391,-100.586,-20.020,-37.598,-320.801,0.000
1606139826.394,-46.387,-5.371,-37.598,-231.445,0.000
1606139826.398,48.340,-9.766,-22.461,145.020,0.000
1606139826.402,53.711,-18.555,-18.555,290.039,0.000
1606139826.406,-24.414,-22.949,-26.367,13.672,0.000
1606139826.410,-95.215,-30.273,-28.320,-308.594,0.000
1606139826.414,-76.660,-30.762,-21.484,-254.395,0.000
1606139826.418,10.254,-25.391,-25.391,90.820,0.000
1606139826.422,60.059,-16.602,-28.320,269.531,0.000
1606139826.426,-2.441,-21.484,-23.438,65.430,0.000
1606139826.430,-99.609,-39.062,-31.250,-297.852,0.000
1606139826.433,-91.309,-18.066,-33.691,-328.613,0.000
1606139826.437,-6.348,-10.742,-22.949,33.203,0.000
1606139826.441,45.898,-30.762,-20.996,277.832,0.000
1606139826.445,8.789,-29.297,-27.344,107.910,0.000
1606139826.449,-98.145,-41.504,-27.832,-275.391,0.000
1606139826.453,-98.633,-35.156,-32.715,-354.980,0.000
1606139826.457,12.695,-12.695,-26.367,-8.301,0.000
1606139826.461,56.641,-22.949,-24.902,276.367,0.000
1606139826.465,13.184,-26.855,-31.738,145.996,0.000
1606139826.469,-87.402,-35.156,-23.438,-215.332,0.000
1606139826.473,-129.395,-20.020,-22.949,-343.262,0.000
1606139826.476,-40.039,26.367,-27.344,-53.223,0.000
1606139826.480,37.598,-6.348,-31.250,249.512,0.000
1606139826.484,-0.977,-38.086,-35.156,163.086,0.000
1606139826.488,-109.863,-39.551,-32.227,-220.215,0.000
1606139826.492,-134.277,-37.598,-28.809,-390.137,0.000
1606139826.496,-36.133,-29.785,-29.785,-130.371,0.000
1606139826.500,59.082,-22.949,-19.531,229.980,0.000
1606139826.504,38.574,-23.438,-9.766,242.188,0.000
1606139826.508,-70.801,-37.109,-15.625,-142.090,0.000
1606139826.512,-118.164,-31.738,-23.926,-376.953,0.000
1606139826.516,-48.828,-12.207,-29.297,-159.180,0.000
1606139826.519,41.992,-11.230,-25.391,205.078,0.000
1606139826.523,43.945,-15.625,-18.066,252.930,0.000
1606139826.527,-59.570,-27.832,-25.879,-99.121,0.000
1606139826.531,-122.070,-33.203,-35.156,-377.930,0.000
1606139826.535,-65.918,-28.809,-34.668,-211.426,0.000
1606139826.539,36.621,-22.461,-23.438,184.570,0.000
1606139826.543,50.293,-25.391,-17.578,275.879,0.000
1606139826.547,-41.992,-30.762,-29.297,-40.039,0.000
1606139826.551,-118.652,-31.250,-35.156,-351.562,0.000
1606139826.555,-84.473,-30.762,-32.715,-258.789,0.000
1606139826.558,26.367,-24.902,-23.438,137.695,0.000
1606139826.562,65.918,-15.137,-17.090,300.781,0.000
1606139826.566,-33.691,-26.855,-24.902,13.184,0.000
1606139826.570,-131.348,-41.992,-33.203,-349.609,0.000
1606139826.574,-105.957,-14.160,-30.273,-304.688,0.000
1606139826.578,6.348,2.441,-23.926,97.656,0.000
1606139826.582,66.895,-16.113,-23.438,308.594,0.000
1606139826.586,-13.184,-26.855,-23.926,61.035,0.000
1606139826.590,-121.582,-32.227,-31.250,-314.453,0.000
1606139826.594,-105.469,-25.879,-33.203,-317.383,0.000
1606139826.598,-14.648,-29.785,-31.250,52.734,0.000
1606139826.601,41.016,-28.320,-24.414,300.781,0.000
1606139826.605,-11.719,-26.367,-20.508,118.164,0.000
1606139826.609,-120.605,-44.434,-39.062,-274.902,0.000
1606139826.613,-130.371,-36.133,-41.504,-353.027,0.000
1606139826.617,-29.785,-20.020,-33.203,-16.602,0.000
1606139826.621,48.828,-25.391,-20.020,274.414,0.000
1606139826.625,3.906,-24.902,-17.090,153.809,0.000
1606139826.629,-90.820,-29.297,-21.973,-221.191,0.000
1606139826.633,-102.539,-32.715,-20.996,-337.402,0.000
1606139826.637,-24.414,-33.691,-21.484,-51.270,0.000
1606139826.641,38.574,-29.297,-23.438,257.324,0.000
1606139826.644,10.742,-29.785,-22.461,192.871,0.000
1606139826.648,-70.801,-29.297,-27.832,-170.410,0.000
1606139826.652,-99.609,-19.043,-32.227,-331.543,0.000
1606139826.656,-29.297,-20.508,-31.738,-81.543,0.000
1606139826.660,55.664,-34.668,-30.273,256.348,0.000
1606139826.664,32.227,-33.203,-35.645,228.027,0.000
1606139826.668,-81.055,-36.621,-38.086,-157.227,0.000
1606139826.672,-128.418,-28.809,-32.715,-361.328,0.000
1606139826.676,-72.266,-6.348,-26.855,-149.414,0.000
1606139826.680,19.531,-18.066,-20.020,195.801,0.000
1606139826.683,29.785,-24.902,-21.973,234.863,0.000
1606139826.687,-59.570,-30.762,-23.438,-91.797,0.000
1606139826.691,-117.188,-37.109,-27.832,-346.680,0.000
1606139826.695,-60.059,-29.297,-29.297,-198.730,0.000
1606139826.699,35.156,-22.949,-24.902,182.129,0.000
1606139826.703,39.551,-23.438,-23.438,278.320,0.000
1606139826.707,-45.898,-32.227,-24.902,-34.180,0.000
1606139826.711,-107.910,-33.691,-26.367,-314.941,0.000
1606139826.715,-68.848,-4.395,-27.832,-217.773,0.000
1606139826.719,24.902,-9.766,-29.297,142.090,0.000
1606139826.723,51.758,-30.762,-28.809,282.227,0.000
1606139826.726,-20.996,-30.762,-23.438,20.508,0.000
1606139826.730,-100.586,-40.039,-28.320,-296.387,0.000
1606139826.734,-83.008,-39.551,-35.156,-253.906,0.000
1606139826.738,13.184,-29.297,-28.320,112.793,0.000
1606139826.742,48.828,-28.320,-19.531,291.504,0.000
1606139826.746,-11.719,-34.180,-24.414,62.988,0.000
1606139826.750,-97.168,-41.504,-32.715,-270.996,0.000
1606139826.754,-102.539,-28.320,-34.180,-291.992,0.000
1606139826.758,-12.695,-16.602,-32.715,43.457,0.000
1606139826.762,42.969,-32.715,-27.832,276.367,0.000
1606139826.766,-0.977,-30.762,-18.555,112.305,0.000
1606139826.769,-84.473,-35.156,-18.066,-233.398,0.000
1606139826.773,-86.914,-39.062,-26.367,-303.223,0.000
1606139826.777,1.465,-26.855,-17.090,7.812,0.000
1606139826.781,59.570,-24.414,-19.043,273.438,0.000
1606139826.785,14.648,-26.367,-25.391,154.785,0.000
1606139826.789,-78.613,-31.250,-26.855,-202.148,0.000
1606139826.793,-101.562,-31.250,-32.227,-322.754,0.000
1606139826.797,-25.391,-28.809,-23.438,-43.457,0.000
1606139826.801,50.781,-25.879,-17.090,252.441,0.000
1606139826.805,28.320,-22.949,-21.484,182.129,0.000
1606139826.808,-64.453,-30.762,-24.414,-173.828,0.000
1606139826.812,-99.609,-13.672,-26.855,-335.449,0.000
1606139826.816,-35.645,-11.719,-26.855,-101.562,0.000
1606139826.820,49.805,-29.297,-16.602,226.562,0.000
1606139826.824,41.016,-27.344,-12.695,217.285,0.000
1606139826.828,-50.781,-35.156,-23.438,-133.301,0.000
1606139826.832,-97.168,-40.527,-36.133,-345.703,0.000
1606139826.836,-37.598,-39.062,-37.598,-148.926,0.000
1606139826.840,57.129,-32.227,-28.320,210.938,0.000
1606139826.844,55.664,-25.391,-23.926,257.324,0.000
1606139826.848,-41.504,-33.203,-31.250,-94.727,0.000
1606139826.851,-109.375,-40.527,-36.133,-369.141,0.000
1606139826.855,-60.547,-15.137,-32.715,-212.891,0.000
1606139826.859,42.480,-4.883,-32.227,166.992,0.000
1606139826.863,59.570,-22.949,-31.738,266.602,0.000
1606139826.867,-24.414,-38.574,-33.203,-40.039,0.000
1606139826.871,-95.215,-48.828,-36.133,-343.750,0.000
1606139826.875,-50.293,-40.039,-30.273,-237.305,0.000
1606139826.879,53.223,-22.949,-20.508,151.367,0.000
1606139826.883,70.312,-24.414,-23.926,288.086,0.000
1606139826.887,-16.602,-34.180,-33.691,17.090,0.000
1606139826.891,-83.984,-33.691,-37.598,-293.945,0.000
1606139826.894,-54.199,-15.137,-34.180,-256.836,0.000
1606139826.898,30.273,-18.555,-30.273,98.633,0.000
1606139826.902,66.895,-37.109,-20.020,293.457,0.000
1606139826.906,1.465,-36.133,-20.020,71.777,0.000
1606139826.910,-96.680,-44.922,-34.180,-286.621,0.000
1606139826.914,-104.004,-44.434,-41.992,-314.941,0.000
1606139826.918,-10.742,-29.297,-35.645,37.109,0.000
1606139826.922,44.922,-21.973,-25.391,288.574,0.000
1606139826.926,-13.672,-27.832,-26.855,112.305,0.000
1606139826.930,-102.051,-41.504,-31.738,-259.766,0.000
1606139826.933,-103.516,-43.457,-31.250,-324.219,0.000
1606139826.937,-6.836,-32.715,-25.879,2.930,0.000
1606139826.941,55.664,-23.926,-24.902,278.809,0.000
1606139826.945,7.812,-23.926,-25.391,153.809,0.000
1606139826.949,-86.914,-31.250,-29.297,-231.934,0.000
1606139826.953,-105.957,-16.602,-33.691,-356.934,0.000
1606139826.957,-24.902,-5.859,-29.297,-58.594,0.000
1606139826.961,46.387,-29.785,-27.832,254.395,0.000
1606139826.965,13.672,-37.598,-30.762,186.035,0.000
1606139826.969,-82.520,-37.598,-30.762,-185.547,0.000
1606139826.973,-112.305,-32.715,-29.785,-356.445,0.000
1606139826.976,-44.434,-29.297,-29.297,-114.258,0.000
1606139826.980,43.945,-30.762,-23.926,232.422,0.000
1606139826.984,36.621,-26.855,-23.926,234.863,0.000
1606139826.988,-65.430,-38.086,-33.203,-142.090,0.000
1606139826.992,-114.746,-29.785,-33.691,-368.164,0.000
1606139826.996,-49.805,-7.324,-28.809,-158.203,0.000
1606139827.000,45.898,-17.090,-22.949,217.773,0.000
1606139827.004,44.922,-22.461,-16.602,273.926,0.000
1606139827.008,-48.340,-26.855,-21.484,-74.707,0.000
1606139827.012,-111.816,-36.133,-39.062,-356.934,0.000
1606139827.016,-70.801,-37.109,-41.504,-212.891,0.000
1606139827.019,26.855,-28.320,-31.250,179.199,0.000
1606139827.023,41.016,-31.250,-29.297,279.297,0.000
1606139827.027,-55.176,-41.992,-32.715,-37.598,0.000
1606139827.031,-129.883,-36.133,-35.645,-332.520,0.000
1606139827.035,-94.727,-32.715,-33.691,-248.535,0.000
1606139827.039,7.812,-34.668,-29.297,124.023,0.000
1606139827.043,41.504,-31.250,-30.273,284.180,0.000
1606139827.047,-28.809,-30.762,-32.227,24.902,0.000
1606139827.051,-110.840,-39.062,-39.062,-318.359,0.000
1606139827.055,-93.262,-32.715,-40.039,-295.898,0.000
1606139827.058,13.672,-22.461,-27.344,93.750,0.000
1606139827.062,60.547,-21.484,-19.531,309.082,0.000
1606139827.066,-6.348,-33.203,-28.320,73.730,0.000
1606139827.070,-97.656,-37.598,-33.691,-295.898,0.000
1606139827.074,-92.773,-31.250,-32.715,-314.453,0.000
1606139827.078,6.348,-27.832,-31.250,49.316,0.000
1606139827.082,69.336,-19.531,-24.414,303.223,0.000
1606139827.086,9.277,-23.926,-20.996,125.488,0.000
1606139827.090,-103.516,-41.504,-35.156,-262.207,0.000
1606139827.094,-116.699,-22.949,-39.062,-338.379,0.000
1606139827.098,-20.508,-17.578,-32.715,0.000,0.000
1606139827.101,53.223,-29.785,-28.320,291.016,0.000
1606139827.105,14.648,-26.367,-24.902,172.363,0.000
1606139827.109,-90.820,-41.992,-31.738,-214.844,0.000
1606139827.113,-119.629,-42.480,-37.598,-356.934,0.000
1606139827.117,-31.250,-35.645,-31.250,-59.082,0.000
1606139827.121,53.711,-29.785,-23.926,275.391,0.000
1606139827.125,30.762,-24.414,-25.391,210.938,0.000
1606139827.129,-74.219,-36.621,-33.691,-165.039,0.000
1606139827.133,-114.746,-37.109,-39.062,-356.934,0.000
1606139827.137,-42.480,-13.672,-25.391,-120.605,0.000
1606139827.141,39.062,-18.555,-20.020,222.168,0.000
1606139827.144,18.066,-35.156,-35.156,208.984,0.000
1606139827.148,-74.707,-37.109,-35.156,-138.184,0.000
1606139827.152,-111.816,-35.156,-29.785,-338.379,0.000
1606139827.156,-48.340,-29.785,-27.832,-137.695,0.000
1606139827.160,36.133,-23.438,-23.926,214.844,0.000
1606139827.164,32.715,-23.438,-27.832,250.000,0.000
1606139827.168,-60.059,-35.156,-29.297,-80.566,0.000
1606139827.172,-113.281,-36.133,-32.715,-320.312,0.000
1606139827.176,-63.477,-26.855,-35.156,-187.012,0.000
1606139827.180,27.832,-25.391,-32.715,170.410,0.000
1606139827.183,44.434,-31.250,-30.762,276.855,0.000
1606139827.187,-37.598,-35.156,-27.344,-20.996,0.000
1606139827.191,-100.586,-36.621,-27.832,-306.152,0.000
1606139827.195,-68.359,-41.504,-29.297,-213.867,0.000
1606139827.199,30.273,-41.504,-28.320,140.137,0.000
1606139827.203,74.219,-36.621,-25.879,289.551,0.000
1606139827.207,-12.695,-38.574,-24.414,25.879,0.000
1606139827.211,-113.770,-46.387,-26.855,-319.824,0.000
1606139827.215,-92.285,-43.457,-33.691,-273.926,0.000
1606139827.219,-11.230,-35.645,-28.320,89.355,0.000
1606139827.223,0.977,-32.227,-24.414,239.746,0.000
1606139827.226,-68.848,-40.039,-35.645,-2.930,0.000
1606139827.230,-141.113,-53.711,-39.062,-339.844,0.000
1606139827.234,-136.719,-11.719,-39.062,-357.422,0.000
1606139827.238,-53.711,8.301,-37.598,-19.531,0.000
1606139827.242,-0.977,-36.621,-31.250,219.238,0.000
1606139827.246,-52.734,-44.922,-30.762,54.688,0.000
1606139827.250,-139.160,-48.340,-41.016,-290.527,0.000
1606139827.254,-148.438,-57.129,-41.504,-349.609,0.000
1606139827.258,-57.617,-51.270,-27.344,-16.113,0.000
1606139827.262,14.648,-39.062,-28.320,264.160,0.000
1606139827.266,-17.578,-38.086,-34.180,146.484,0.000
1606139827.269,-113.281,-45.898,-41.992,-233.398,0.000
1606139827.273,-136.230,-27.832,-38.086,-356.445,0.000
1606139827.277,-59.570,-25.879,-27.832,-64.941,0.000
1606139827.281,13.184,-40.527,-24.902,242.676,0.000
1606139827.285,-19.043,-42.480,-28.320,179.199,0.000
1606139827.289,-111.816,-48.828,-27.344,-187.500,0.000
1606139827.293,-139.648,-49.316,-34.180,-354.492,0.000
1606139827.297,-71.289,-44.922,-40.039,-109.863,0.000
1606139827.301,22.461,-32.715,-33.203,234.375,0.000
1606139827.305,7.812,-32.715,-32.715,218.262,0.000
1606139827.308,-91.309,-46.875,-38.086,-145.508,0.000
1606139827.312,-130.859,-33.691,-39.551,-339.355,0.000
1606139827.316,-53.711,-8.789,-32.227,-132.812,0.000
1606139827.320,27.832,-24.902,-27.832,218.262,0.000
1606139827.324,18.066,-37.598,-33.203,262.207,0.000
1606139827.328,-62.988,-37.109,-33.203,-49.805,0.000
1606139827.332,-117.188,-48.340,-35.156,-300.781,0.000
1606139827.336,-62.500,-46.387,-34.668,-175.293,0.000
1606139827.340,37.109,-30.762,-31.738,198.730,0.000
1606139827.344,45.898,-34.668,-37.109,310.547,0.000
1606139827.348,-35.645,-41.016,-40.039,6.836,0.000
1606139827.351,-105.957,-33.691,-41.016,-299.316,0.000
1606139827.355,-75.684,-28.809,-38.574,-215.820,0.000
1606139827.359,29.297,-22.949,-35.156,176.758,0.000
1606139827.363,61.523,-26.367,-40.039,336.426,0.000
1606139827.367,-21.973,-34.180,-45.898,50.293,0.000
1606139827.371,-112.305,-40.039,-50.293,-306.152,0.000
1606139827.375,-87.891,-42.480,-50.293,-273.438,0.000
1606139827.379,3.418,-43.457,-49.316,103.027,0.000
1606139827.383,44.922,-40.527,-40.527,322.754,0.000
1606139827.387,-21.484,-43.945,-31.738,107.422,0.000
1606139827.391,-125.488,-48.828,-41.016,-277.344,0.000
1606139827.394,-122.070,-41.992,-43.945,-299.316,0.000
1606139827.398,-21.973,-44.922,-33.691,74.707,0.000
1606139827.402,37.109,-47.363,-29.297,333.008,0.000
1606139827.406,-19.531,-41.504,-33.691,162.598,0.000
1606139827.410,-119.629,-47.363,-43.945,-237.305,0.000
1606139827.414,-133.301,-42.480,-45.898,-343.262,0.000
1606139827.418,-39.551,-32.227,-41.504,-17.578,0.000
1606139827.422,42.480,-36.133,-39.551,286.133,0.000
1606139827.426,4.883,-38.574,-40.039,165.527,0.000
1606139827.430,-103.027,-43.457,-44.434,-238.281,0.000
1606139827.433,-123.047,-41.504,-48.828,-382.324,0.000
1606139827.437,-33.203,-30.762,-45.410,-87.891,0.000
1606139827.441,48.340,-28.320,-42.969,267.090,0.000
1606139827.445,21.973,-38.574,-42.969,210.449,0.000
1606139827.449,-82.031,-54.688,-44.434,-197.266,0.000
1606139827.453,-120.117,-46.875,-42.969,-382.812,0.000
1606139827.457,-42.969,-31.738,-34.668,-125.488,0.000
1606139827.461,47.363,-35.645,-31.738,240.723,0.000
1606139827.465,34.180,-39.551,-34.668,242.676,0.000
1606139827.469,-77.148,-46.387,-47.852,-155.762,0.000
1606139827.473,-137.695,-44.434,-56.152,-412.109,0.000
1606139827.476,-69.336,-38.086,-46.387,-187.500,0.000
1606139827.480,34.668,-35.645,-35.645,206.055,0.000
1606139827.484,33.203,-39.062,-35.645,253.906,0.000
1606139827.488,-68.848,-44.922,-40.039,-104.492,0.000
1606139827.492,-134.277,-45.898,-44.922,-389.648,0.000
1606139827.496,-86.914,-48.340,-39.062,-242.188,0.000
1606139827.500,15.625,-45.410,-33.203,163.086,0.000
1606139827.504,35.645,-43.945,-32.227,263.672,0.000
1606139827.508,-55.664,-53.711,-41.016,-67.383,0.000
1606139827.512,-128.418,-50.293,-51.270,-372.070,0.000
1606139827.516,-93.262,-33.203,-39.551,-269.043,0.000
1606139827.519,1.465,-33.203,-27.832,125.488,0.000
1606139827.523,30.762,-39.551,-31.738,281.250,0.000
1606139827.527,-43.457,-41.992,-36.133,10.254,0.000
1606139827.531,-116.211,-45.410,-33.203,-308.105,0.000
1606139827.535,-86.914,-38.086,-29.297,-262.695,0.000
1606139827.539,-0.977,-31.738,-27.344,87.402,0.000
1606139827.543,38.574,-29.785,-22.949,281.250,0.000
1606139827.547,-14.160,-28.809,-25.391,76.660,0.000
1606139827.551,-94.727,-35.645,-32.715,-271.484,0.000
1606139827.555,-84.473,-25.391,-39.062,-291.504,0.000
1606139827.558,8.301,-25.879,-32.227,51.270,0.000
1606139827.562,62.988,-30.762,-24.902,291.992,0.000
1606139827.566,14.160,-27.344,-29.297,125.000,0.000
1606139827.570,-80.566,-32.715,-33.691,-244.141,0.000
1606139827.574,-90.820,-34.180,-32.227,-311.523,0.000
1606139827.578,-6.836,-36.621,-23.926,-5.371,0.000
1606139827.582,55.664,-34.668,-18.555,265.625,0.000
1606139827.586,20.996,-37.109,-21.484,168.457,0.000
1606139827.590,-69.824,-48.340,-27.832,-186.523,0.000
1606139827.594,-82.031,-26.855,-30.273,-303.711,0.000
1606139827.598,-1.465,-9.766,-27.344,-18.066,0.000
1606139827.601,62.988,-36.133,-25.391,276.367,0.000
1606139827.605,22.461,-44.434,-37.109,202.637,0.000
1606139827.609,-69.336,-45.410,-40.039,-147.949,0.000
1606139827.613,-100.098,-49.316,-34.180,-327.148,0.000
1606139827.617,-41.992,-45.898,-31.738,-111.816,0.000
1606139827.621,41.992,-42.969,-28.320,228.027,0.000
1606139827.625,46.387,-34.668,-28.809,243.164,0.000
1606139827.629,-55.664,-34.180,-32.227,-120.605,0.000
1606139827.633,-126.465,-43.457,-37.109,-352.539,0.000
1606139827.637,-48.340,-38.574,-33.691,-143.066,0.000
1606139827.641,35.645,-29.785,-20.020,213.867,0.000
1606139827.644,16.602,-35.156,-18.066,264.648,0.000
1606139827.648,-56.152,-44.922,-27.344,-70.312,0.000
1606139827.652,-116.699,-42.969,-36.133,-329.102,0.000
1606139827.656,-73.730,-34.668,-33.691,-185.059,0.000
1606139827.660,27.344,-38.086,-28.809,173.828,0.000
1606139827.664,32.715,-38.574,-21.973,269.043,0.000
1606139827.668,-59.570,-35.645,-26.855,-31.250,0.000
1606139827.672,-113.281,-41.992,-36.133,-319.824,0.000
1606139827.676,-69.824,-37.109,-31.250,-233.398,0.000
1606139827.680,19.531,-21.484,-30.762,132.812,0.000
1606139827.683,67.383,-20.020,-31.250,297.363,0.000
1606139827.687,4.395,-28.809,-28.320,57.617,0.000
1606139827.691,-58.594,-41.992,-34.180,-280.273,0.000
1606139827.695,-51.758,-45.410,-32.715,-264.648,0.000
1606139827.699,-2.930,-30.762,-25.879,90.820,0.000
1606139827.703,39.062,-26.367,-32.715,276.367,0.000
1606139827.707,-33.203,-34.668,-35.156,55.176,0.000
1606139827.711,-93.262,-32.227,-34.668,-278.809,0.000
1606139827.715,-84.473,-33.203,-42.480,-313.965,0.000
1606139827.719,-4.883,-32.715,-41.016,19.531,0.000
1606139827.723,55.176,-30.273,-36.621,291.992,0.000
1606139827.726,-7.324,-39.551,-33.691,127.441,0.000
1606139827.730,-102.051,-41.016,-37.598,-256.836,0.000
1606139827.734,-95.703,-42.969,-46.875,-332.031,0.000
1606139827.738,-20.508,-45.898,-42.969,-11.719,0.000
1606139827.742,62.988,-34.668,-40.039,274.902,0.000
1606139827.746,20.508,-29.785,-39.062,154.297,0.000
1606139827.750,-115.723,-31.738,-38.086,-227.539,0.000
1606139827.754,-127.930,-34.180,-37.109,-359.863,0.000
1606139827.758,-54.688,-35.645,-35.645,-82.031,0.000
1606139827.762,26.855,-34.668,-28.809,237.793,0.000
1606139827.766,5.371,-34.180,-24.902,192.383,0.000
1606139827.769,-94.238,-34.668,-36.621,-171.387,0.000
1606139827.773,-120.117,-42.969,-33.691,-368.652,0.000
1606139827.777,-70.801,-47.363,-31.738,-138.672,0.000
1606139827.781,8.301,-37.109,-31.738,236.816,0.000
1606139827.785,21.973,-39.062,-31.738,241.211,0.000
1606139827.789,-93.750,-47.363,-41.016,-147.949,0.000
1606139827.793,-159.180,-48.340,-38.574,-390.137,0.000
1606139827.797,-88.379,-38.086,-28.809,-190.918,0.000
1606139827.801,15.137,-27.344,-28.809,205.078,0.000
1606139827.805,53.223,-33.203,-36.133,278.320,0.000
1606139827.808,-47.363,-40.527,-29.297,-74.219,0.000
1606139827.812,-111.816,-48.828,-32.715,-365.234,0.000
1606139827.816,-62.500,-59.082,-36.621,-202.637,0.000
1606139827.820,-26.367,-46.875,-27.344,177.734,0.000
1606139827.824,58.105,-33.691,-28.809,277.344,0.000
1606139827.828,-15.137,-40.039,-33.203,-15.137,0.000
1606139827.832,-118.652,-37.598,-37.109,-319.336,0.000
1606139827.836,-71.289,-32.715,-38.574,-225.098,0.000
1606139827.840,6.348,-39.062,-32.715,156.250,0.000
1606139827.844,49.805,-37.109,-28.809,308.105,0.000
1606139827.848,-17.090,-37.109,-39.062,44.922,0.000
1606139827.851,-108.887,-41.504,-41.016,-291.504,0.000
1606139827.855,-92.285,-40.527,-38.086,-265.625,0.000
1606139827.859,15.137,-33.691,-32.715,107.910,0.000
1606139827.863,65.430,-26.367,-23.926,320.312,0.000
1606139827.867,8.301,-35.156,-28.320,104.980,0.000
1606139827.871,-81.543,-44.434,-35.645,-265.137,0.000
1606139827.875,-71.777,-6.836,-36.621,-298.340,0.000
1606139827.879,20.508,-8.789,-33.203,53.711,0.000
1606139827.883,59.082,-40.527,-31.738,304.199,0.000
1606139827.887,17.090,-37.109,-36.133,149.902,0.000
1606139827.891,-75.684,-44.434,-42.969,-236.816,0.000
1606139827.894,-76.172,-35.156,-40.527,-338.867,0.000
1606139827.898,18.066,-28.809,-39.551,-12.207,0.000
1606139827.902,89.844,-36.621,-30.762,301.270,0.000
1606139827.906,51.758,-38.574,-23.926,211.426,0.000
1606139827.910,-53.711,-44.434,-30.273,-178.223,0.000
1606139827.914,-77.148,-48.828,-36.133,-325.684,0.000
1606139827.918,-2.441,-47.363,-33.691,-44.434,0.000
1606139827.922,72.754,-43.945,-23.438,270.020,0.000
1606139827.926,43.457,-45.410,-20.508,194.824,0.000
1606139827.930,-43.457,-56.641,-27.832,-172.852,0.000
1606139827.933,-60.547,-34.180,-25.391,-326.172,0.000
1606139827.937,-4.395,-20.020,-20.996,-80.078,0.000
1606139827.941,74.219,-39.551,-22.461,227.539,0.000
1606139827.945,63.477,-35.645,-22.461,219.238,0.000
1606139827.949,-39.551,-42.969,-26.855,-127.930,0.000
1606139827.953,-81.055,-45.898,-30.273,-354.492,0.000
1606139827.957,-25.879,-41.504,-21.973,-154.785,0.000
1606139827.961,65.918,-41.504,-14.160,211.914,0.000
1606139827.965,73.242,-37.598,-16.602,261.230,0.000
1606139827.969,-7.812,-41.016,-23.926,-59.570,0.000
1606139827.973,-65.918,-33.203,-26.367,-313.965,0.000
1606139827.976,-17.578,-11.719,-24.414,-198.242,0.000
1606139827.980,61.523,-20.996,-23.926,151.855,0.000
1606139827.984,67.383,-32.227,-30.762,266.113,0.000
1606139827.988,-12.695,-36.133,-25.391,-9.277,0.000
1606139827.992,-83.496,-34.668,-25.879,-308.594,0.000
1606139827.996,-42.969,-24.902,-35.645,-228.027,0.000
1606139828.000,59.570,-19.043,-29.297,144.531,0.000
1606139828.004,93.750,-19.043,-19.043,296.875,0.000
1606139828.008,13.672,-29.785,-23.926,41.504,0.000
1606139828.012,-68.359,-24.902,-27.344,-268.555,0.000
1606139828.016,-52.734,-11.230,-21.973,-251.465,0.000
1606139828.019,31.250,-25.391,-22.949,82.031,0.000
1606139828.023,73.730,-30.273,-21.484,296.387,0.000
1606139828.027,13.672,-31.250,-23.438,82.520,0.000
1606139828.031,-78.125,-41.504,-31.250,-290.039,0.000
1606139828.035,-65.430,-41.016,-29.297,-315.918,0.000
1606139828.039,28.809,-34.180,-26.367,32.227,0.000
1606139828.043,76.660,-29.785,-27.832,280.762,0.000
1606139828.047,24.902,-28.320,-30.273,117.676,0.000
1606139828.051,-57.617,-29.297,-30.273,-249.512,0.000
1606139828.055,-66.895,-38.086,-23.438,-322.754,0.000
1606139828.058,10.742,-35.645,-18.066,-16.113,0.000
1606139828.062,69.336,-23.438,-19.043,260.742,0.000
1606139828.066,28.320,-22.461,-25.879,162.598,0.000
1606139828.070,-58.105,-36.621,-34.180,-203.613,0.000
1606139828.074,-94.727,-11.719,-33.691,-350.586,0.000
1606139828.078,-26.855,12.695,-29.785,-74.707,0.000
1606139828.082,51.758,-20.508,-23.438,243.652,0.000
1606139828.086,27.344,-36.133,-23.926,179.688,0.000
1606139828.090,-64.941,-41.016,-26.855,-183.594,0.000
1606139828.094,-106.934,-49.316,-24.414,-349.609,0.000
1606139828.098,-37.598,-51.758,-25.879,-102.051,0.000
1606139828.101,50.293,-39.062,-24.414,241.211,0.000
1606139828.105,12.695,-33.691,-21.973,210.449,0.000
1606139828.109,-86.914,-35.645,-32.227,-171.875,0.000
1606139828.113,-128.418,-20.996,-40.039,-406.738,0.000
1606139828.117,-78.125,-12.207,-39.551,-213.867,0.000
1606139828.121,2.930,-25.391,-34.668,145.020,0.000
1606139828.125,1.953,-31.250,-35.156,197.754,0.000
1606139828.129,-78.613,-37.598,-42.480,-126.953,0.000
1606139828.133,-145.508,-41.016,-39.551,-375.977,0.000
1606139828.137,-104.980,-41.504,-38.574,-248.047,0.000
1606139828.141,-7.812,-35.645,-38.574,111.328,0.000
1606139828.144,12.695,-28.809,-31.250,241.211,0.000
1606139828.148,-65.430,-35.645,-34.180,-52.734,0.000
1606139828.152,-113.770,-29.785,-46.387,-360.840,0.000
1606139828.156,-69.824,-20.508,-43.945,-281.738,0.000
1606139828.160,-5.371,-31.250,-33.203,111.816,0.000
1606139828.164,20.508,-33.691,-30.273,294.922,0.000
1606139828.168,-23.926,-34.668,-37.598,16.602,0.000
1606139828.172,-111.328,-28.320,-47.363,-337.891,0.000
1606139828.176,-107.422,-5.371,-41.992,-301.270,0.000
1606139828.180,1.953,-14.648,-31.738,77.148,0.000
1606139828.183,41.992,-29.785,-29.785,288.574,0.000
1606139828.187,-28.809,-33.203,-31.250,72.266,0.000
1606139828.191,-106.934,-35.156,-37.598,-290.527,0.000
1606139828.195,-98.145,-36.621,-41.992,-335.938,0.000
1606139828.199,-3.418,-33.203,-35.645,22.461,0.000
1606139828.203,34.180,-32.715,-28.320,301.758,0.000
1606139828.207,-34.180,-39.551,-34.668,132.324,0.000
1606139828.211,-104.004,-38.574,-34.668,-260.254,0.000
1606139828.215,-108.887,-17.090,-29.297,-351.562,0.000
1606139828.219,-40.527,-15.625,-29.785,-28.320,0.000
1606139828.223,35.156,-28.320,-21.973,271.484,0.000
1606139828.226,17.090,-35.156,-21.973,169.434,0.000
1606139828.230,-87.891,-43.945,-32.715,-231.445,0.000
1606139828.234,-118.164,-37.598,-37.598,-374.023,0.000
1606139828.238,-17.090,-27.344,-34.668,-81.543,0.000
1606139828.242,50.781,-32.227,-27.832,262.695,0.000
1606139828.246,9.766,-33.691,-26.367,224.609,0.000
1606139828.250,-88.379,-42.969,-31.250,-173.340,0.000
1606139828.254,-125.488,9.766,-36.133,-382.324,0.000
1606139828.258,-47.363,42.480,-34.180,-145.996,0.000
1606139828.262,33.203,-19.043,-27.344,221.680,0.000
1606139828.266,22.949,-32.227,-25.391,245.117,0.000
1606139828.269,-67.871,-30.273,-31.738,-131.836,0.000
1606139828.273,-133.789,-40.039,-38.574,-384.277,0.000
1606139828.277,-72.754,-42.969,-34.668,-199.707,0.000
1606139828.281,23.438,-37.598,-30.273,188.965,0.000
1606139828.285,30.273,-34.668,-28.809,258.301,0.000
1606139828.289,-46.387,-40.527,-38.574,-98.145,0.000
1606139828.293,-111.328,-26.855,-39.062,-371.582,0.000
1606139828.297,-64.941,-11.719,-34.180,-226.562,0.000
1606139828.301,23.438,-33.203,-31.250,170.410,0.000
1606139828.305,41.992,-39.062,-27.832,297.363,0.000
1606139828.308,-31.738,-34.668,-33.691,-27.832,0.000
1606139828.312,-97.656,-29.785,-35.156,-341.797,0.000
1606139828.316,-86.426,-34.668,-31.250,-265.625,0.000
1606139828.320,-8.301,-29.297,-26.855,113.281,0.000
1606139828.324,54.688,-21.484,-22.949,287.109,0.000
1606139828.328,-19.043,-32.227,-27.344,40.527,0.000
1606139828.332,-129.883,-42.480,-37.109,-312.988,0.000
1606139828.336,-112.793,-46.875,-39.062,-326.660,0.000
1606139828.340,-21.973,-42.480,-31.250,77.637,0.000
1606139828.344,35.645,-32.227,-28.809,312.012,0.000
1606139828.348,-14.160,-35.156,-36.621,71.777,0.000
1606139828.351,-102.539,-39.551,-44.434,-293.457,0.000
1606139828.355,-92.773,5.371,-47.852,-337.402,0.000
1606139828.359,1.465,11.719,-37.598,12.695,0.000
1606139828.363,63.477,-25.391,-29.785,272.949,0.000
1606139828.367,15.625,-28.320,-33.691,100.098,0.000
1606139828.371,-98.145,-35.156,-31.250,-257.324,0.000
1606139828.375,-97.656,-40.527,-27.832,-318.848,0.000
1606139828.379,-12.207,-41.992,-25.391,0.000,0.000
1606139828.383,34.668,-41.504,-23.926,279.785,0.000
1606139828.387,1.953,-44.434,-26.367,179.688,0.000
1606139828.391,-96.680,-46.387,-28.809,-182.129,0.000
1606139828.394,-107.422,-37.109,-21.973,-313.477,0.000
1606139828.398,-15.625,-33.203,-20.996,-53.711,0.000
1606139828.402,45.898,-31.738,-19.043,248.535,0.000
1606139828.406,16.113,-28.809,-13.672,220.215,0.000
1606139828.410,-70.312,-32.715,-21.973,-148.438,0.000
1606139828.414,-109.863,-35.156,-23.438,-337.891,0.000
1606139828.418,-45.410,-29.297,-21.484,-110.352,0.000
1606139828.422,29.297,-29.297,-26.855,229.004,0.000
1606139828.426,7.812,-37.109,-29.785,231.445,0.000
1606139828.430,-76.660,-43.457,-33.691,-126.953,0.000
1606139828.433,-101.074,-27.832,-37.109,-324.219,0.000
1606139828.437,-39.062,-13.672,-34.180,-145.996,0.000
1606139828.441,40.527,-15.625,-29.297,191.406,0.000
1606139828.445,50.293,-12.207,-30.273,246.582,0.000
1606139828.449,-41.504,-23.438,-41.992,-93.262,0.000
1606139828.453,-97.656,-9.766,-39.551,-354.004,0.000
1606139828.457,-48.340,14.648,-20.508,-208.984,0.000
1606139828.461,27.344,-6.836,-23.438,159.668,0.000
1606139828.465,45.898,-18.066,-31.738,271.484,0.000
1606139828.469,-26.855,-20.020,-32.227,-14.160,0.000
1606139828.473,-107.910,-24.414,-33.203,-324.707,0.000
1606139828.476,-83.496,-24.414,-31.738,-262.695,0.000
1606139828.480,18.555,-26.367,-32.715,111.328,0.000
1606139828.484,63.477,-26.855,-32.715,274.414,0.000
1606139828.488,-7.324,-33.203,-32.715,9.277,0.000
1606139828.492,-93.750,-36.133,-30.273,-324.219,0.000
1606139828.496,-72.266,-28.320,-26.855,-305.176,0.000
1606139828.500,16.602,-35.156,-28.320,55.664,0.000
1606139828.504,46.875,-41.992,-23.926,277.832,0.000
1606139828.508,-14.160,-45.410,-22.461,80.566,0.000
1606139828.512,-98.145,-49.805,-23.926,-281.250,0.000
1606139828.516,-99.121,-47.363,-27.344,-316.406,0.000
1606139828.519,-20.508,-46.387,-31.738,21.973,0.000
1606139828.523,30.762,-45.898,-24.414,280.762,0.000
1606139828.527,-8.301,-48.828,-16.602,152.344,0.000
1606139828.531,-94.727,-48.828,-26.855,-215.820,0.000
1606139828.535,-112.305,-30.762,-35.156,-323.730,0.000
1606139828.539,-37.598,-16.602,-30.762,-32.227,0.000
1606139828.543,17.090,-24.902,-31.250,250.000,0.000
1606139828.547,-13.672,-25.391,-38.086,150.879,0.000
1606139828.551,-115.234,-19.043,-47.363,-248.535,0.000
1606139828.555,-163.086,-20.996,-53.711,-418.457,0.000
1606139828.558,-90.820,-19.531,-51.758,-152.344,0.000
1606139828.562,-13.672,-7.324,-47.852,181.152,0.000
1606139828.566,-39.062,-0.488,-50.781,139.160,0.000
1606139828.570,-148.926,-2.441,-58.594,-255.371,0.000
1606139828.574,-195.312,-3.418,-62.500,-459.473,0.000
1606139828.578,-114.746,0.000,-57.129,-222.168,0.000
1606139828.582,-25.879,0.000,-52.734,133.789,0.000
1606139828.586,-33.203,1.465,-56.641,146.484,0.000
1606139828.590,-114.258,-2.441,-61.523,-207.031,0.000
1606139828.594,-164.062,15.625,-63.477,-441.406,0.000
1606139828.598,-93.262,22.461,-63.477,-262.207,0.000
1606139828.601,23.438,1.465,-60.059,127.930,0.000
1606139828.605,31.738,1.465,-57.617,217.285,0.000
1606139828.609,-57.129,2.441,-55.664,-94.727,0.000
1606139828.613,-121.582,-4.395,-56.152,-375.000,0.000
1606139828.617,-83.008,-8.301,-53.711,-252.441,0.000
1606139828.621,13.184,2.930,-53.223,130.859,0.000
1606139828.625,39.062,7.324,-48.340,258.301,0.000
1606139828.629,-37.598,-11.719,-49.316,-24.902,0.000
1606139828.633,-114.746,-9.766,-54.199,-338.867,0.000
1606139828.637,-72.266,17.578,-47.363,-266.113,0.000
1606139828.641,35.645,0.977,-39.062,116.211,0.000
1606139828.644,62.988,-19.043,-39.062,283.691,0.000
1606139828.648,-13.672,-27.344,-41.992,41.504,0.000
1606139828.652,-97.656,-36.133,-39.551,-274.414,0.000
1606139828.656,-81.543,-40.527,-41.504,-255.371,0.000
1606139828.660,25.391,-35.645,-39.062,91.309,0.000
1606139828.664,80.566,-30.273,-30.762,289.551,0.000
1606139828.668,29.297,-37.598,-28.320,102.051,0.000
1606139828.672,-50.293,-34.668,-31.738,-221.680,0.000
1606139828.676,-49.316,-26.367,-29.785,-258.301,0.000
1606139828.680,34.668,-34.180,-19.531,61.035,0.000
1606139828.683,97.168,-34.180,-10.742,310.059,0.000
1606139828.687,48.340,-31.738,-13.184,166.992,0.000
1606139828.691,-46.875,-37.109,-16.602,-179.199,0.000
1606139828.695,-48.340,-44.434,-19.531,-255.371,0.000
1606139828.699,40.527,-42.480,-15.625,35.645,0.000
1606139828.703,106.934,-36.621,-15.625,309.082,0.000
1606139828.707,72.266,-39.062,-15.625,219.727,0.000
1606139828.711,-23.926,-41.016,-15.137,-136.230,0.000
1606139828.715,-57.129,-37.109,-19.531,-270.996,0.000
1606139828.719,18.555,-34.668,-12.695,-7.324,0.000
1606139828.723,90.332,-35.156,-5.859,291.992,0.000
1606139828.726,61.523,-36.621,-13.672,238.770,0.000
1606139828.730,-26.367,-46.875,-26.855,-115.723,0.000
1606139828.734,-52.246,-17.090,-25.879,-286.133,0.000
1606139828.738,14.648,0.000,-17.090,-58.105,0.000
1606139828.742,91.797,-30.273,-16.602,272.461,0.000
1606139828.746,75.684,-40.527,-18.066,280.273,0.000
1606139828.750,-18.555,-46.875,-17.090,-52.246,0.000
1606139828.754,-75.684,-46.387,-22.461,-284.668,0.000
1606139828.758,-20.996,-44.922,-25.391,-125.488,0.000
1606139828.762,66.406,-41.992,-20.020,224.121,0.000
1606139828.766,59.082,-34.668,-20.020,290.039,0.000
1606139828.769,-36.621,-44.434,-27.344,-34.668,0.000
1606139828.773,-107.910,-24.902,-26.855,-318.359,0.000
1606139828.777,-74.707,-9.277,-23.438,-213.867,0.000
1606139828.781,13.184,-31.738,-30.762,145.508,0.000
1606139828.785,34.180,-30.762,-27.832,267.578,0.000
1606139828.789,-47.363,-35.156,-30.762,-17.578,0.000
1606139828.793,-121.094,-40.527,-43.945,-329.590,0.000
1606139828.797,-96.191,-38.574,-42.480,-268.066,0.000
1606139828.801,1.953,-32.715,-34.668,99.121,0.000
1606139828.805,46.387,-29.297,-20.996,276.855,0.000
1606139828.808,-18.066,-41.504,-17.090,42.480,0.000
1606139828.812,-97.168,-18.066,-15.625,-282.227,0.000
1606139828.816,-76.660,37.598,-17.090,-284.668,0.000
1606139828.820,16.602,1.953,-25.879,49.805,0.000
1606139828.824,55.176,-38.086,-23.438,270.020,0.000
1606139828.828,0.977,-38.086,-21.973,95.215,0.000
1606139828.832,-97.656,-37.598,-29.297,-254.883,0.000
1606139828.836,-113.770,-35.156,-34.180,-312.012,0.000
1606139828.840,-21.973,-35.645,-33.691,16.602,0.000
1606139828.844,43.945,-40.527,-35.645,280.762,0.000
1606139828.848,-3.418,-45.410,-36.621,143.555,0.000
1606139828.851,-106.445,-43.945,-40.039,-238.281,0.000
1606139828.855,-121.094,-36.133,-41.504,-342.773,0.000
1606139828.859,-31.250,-35.156,-38.574,-37.109,0.000
1606139828.863,41.016,-32.715,-36.621,250.000,0.000
1606139828.867,12.207,-36.621,-35.645,163.086,0.000
1606139828.871,-79.102,-45.410,-36.133,-210.938,0.000
1606139828.875,-109.375,-29.785,-32.715,-359.863,0.000
1606139828.879,-35.645,-30.762,-30.273,-97.656,0.000
1606139828.883,41.992,-40.039,-29.297,223.145,0.000
1606139828.887,18.555,-40.527,-30.762,193.359,0.000
1606139828.891,-83.496,-46.387,-38.574,-173.828,0.000
1606139828.894,-133.789,-48.340,-34.180,-378.418,0.000
1606139828.898,-70.312,-47.852,-27.832,-151.367,0.000
1606139828.902,29.297,-35.156,-28.320,215.820,0.000
1606139828.906,31.738,-26.367,-28.809,242.188,0.000
1606139828.910,-68.359,-39.062,-39.551,-122.070,0.000
1606139828.914,-125.488,-28.809,-42.969,-378.418,0.000
1606139828.918,-62.500,-11.719,-40.039,-204.590,0.000
1606139828.922,40.039,-12.207,-39.062,166.504,0.000
1606139828.926,52.246,-9.766,-37.598,235.840,0.000
1606139828.930,-41.016,-24.902,-45.410,-84.961,0.000
1606139828.933,-114.258,-18.066,-53.711,-359.375,0.000
1606139828.937,-73.730,-6.348,-49.316,-237.305,0.000
1606139828.941,34.668,-17.578,-41.504,130.371,0.000
1606139828.945,63.965,-12.695,-36.621,258.789,0.000
1606139828.949,-27.344,-30.273,-37.109,-10.742,0.000
1606139828.953,-98.145,-16.602,-31.738,-308.594,0.000
1606139828.957,-66.895,0.488,-26.855,-248.535,0.000
1606139828.961,21.484,-30.762,-30.762,95.215,0.000
1606139828.965,51.758,-34.668,-26.367,252.930,0.000
1606139828.969,-19.531,-34.668,-27.832,22.949,0.000
1606139828.973,-98.145,-38.574,-34.668,-289.551,0.000
1606139828.976,-81.055,-36.133,-32.227,-274.902,0.000
1606139828.980,13.672,-27.344,-27.832,62.012,0.000
1606139828.984,55.664,-21.973,-26.367,265.137,0.000
1606139828.988,-15.137,-29.785,-30.762,70.312,0.000
1606139828.992,-105.957,-34.668,-37.598,-274.414,0.000
1606139828.996,-109.375,-33.203,-38.574,-318.359,0.000
1606139829.000,-22.461,-27.832,-37.109,6.836,0.000
1606139829.004,33.691,-23.926,-32.227,261.230,0.000
1606139829.008,-20.996,-35.645,-35.645,115.234,0.000
1606139829.012,-112.305,-39.551,-38.574,-251.953,0.000
1606139829.016,-121.094,-20.508,-35.156,-341.797,0.000
1606139829.019,-26.855,-20.020,-27.832,-33.203,0.000
1606139829.023,52.734,-27.344,-25.879,258.301,0.000
1606139829.027,12.695,-29.297,-30.273,168.457,0.000
1606139829.031,-88.379,-40.039,-32.715,-187.988,0.000
1606139829.035,-109.375,-36.133,-36.621,-336.914,0.000
1606139829.039,-26.367,-28.320,-25.879,-76.660,0.000
1606139829.043,60.547,-22.461,-16.113,270.508,0.000
1606139829.047,46.387,-25.879,-17.578,249.512,0.000
1606139829.051,-51.270,-40.039,-28.320,-127.441,0.000
1606139829.055,-95.703,-28.320,-27.832,-322.754,0.000
1606139829.058,-28.809,-25.391,-20.996,-105.957,0.000
1606139829.062,75.195,-32.227,-16.113,248.047,0.000
1606139829.066,75.684,-32.227,-9.277,291.504,0.000
1606139829.070,-28.320,-36.621,-13.672,-54.688,0.000
1606139829.074,-99.609,-38.574,-20.020,-311.035,0.000
1606139829.078,-58.105,-37.598,-18.066,-148.438,0.000
1606139829.082,35.156,-34.668,-14.648,214.844,0.000
1606139829.086,45.410,-41.016,-14.648,287.598,0.000
1606139829.090,-43.457,-44.922,-15.625,-23.438,0.000
1606139829.094,-107.422,-27.344,-12.695,-298.340,0.000
1606139829.098,-72.754,-20.508,-16.602,-207.031,0.000
1606139829.101,17.578,-35.645,-17.578,139.160,0.000
1606139829.105,44.434,-33.691,-21.973,268.555,0.000
1606139829.109,-32.715,-35.156,-31.250,0.000,0.000
1606139829.113,-114.258,-41.992,-34.180,-319.824,0.000
1606139829.117,-90.332,-42.969,-35.645,-277.832,0.000
1606139829.121,12.695,-39.062,-25.879,86.426,0.000
1606139829.125,57.617,-36.133,-24.414,277.832,0.000
1606139829.129,-17.578,-37.598,-36.621,38.086,0.000
1606139829.133,-108.398,-28.809,-37.598,-320.312,0.000
1606139829.137,-96.191,-19.531,-34.668,-319.824,0.000
1606139829.141,-2.441,-19.531,-37.598,39.551,0.000
1606139829.144,50.781,-19.531,-32.715,265.137,0.000
1606139829.148,-7.324,-19.531,-34.180,65.430,0.000
1606139829.152,-101.562,-15.137,-43.457,-314.453,0.000
1606139829.156,-102.051,-11.230,-51.758,-365.234,0.000
1606139829.160,-13.672,-24.902,-46.387,-26.855,0.000
1606139829.164,48.828,-25.391,-42.480,244.141,0.000
1606139829.168,7.324,-24.902,-41.016,119.141,0.000
1606139829.172,-93.262,-27.344,-39.062,-254.395,0.000
1606139829.176,-113.770,-29.297,-49.805,-375.000,0.000
1606139829.180,-18.066,-28.809,-48.828,-68.848,0.000
1606139829.183,60.547,-24.902,-41.992,247.559,0.000
1606139829.187,29.785,-20.996,-38.086,176.270,0.000
1606139829.191,-67.871,-22.949,-42.969,-197.754,0.000
1606139829.195,-102.539,-18.066,-48.340,-358.887,0.000
1606139829.199,-27.832,-17.090,-49.316,-105.469,0.000
1606139829.203,56.641,-17.090,-42.969,222.168,0.000
1606139829.207,42.480,-17.578,-33.691,202.148,0.000
1606139829.211,-52.734,-29.785,-32.715,-149.414,0.000
1606139829.215,-100.586,-37.598,-41.992,-346.191,0.000
1606139829.219,-35.156,-30.762,-41.504,-136.719,0.000
1606139829.223,54.199,-21.973,-23.926,211.426,0.000
1606139829.226,42.969,-32.227,-29.297,224.609,0.000
1606139829.230,-52.246,-41.992,-41.992,-107.422,0.000
1606139829.234,-98.145,-19.043,-39.062,-328.125,0.000
1606139829.238,-48.340,-17.578,-40.039,-176.758,0.000
1606139829.242,36.621,-27.344,-35.645,166.992,0.000
1606139829.246,52.246,-16.113,-26.367,234.863,0.000
1606139829.250,-31.250,-19.531,-35.645,-68.359,0.000
1606139829.254,-98.145,-27.344,-40.527,-341.797,0.000
1606139829.258,-59.082,-32.227,-31.738,-242.188,0.000
1606139829.262,32.227,-27.832,-28.809,119.141,0.000
1606139829.266,48.828,-20.020,-26.855,248.047,0.000
1606139829.269,-37.598,-27.344,-27.832,-22.949,0.000
1606139829.273,-127.930,-36.133,-32.227,-331.055,0.000
1606139829.277,-110.840,-33.691,-28.809,-278.809,0.000
1606139829.281,-11.719,-30.762,-27.832,87.402,0.000
1606139829.285,29.297,-30.273,-29.297,258.301,0.000
1606139829.289,-42.969,-32.227,-41.016,16.113,0.000
1606139829.293,-123.535,-33.203,-45.410,-317.871,0.000
1606139829.297,-110.352,-28.809,-35.156,-307.129,0.000
1606139829.301,-14.648,-22.949,-33.203,44.434,0.000
1606139829.305,27.832,-25.879,-32.227,252.930,0.000
1606139829.308,-37.598,-34.668,-29.785,68.359,0.000
1606139829.312,-121.582,-31.250,-30.273,-270.996,0.000
1606139829.316,-127.930,-21.484,-33.691,-319.824,0.000
1606139829.320,-41.016,-32.715,-27.344,-4.395,0.000
1606139829.324,20.996,-36.133,-22.949,255.859,0.000
1606139829.328,-23.926,-41.504,-28.809,131.348,0.000
1606139829.332,-113.281,-49.316,-34.668,-232.910,0.000
1606139829.336,-124.023,-33.203,-32.715,-334.961,0.000
1606139829.340,-36.621,-31.738,-27.344,-39.551,0.000
1606139829.344,38.574,-34.180,-18.066,255.859,0.000
1606139829.348,3.906,-34.180,-14.648,186.035,0.000
1606139829.351,-90.820,-35.156,-24.414,-174.805,0.000
1606139829.355,-116.211,-32.715,-23.926,-329.590,0.000
1606139829.359,-38.574,-25.391,-20.020,-70.801,0.000
1606139829.363,40.527,-20.996,-16.602,251.953,0.000
1606139829.367,24.902,-30.273,-16.113,232.422,0.000
1606139829.371,-59.082,-31.738,-17.578,-109.375,0.000
1606139829.375,-102.539,-7.812,-21.973,-303.711,0.000
1606139829.379,-36.621,-12.695,-26.855,-105.469,0.000
1606139829.383,62.012,-31.738,-17.578,225.586,0.000
1606139829.387,53.223,-21.973,-6.836,263.672,0.000
1606139829.391,-39.062,-14.648,-9.277,-55.664,0.000
1606139829.394,-97.168,-12.207,-14.648,-306.641,0.000
1606139829.398,-48.340,-11.719,-13.672,-155.762,0.000
1606139829.402,48.828,-13.672,-15.625,207.520,0.000
1606139829.406,68.359,-13.672,-12.207,298.340,0.000
1606139829.410,-6.348,-17.578,-2.441,-1.953,0.000
1606139829.414,-77.637,-20.996,-18.066,-294.922,0.000
1606139829.418,-44.922,-18.555,-26.855,-195.312,0.000
1606139829.422,57.129,-16.602,-14.160,184.082,0.000
1606139829.426,76.660,-29.297,-20.020,311.035,0.000
1606139829.430,-9.277,-40.527,-23.438,22.461,0.000
1606139829.433,-85.449,-14.648,-21.973,-300.293,0.000
1606139829.437,-64.453,-1.465,-24.414,-255.371,0.000
1606139829.441,28.809,-20.996,-23.438,105.957,0.000
1606139829.445,66.895,-22.461,-19.043,290.527,0.000
1606139829.449,-5.371,-25.391,-21.484,56.641,0.000
1606139829.453,-97.656,-26.855,-36.133,-299.316,0.000
1606139829.457,-91.797,-27.832,-36.133,-317.871,0.000
1606139829.461,2.930,-23.438,-30.762,31.738,0.000
1606139829.465,52.734,-18.066,-31.250,262.207,0.000
1606139829.469,-7.812,-23.438,-29.785,84.961,0.000
1606139829.473,-105.957,-29.297,-29.297,-278.809,0.000
1606139829.476,-119.629,-17.578,-30.762,-355.957,0.000
1606139829.480,-35.156,-18.066,-33.691,-48.828,0.000
1606139829.484,30.273,-26.367,-37.598,223.145,0.000
1606139829.488,-13.672,-30.273,-34.668,107.910,0.000
1606139829.492,-109.375,-36.133,-30.273,-250.000,0.000
1606139829.496,-125.000,-39.551,-31.250,-354.492,0.000
1606139829.500,-47.363,-37.109,-37.109,-65.918,0.000
1606139829.504,20.508,-31.738,-41.504,224.609,0.000
1606139829.508,-9.766,-34.180,-39.551,141.602,0.000
1606139829.512,-110.352,-41.016,-43.457,-208.984,0.000
1606139829.516,-144.043,-41.016,-43.945,-344.238,0.000
1606139829.519,-74.707,-44.434,-38.086,-105.957,0.000
1606139829.523,0.488,-49.316,-32.715,202.148,0.000
1606139829.527,-14.648,-48.340,-30.762,184.082,0.000
1606139829.531,-99.121,-49.316,-37.109,-148.926,0.000
1606139829.535,-139.648,-53.223,-36.621,-335.449,0.000
1606139829.539,-83.984,-58.105,-31.250,-144.043,0.000
1606139829.543,10.254,-53.223,-30.273,193.848,0.000
1606139829.547,18.555,-48.340,-24.414,239.258,0.000
1606139829.551,-71.777,-55.664,-31.738,-88.867,0.000
1606139829.555,-120.605,-53.223,-45.410,-338.867,0.000
1606139829.558,-50.293,-42.969,-38.574,-172.363,0.000
1606139829.562,41.016,-42.969,-24.902,190.918,0.000
1606139829.566,20.996,-52.246,-23.438,244.629,0.000
1606139829.570,-80.566,-69.824,-24.414,-77.637,0.000
1606139829.574,-139.648,-40.527,-21.484,-349.121,0.000
1606139829.578,-114.258,-15.625,-10.742,-246.094,0.000
1606139829.582,-31.250,-46.875,-2.441,110.352,0.000
1606139829.586,-5.371,-57.129,-1.953,231.445,0.000
1606139829.590,-93.750,-61.523,1.465,-36.133,0.000
1606139829.594,-172.852,-64.941,2.441,-334.961,0.000
1606139829.598,-151.367,-65.430,10.254,-306.152,0.000
1606139829.601,-68.848,-65.918,17.578,37.598,0.000
1606139829.605,-33.691,-61.523,15.137,229.004,0.000
1606139829.609,-96.680,-66.406,22.949,22.461,0.000
1606139829.613,-197.266,-57.617,20.020,-315.918,0.000
1606139829.617,-191.406,-54.688,6.836,-326.660,0.000
1606139829.621,-80.566,-77.148,10.254,27.832,0.000
1606139829.625,-16.113,-79.590,13.672,269.531,0.000
1606139829.629,-57.129,-82.520,4.883,109.863,0.000
1606139829.633,-136.230,-80.078,-4.395,-245.117,0.000
1606139829.637,-131.836,-71.777,-6.348,-302.734,0.000
1606139829.641,-31.738,-63.477,-7.812,25.391,0.000
1606139829.644,46.387,-56.641,1.465,304.688,0.000
1606139829.648,11.719,-63.965,5.371,188.965,0.000
1606139829.652,-79.102,-60.547,-7.324,-169.922,0.000
1606139829.656,-98.633,-49.805,-16.602,-282.227,0.000
1606139829.660,-18.066,-53.711,-19.043,-8.789,0.000
1606139829.664,65.430,-47.852,-9.277,298.340,0.000
1606139829.668,38.574,-48.828,-9.277,236.328,0.000
1606139829.672,-64.453,-48.828,-23.926,-133.789,0.000
1606139829.676,-97.656,-36.621,-25.879,-297.852,0.000
1606139829.680,-17.090,-46.875,-20.996,-48.340,0.000
1606139829.683,77.148,-49.316,-17.090,291.016,0.000
1606139829.687,71.289,-42.969,-20.020,292.480,0.000
1606139829.691,-19.531,-41.992,-28.320,-62.012,0.000
1606139829.695,-69.336,-37.598,-34.668,-290.039,0.000
1606139829.699,-5.859,-40.527,-32.715,-88.867,0.000
1606139829.703,87.891,-39.062,-28.320,276.367,0.000
1606139829.707,79.102,-38.574,-28.320,311.523,0.000
1606139829.711,-11.230,-37.598,-29.785,-25.879,0.000
1606139829.715,-69.824,-25.879,-40.039,-292.480,0.000
1606139829.719,-23.438,-27.832,-34.180,-148.926,0.000
1606139829.723,81.543,-32.715,-25.391,226.562,0.000
1606139829.726,98.633,-25.391,-26.367,317.383,0.000
1606139829.730,4.883,-25.879,-28.320,0.000,0.000
1606139829.734,-67.383,-17.090,-38.086,-298.340,0.000
1606139829.738,-31.250,-24.902,-36.621,-213.379,0.000
1606139829.742,70.312,-30.762,-30.762,161.133,0.000
1606139829.746,101.074,-16.113,-36.621,313.477,0.000
1606139829.750,19.043,-24.902,-34.180,47.363,0.000
1606139829.754,-69.336,-9.766,-36.133,-284.668,0.000
1606139829.758,-56.152,9.766,-40.527,-269.043,0.000
1606139829.762,36.621,-15.625,-30.273,88.867,0.000
1606139829.766,77.148,-29.297,-18.555,288.086,0.000
1606139829.769,9.277,-37.109,-23.926,73.242,0.000
1606139829.773,-83.008,-39.551,-44.922,-275.879,0.000
1606139829.777,-81.055,-36.133,-40.527,-302.246,0.000
1606139829.781,19.531,-35.645,-29.785,44.922,0.000
1606139829.785,71.289,-32.715,-36.621,280.762,0.000
1606139829.789,9.277,-40.039,-38.086,105.957,0.000
1606139829.793,-78.613,-21.484,-40.039,-232.422,0.000
1606139829.797,-82.520,-14.648,-37.598,-290.527,0.000
1606139829.801,-0.488,-39.551,-26.367,1.465,0.000
1606139829.805,52.734,-42.480,-26.855,247.559,0.000
1606139829.808,4.395,-55.664,-29.785,117.188,0.000
1606139829.812,-82.031,-52.246,-23.926,-221.191,0.000
1606139829.816,-95.215,-41.992,-20.020,-318.848,0.000
1606139829.820,-24.902,-43.457,-22.461,-58.105,0.000
1606139829.824,43.945,-34.668,-22.949,234.375,0.000
1606139829.828,23.926,-35.645,-31.738,184.570,0.000
1606139829.832,-66.895,-42.969,-38.086,-152.832,0.000
1606139829.836,-102.051,-43.945,-33.203,-314.941,0.000
1606139829.840,-34.668,-39.062,-31.250,-90.820,0.000
1606139829.844,50.293,-30.273,-25.879,236.328,0.000
1606139829.848,37.109,-34.180,-22.461,227.539,0.000
1606139829.851,-62.012,-45.410,-30.273,-120.605,0.000
1606139829.855,-109.375,-23.926,-37.598,-326.660,0.000
1606139829.859,-41.016,-12.695,-34.180,-128.906,0.000
1606139829.863,49.316,-29.785,-19.531,228.516,0.000
1606139829.867,25.391,-38.574,-13.184,261.230,0.000
1606139829.871,-74.219,-48.828,-22.949,-66.406,0.000
1606139829.875,-116.211,-44.434,-25.391,-304.688,0.000
1606139829.879,-62.988,-37.109,-14.160,-162.109,0.000
1606139829.883,22.949,-33.203,-10.742,182.129,0.000
1606139829.887,39.062,-32.715,-14.648,272.461,0.000
1606139829.891,-36.133,-37.109,-21.973,9.277,0.000
1606139829.894,-107.422,-38.086,-30.762,-279.297,0.000
1606139829.898,-80.078,-40.039,-24.902,-212.891,0.000
1606139829.902,19.531,-38.574,-17.090,150.879,0.000
1606139829.906,52.246,-32.227,-20.508,302.246,0.000
1606139829.910,-28.320,-39.062,-23.438,42.969,0.000
1606139829.914,-102.051,-37.109,-21.484,-277.832,0.000
1606139829.918,-77.637,-29.785,-30.273,-255.859,0.000
1606139829.922,20.996,-26.855,-32.227,102.539,0.000
1606139829.926,72.266,-21.484,-23.438,311.523,0.000
1606139829.930,10.742,-22.461,-20.996,98.145,0.000
1606139829.933,-78.613,-25.391,-32.227,-252.930,0.000
1606139829.937,-74.219,-22.461,-36.133,-271.484,0.000
1606139829.941,17.578,-22.949,-28.320,65.918,0.000
1606139829.945,67.383,-19.531,-27.832,296.387,0.000
1606139829.949,6.836,-22.949,-31.738,128.906,0.000
1606139829.953,-93.262,-24.414,-37.598,-245.605,0.000
1606139829.957,-103.516,-23.926,-37.598,-324.707,0.000
1606139829.961,-14.160,-27.344,-34.668,-8.789,0.000
1606139829.965,57.129,-20.508,-31.738,275.879,0.000
1606139829.969,14.648,-29.785,-32.227,166.016,0.000
1606139829.973,-87.402,-24.414,-38.574,-215.820,0.000
1606139829.976,-108.887,-5.859,-28.320,-347.656,0.000
1606139829.980,-20.996,-20.020,-17.578,-60.059,0.000
1606139829.984,59.082,-32.227,-26.367,263.184,0.000
1606139829.988,22.461,-39.551,-32.715,204.590,0.000
1606139829.992,-80.566,-34.180,-35.156,-172.852,0.000
1606139829.996,-115.234,-19.043,-34.668,-362.305,0.000
1606139830.000,-47.363,-35.645,-23.926,-118.164,0.000
1606139830.004,35.156,-40.039,-17.090,240.723,0.000
1606139830.008,20.508,-41.504,-22.949,242.676,0.000
1606139830.012,-78.125,-51.758,-29.297,-125.977,0.000
1606139830.016,-129.395,-47.852,-30.762,-362.793,0.000
1606139830.019,-69.336,-41.016,-19.043,-171.387,0.000
1606139830.023,32.715,-30.762,-11.719,200.684,0.000
1606139830.027,38.086,-29.297,-21.484,260.742,0.000
1606139830.031,-47.363,-30.273,-22.949,-58.105,0.000
1606139830.035,-114.258,-4.883,-23.438,-336.426,0.000
1606139830.039,-76.172,5.859,-20.508,-221.191,0.000
1606139830.043,23.926,-19.531,-12.695,136.719,0.000
1606139830.047,39.551,-23.926,-24.902,237.305,0.000
1606139830.051,-61.035,-31.738,-40.039,-63.477,0.000
1606139830.055,-142.090,-38.574,-40.039,-363.281,0.000
1606139830.058,-101.562,-35.156,-30.273,-275.879,0.000
1606139830.062,-2.441,-23.438,-21.484,90.820,0.000
1606139830.066,17.090,-20.508,-17.090,228.027,0.000
1606139830.070,-66.406,-35.645,-18.555,-36.133,0.000
1606139830.074,-134.277,-33.691,-20.508,-337.402,0.000
1606139830.078,-120.605,-23.926,-23.438,-312.988,0.000
1606139830.082,-58.105,-19.531,-22.949,-6.348,0.000
1606139830.086,-24.902,-19.531,-11.719,173.340,0.000
1606139830.090,-86.426,-25.391,-12.695,-27.344,0.000
1606139830.094,-185.547,-16.113,-16.113,-375.000,0.000
1606139830.098,-198.242,-21.484,-12.695,-418.457,0.000
1606139830.101,-112.305,-29.297,-7.812,-97.168,0.000
1606139830.105,-67.871,-15.625,-9.277,132.812,0.000
1606139830.109,-132.324,-19.043,-8.789,-37.598,0.000
1606139830.113,-221.680,-23.926,-6.836,-387.207,0.000
1606139830.117,-228.027,-19.043,-4.395,-464.355,0.000
1606139830.121,-159.180,-15.137,-4.395,-177.246,0.000
1606139830.125,-105.957,-16.602,-5.859,98.145,0.000
1606139830.129,-142.578,-21.484,-6.836,-0.488,0.000
1606139830.133,-241.699,-7.324,-15.625,-370.605,0.000
1606139830.137,-268.555,19.531,-18.555,-502.441,0.000
1606139830.141,-192.871,6.836,-8.301,-231.445,0.000
1606139830.144,-122.070,-13.184,1.465,75.684,0.000
1606139830.148,-142.090,-21.973,-4.883,36.133,0.000
1606139830.152,-242.188,-33.691,-17.090,-321.777,0.000
1606139830.156,-286.621,-34.180,-18.555,-506.348,0.000
1606139830.160,-208.496,-26.367,-14.648,-277.832,0.000
1606139830.164,-118.652,-22.949,-12.695,57.129,0.000
1606139830.168,-119.141,-25.879,-10.742,72.754,0.000
1606139830.172,-203.125,-19.531,-13.184,-256.348,0.000
1606139830.176,-256.348,-3.418,-20.020,-483.887,0.000
1606139830.180,-194.336,-15.137,-17.578,-307.129,0.000
1606139830.183,-97.168,-24.902,-10.254,46.875,0.000
1606139830.187,-92.773,-28.320,-10.254,107.422,0.000
1606139830.191,-174.805,-32.227,-16.602,-195.312,0.000
1606139830.195,-233.398,-30.273,-21.973,-448.730,0.000
1606139830.199,-196.777,-29.785,-26.367,-325.195,0.000
1606139830.203,-94.727,-20.996,-26.855,42.480,0.000
1606139830.207,-65.918,-22.949,-28.320,156.738,0.000
1606139830.211,-133.789,-28.809,-29.785,-116.211,0.000
1606139830.215,-182.617,-21.484,-39.551,-390.625,0.000
1606139830.219,-135.742,-20.996,-44.922,-303.223,0.000
1606139830.223,-30.762,-15.625,-40.039,65.918,0.000
1606139830.226,6.348,-18.555,-36.133,227.051,0.000
1606139830.230,-59.570,-37.109,-41.016,-12.695,0.000
1606139830.234,-126.953,-14.160,-51.270,-315.918,0.000
1606139830.238,-97.168,-2.441,-48.340,-276.367,0.000
1606139830.242,14.648,-34.180,-40.039,88.379,0.000
1606139830.246,68.359,-39.551,-36.133,292.969,0.000
1606139830.250,11.719,-34.180,-40.039,103.027,0.000
1606139830.254,-66.895,-39.062,-42.480,-227.539,0.000
1606139830.258,-64.453,-45.898,-43.945,-266.602,0.000
1606139830.262,38.086,-39.551,-40.039,75.195,0.000
1606139830.266,108.887,-32.227,-34.180,342.285,0.000
1606139830.269,59.082,-45.410,-36.133,184.082,0.000
1606139830.273,-30.762,-29.785,-35.645,-169.922,0.000
1606139830.277,-39.551,-16.602,-35.645,-246.582,0.000
1606139830.281,50.781,-38.574,-32.227,60.059,0.000
1606139830.285,119.141,-39.062,-24.414,340.332,0.000
1606139830.289,76.660,-44.922,-28.320,231.445,0.000
1606139830.293,-13.184,-50.293,-44.922,-133.301,0.000
1606139830.297,-28.320,-51.270,-45.898,-259.766,0.000
1606139830.301,51.270,-52.734,-41.992,7.324,0.000
1606139830.305,129.883,-39.551,-34.180,315.918,0.000
1606139830.308,108.887,-36.133,-30.273,281.250,0.000
1606139830.312,8.301,-37.109,-38.086,-73.242,0.000
1606139830.316,-31.738,-9.277,-35.645,-265.137,0.000
1606139830.320,32.715,-20.996,-32.227,-54.688,0.000
1606139830.324,118.652,-37.109,-27.832,282.227,0.000
1606139830.328,113.770,-31.738,-23.926,304.199,0.000
1606139830.332,15.137,-36.133,-34.180,-35.645,0.000
1606139830.336,-42.969,-42.969,-42.969,-265.625,0.000
1606139830.340,8.301,-42.480,-38.574,-89.844,0.000
1606139830.344,100.098,-33.691,-33.691,270.508,0.000
1606139830.348,105.469,-32.227,-38.086,328.125,0.000
1606139830.351,16.113,-36.133,-39.551,3.418,0.000
1606139830.355,-48.828,-39.062,-40.527,-266.113,0.000
1606139830.359,-6.348,-39.551,-37.598,-135.254,0.000
1606139830.363,94.727,-38.086,-31.250,235.840,0.000
1606139830.367,114.746,-40.039,-30.762,339.355,0.000
1606139830.371,28.320,-43.457,-31.738,46.387,0.000
1606139830.375,-51.270,-36.621,-38.574,-258.301,0.000
1606139830.379,-30.762,-37.598,-39.551,-201.172,0.000
1606139830.383,63.477,-42.969,-37.598,162.598,0.000
1606139830.387,104.492,-36.621,-37.598,340.820,0.000
1606139830.391,38.086,-28.809,-39.551,104.980,0.000
1606139830.394,-43.945,-28.809,-41.504,-231.445,0.000
1606139830.398,-35.156,-35.645,-43.945,-227.539,0.000
1606139830.402,59.082,-35.156,-36.621,132.812,0.000
1606139830.406,111.328,-23.438,-27.344,364.258,0.000
1606139830.410,43.945,-32.227,-34.180,149.902,0.000
1606139830.414,-53.711,-20.508,-46.387,-230.957,0.000
1606139830.418,-64.453,-7.812,-55.176,-287.109,0.000
1606139830.422,28.320,-28.809,-44.434,44.922,0.000
1606139830.426,100.586,-24.902,-33.203,313.965,0.000
1606139830.430,53.711,-22.949,-32.715,163.574,0.000
1606139830.433,-46.387,-24.902,-35.156,-211.426,0.000
1606139830.437,-65.430,-27.344,-45.410,-316.895,0.000
1606139830.441,19.531,-26.855,-34.668,-11.230,0.000
1606139830.445,86.426,-20.020,-25.391,280.762,0.000
1606139830.449,55.176,-27.344,-31.738,196.777,0.000
1606139830.453,-41.992,-10.742,-38.086,-166.504,0.000
1606139830.457,-81.543,-1.465,-36.621,-325.684,0.000
1606139830.461,-7.812,-33.203,-31.250,-59.570,0.000
1606139830.465,76.660,-39.551,-30.273,271.973,0.000
1606139830.469,61.035,-40.039,-25.391,251.465,0.000
1606139830.473,-41.016,-36.621,-29.785,-117.188,0.000
1606139830.476,-85.449,-33.691,-33.691,-330.078,0.000
1606139830.480,-12.695,-33.691,-30.762,-111.816,0.000
1606139830.484,76.660,-24.414,-22.949,247.559,0.000
1606139830.488,68.848,-22.949,-22.949,271.484,0.000
1606139830.492,-31.250,-30.762,-37.598,-88.867,0.000
1606139830.496,-92.773,-35.156,-42.969,-340.332,0.000
1606139830.500,-30.273,-23.926,-33.203,-158.203,0.000
1606139830.504,70.801,-23.926,-18.555,220.215,0.000
1606139830.508,73.242,-32.715,-19.043,294.434,0.000
1606139830.512,-25.391,-34.668,-35.156,-35.645,0.000
1606139830.516,-98.145,-9.766,-36.133,-323.730,0.000
1606139830.519,-57.129,-5.371,-26.855,-208.008,0.000
1606139830.523,37.598,-35.156,-24.902,162.598,0.000
1606139830.527,55.176,-39.062,-26.367,289.062,0.000
1606139830.531,-31.250,-37.598,-37.598,4.883,0.000
1606139830.535,-117.676,-43.457,-42.969,-313.965,0.000
1606139830.539,-83.496,-48.340,-31.738,-254.883,0.000
1606139830.543,19.043,-39.551,-23.438,125.977,0.000
1606139830.547,53.223,-35.156,-28.809,305.664,0.000
1606139830.551,-16.113,-44.434,-29.785,53.223,0.000
1606139830.555,-107.910,-19.043,-27.344,-295.898,0.000
1606139830.558,-96.680,-20.508,-41.992,-300.293,0.000
1606139830.562,13.184,-41.016,-40.039,71.289,0.000
1606139830.566,52.734,-36.621,-23.438,297.852,0.000
1606139830.570,-27.344,-42.969,-20.020,84.473,0.000
1606139830.574,-118.164,-46.875,-28.320,-276.855,0.000
1606139830.578,-113.770,-48.828,-33.203,-322.754,0.000
1606139830.582,-20.508,-44.922,-30.273,11.719,0.000
1606139830.586,54.688,-35.156,-23.926,291.016,0.000
1606139830.590,13.672,-36.133,-23.438,161.133,0.000
1606139830.594,-89.844,-50.781,-32.227,-218.750,0.000
1606139830.598,-108.887,-49.805,-39.062,-332.520,0.000
1606139830.601,-22.461,-40.527,-33.691,-35.156,0.000
1606139830.605,53.711,-32.227,-25.391,270.996,0.000
