timestamps,TP9,AF7,AF8,TP10,Right AUX
1606128744.390,0.000,0.000,0.000,0.000,0.000
1606128744.394,-0.488,0.000,0.000,-0.977,0.000
1606128744.398,-1.953,-1.465,-0.977,-1.465,0.000
1606128744.402,6.348,2.441,1.465,9.766,0.000
1606128744.406,-30.762,-14.648,-8.789,-41.504,0.000
1606128744.410,-22.949,-32.715,-20.508,22.949,0.000
1606128744.414,42.969,-25.391,-13.184,151.367,0.000
1606128744.418,-0.977,-28.809,-12.695,27.344,0.000
1606128744.422,-92.285,-37.109,-27.344,-172.852,0.000
1606128744.426,-105.957,-39.551,-32.227,-190.918,0.000
1606128744.429,-16.113,-29.785,-19.531,3.906,0.000
1606128744.433,58.105,-21.973,-17.578,145.020,0.000
1606128744.437,25.879,-23.926,-18.555,55.176,0.000
1606128744.441,-65.918,-33.691,-20.020,-145.996,0.000
1606128744.445,-90.332,-38.574,-24.902,-185.059,0.000
1606128744.449,-16.602,-34.668,-20.020,-9.766,0.000
1606128744.453,57.617,-21.484,-16.113,143.066,0.000
1606128744.457,36.133,-6.836,-9.766,84.961,0.000
1606128744.461,-62.988,-20.020,-20.020,-124.512,0.000
1606128744.465,-103.516,-36.621,-37.598,-197.754,0.000
1606128744.469,-40.527,-32.227,-31.250,-37.598,0.000
1606128744.472,37.109,-21.973,-23.438,134.766,0.000
1606128744.476,21.484,-22.949,-28.320,97.168,0.000
1606128744.480,-67.871,-30.273,-33.691,-112.305,0.000
1606128744.484,-115.723,-32.715,-35.645,-206.055,0.000
1606128744.488,-63.965,-29.297,-27.344,-63.477,0.000
1606128744.492,22.949,-25.879,-26.855,119.141,0.000
1606128744.496,28.320,-25.391,-30.273,114.258,0.000
1606128744.500,-58.594,-36.621,-32.227,-83.984,0.000
1606128744.504,-115.723,-42.969,-34.180,-205.566,0.000
1606128744.508,-66.895,0.488,-28.809,-89.355,0.000
1606128744.512,27.832,26.855,-25.879,102.051,0.000
1606128744.515,39.551,-14.160,-29.297,110.352,0.000
1606128744.519,-47.852,-36.621,-32.715,-78.613,0.000
1606128744.523,-105.957,-39.551,-32.227,-209.473,0.000
1606128744.527,-67.871,-38.574,-30.762,-120.605,0.000
1606128744.531,24.414,-28.809,-28.320,87.402,0.000
1606128744.535,52.246,-27.832,-27.344,135.742,0.000
1606128744.539,-21.973,-27.832,-29.297,-35.645,0.000
1606128744.543,-100.098,-38.086,-45.898,-195.312,0.000
1606128744.547,-84.473,-44.922,-46.875,-144.531,0.000
1606128744.551,8.789,-37.109,-30.273,61.523,0.000
1606128744.554,44.922,-9.766,-30.762,136.230,0.000
1606128744.558,-23.438,0.000,-35.645,-18.066,0.000
1606128744.562,-104.004,-39.062,-40.039,-191.406,0.000
1606128744.566,-95.703,-55.176,-39.551,-152.344,0.000
1606128744.570,0.977,-33.691,-29.785,61.035,0.000
1606128744.574,48.828,-23.438,-25.879,159.668,0.000
1606128744.578,-13.184,-31.250,-30.273,25.391,0.000
1606128744.582,-98.633,-37.598,-31.738,-162.598,0.000
1606128744.586,-107.910,-42.480,-30.762,-166.016,0.000
1606128744.590,-26.855,-36.133,-26.855,24.414,0.000
1606128744.594,29.785,-29.785,-20.508,145.508,0.000
1606128744.597,-16.602,-33.203,-23.926,30.273,0.000
1606128744.601,-107.422,-50.781,-38.574,-168.457,0.000
1606128744.605,-113.770,-29.785,-41.016,-186.523,0.000
1606128744.609,-27.832,5.859,-26.367,-1.465,0.000
1606128744.613,36.621,-14.648,-23.926,132.324,0.000
1606128744.617,8.301,-30.273,-32.227,43.945,0.000
1606128744.621,-76.660,-32.227,-36.133,-159.180,0.000
1606128744.625,-102.539,-39.062,-31.738,-207.520,0.000
1606128744.629,-29.785,-39.062,-32.227,-41.504,0.000
1606128744.633,46.875,-28.809,-36.621,113.281,0.000
1606128744.637,28.809,-32.227,-33.203,61.523,0.000
1606128744.640,-59.570,-41.504,-35.645,-142.090,0.000
1606128744.644,-92.773,-41.016,-35.156,-208.008,0.000
1606128744.648,-25.879,-33.691,-32.227,-48.340,0.000
1606128744.652,59.082,-34.668,-29.297,122.559,0.000
1606128744.656,46.387,-2.441,-27.832,92.773,0.000
1606128744.660,-50.781,-3.418,-35.156,-113.770,0.000
1606128744.664,-102.539,-35.156,-40.527,-210.938,0.000
1606128744.668,-50.293,-33.203,-35.645,-72.266,0.000
1606128744.672,32.227,-30.273,-29.297,109.863,0.000
1606128744.676,35.156,-28.320,-29.785,106.445,0.000
1606128744.679,-53.711,-39.062,-32.715,-90.820,0.000
1606128744.683,-116.211,-43.457,-32.227,-212.891,0.000
1606128744.687,-73.242,-41.504,-37.109,-97.168,0.000
1606128744.691,16.602,-31.738,-34.180,90.332,0.000
1606128744.695,28.809,-23.926,-32.227,109.863,0.000
1606128744.699,-48.340,-27.344,-33.691,-56.152,0.000
1606128744.703,-113.281,-38.574,-30.762,-192.383,0.000
1606128744.707,-84.961,-2.930,-29.297,-112.305,0.000
1606128744.711,9.277,21.973,-20.020,92.285,0.000
1606128744.715,32.715,-20.020,-17.578,132.812,0.000
1606128744.719,-43.457,-40.527,-22.949,-42.969,0.000
1606128744.722,-113.770,-50.293,-22.461,-196.777,0.000
1606128744.726,-95.215,-44.922,-19.531,-141.113,0.000
1606128744.730,-8.301,-29.297,-22.461,61.035,0.000
1606128744.734,30.762,-26.367,-16.113,128.418,0.000
1606128744.738,-31.250,-34.668,-21.973,-25.391,0.000
1606128744.742,-108.887,-38.086,-33.691,-197.266,0.000
1606128744.746,-98.633,-34.668,-28.809,-169.434,0.000
1606128744.750,-6.836,-32.227,-26.855,30.273,0.000
1606128744.754,44.922,-17.090,-18.066,126.465,0.000
1606128744.758,-5.371,-2.930,-24.902,-0.488,0.000
1606128744.762,-91.797,-29.785,-34.180,-184.570,0.000
1606128744.765,-95.215,-42.969,-28.809,-177.734,0.000
1606128744.769,-15.625,-36.621,-24.414,18.555,0.000
1606128744.773,35.156,-33.203,-22.949,136.719,0.000
1606128744.777,-11.230,-40.527,-29.785,22.949,0.000
1606128744.781,-102.051,-50.781,-32.715,-170.898,0.000
1606128744.785,-117.188,-43.945,-33.203,-180.664,0.000
1606128744.789,-36.133,-31.738,-30.273,3.418,0.000
1606128744.793,27.344,-32.715,-29.297,134.277,0.000
1606128744.797,-5.371,-38.574,-25.391,51.758,0.000
1606128744.801,-95.215,-48.828,-34.668,-151.855,0.000
1606128744.804,-123.535,-38.086,-41.504,-201.660,0.000
1606128744.808,-51.270,2.930,-27.344,-30.762,0.000
1606128744.812,24.414,-9.766,-24.902,126.465,0.000
1606128744.816,10.254,-37.109,-38.086,62.988,0.000
1606128744.820,-85.938,-46.875,-50.293,-151.855,0.000
1606128744.824,-127.441,-48.828,-53.711,-224.609,0.000
1606128744.828,-55.176,-35.156,-39.062,-68.848,0.000
1606128744.832,31.250,-24.414,-23.438,105.469,0.000
1606128744.836,23.438,-30.273,-38.574,76.660,0.000
1606128744.840,-66.406,-47.363,-55.664,-130.859,0.000
1606128744.844,-110.352,-42.480,-53.223,-223.145,0.000
1606128744.847,-52.734,-16.602,-44.922,-86.914,0.000
1606128744.851,37.109,-22.461,-36.133,96.191,0.000
1606128744.855,44.922,-34.668,-34.668,91.797,0.000
1606128744.859,-41.504,-40.527,-42.969,-98.145,0.000
1606128744.863,-98.633,-45.898,-42.969,-211.914,0.000
1606128744.867,-51.758,-26.855,-29.297,-101.074,0.000
1606128744.871,38.574,-12.695,-19.043,98.633,0.000
1606128744.875,52.734,-21.973,-25.391,124.512,0.000
1606128744.879,-31.738,-31.250,-39.551,-58.105,0.000
1606128744.883,-98.145,-42.969,-37.109,-188.965,0.000
1606128744.887,-68.848,-17.578,-33.691,-104.492,0.000
1606128744.890,14.160,4.883,-27.344,93.750,0.000
1606128744.894,43.457,-28.320,-22.949,141.602,0.000
1606128744.898,-23.438,-41.504,-33.203,-22.949,0.000
1606128744.902,-92.773,-41.504,-30.273,-171.875,0.000
1606128744.906,-74.707,-36.133,-18.066,-118.164,0.000
1606128744.910,10.742,-22.461,-14.648,83.984,0.000
1606128744.914,50.781,-17.090,-19.043,161.133,0.000
1606128744.918,-16.602,-27.344,-24.414,15.137,0.000
1606128744.922,-106.934,-44.922,-32.715,-168.457,0.000
1606128744.926,-98.633,-31.738,-29.785,-144.531,0.000
1606128744.929,-15.625,-18.066,-16.113,51.758,0.000
1606128744.933,35.156,-24.414,-11.230,146.484,0.000
1606128744.937,-20.020,-31.738,-20.020,18.066,0.000
1606128744.941,-118.164,-49.316,-31.738,-181.152,0.000
1606128744.945,-122.559,-35.645,-31.738,-175.781,0.000
1606128744.949,-28.809,-25.879,-12.695,26.855,0.000
1606128744.953,40.039,-30.762,-10.742,144.531,0.000
1606128744.957,-10.254,-31.738,-31.738,26.855,0.000
1606128744.961,-108.398,-37.598,-43.457,-184.082,0.000
1606128744.965,-115.234,-37.598,-43.945,-208.008,0.000
1606128744.969,-24.902,-33.203,-30.762,-14.648,0.000
1606128744.972,41.016,-22.949,-19.043,131.348,0.000
1606128744.976,15.137,-21.973,-23.926,54.199,0.000
1606128744.980,-76.660,-43.945,-35.645,-152.832,0.000
1606128744.984,-106.934,-40.039,-38.574,-202.637,0.000
1606128744.988,-29.297,-8.301,-31.738,-33.691,0.000
1606128744.992,51.270,-12.695,-17.578,126.953,0.000
1606128744.996,28.809,-25.879,-22.949,74.707,0.000
1606128745.000,-64.453,-40.527,-42.480,-134.766,0.000
1606128745.004,-97.168,-33.691,-39.062,-208.496,0.000
1606128745.008,-29.297,-6.348,-27.832,-53.223,0.000
1606128745.012,55.176,-12.695,-24.902,121.582,0.000
1606128745.015,49.805,-25.391,-25.391,93.750,0.000
1606128745.019,-43.457,-42.969,-33.203,-107.422,0.000
1606128745.023,-88.867,-44.922,-36.133,-191.895,0.000
1606128745.027,-34.180,-16.113,-21.484,-54.688,0.000
1606128745.031,42.969,-6.836,-5.859,130.859,0.000
1606128745.035,35.645,-20.508,-13.184,126.465,0.000
1606128745.039,-54.199,-34.180,-23.438,-72.754,0.000
1606128745.043,-116.699,-39.062,-20.508,-195.801,0.000
1606128745.047,-80.078,-36.621,-21.973,-98.633,0.000
1606128745.051,11.719,-33.691,-23.438,90.332,0.000
1606128745.054,36.133,-25.879,-19.043,122.070,0.000
1606128745.058,-42.480,-31.250,-28.809,-59.082,0.000
1606128745.062,-113.770,-42.969,-38.574,-206.055,0.000
1606128745.066,-84.473,-28.320,-32.715,-131.836,0.000
1606128745.070,11.719,-15.137,-21.973,69.824,0.000
1606128745.074,42.480,-15.137,-16.602,125.488,0.000
1606128745.078,-31.738,-26.367,-27.344,-46.387,0.000
1606128745.082,-108.398,-44.434,-39.062,-208.008,0.000
1606128745.086,-84.961,-15.137,-25.391,-149.414,0.000
1606128745.090,7.812,11.230,-16.113,58.594,0.000
1606128745.094,50.293,-17.578,-22.461,138.184,0.000
1606128745.097,-3.418,-35.156,-24.902,-11.230,0.000
1606128745.101,-84.961,-40.527,-28.809,-185.547,0.000
1606128745.105,-78.125,-34.180,-26.367,-150.879,0.000
1606128745.109,11.230,-23.926,-27.344,55.176,0.000
1606128745.113,55.176,-19.043,-28.320,147.949,0.000
1606128745.117,-1.465,-24.414,-26.855,19.531,0.000
1606128745.121,-90.332,-40.039,-37.598,-168.945,0.000
1606128745.125,-94.727,-35.156,-39.551,-170.898,0.000
1606128745.129,-14.648,-22.949,-27.832,24.902,0.000
1606128745.133,39.551,-27.832,-26.367,146.973,0.000
1606128745.137,5.371,-33.691,-28.320,54.688,0.000
1606128745.140,-86.426,-46.387,-34.180,-145.020,0.000
1606128745.144,-109.375,-44.434,-40.039,-175.781,0.000
1606128745.148,-27.344,-38.574,-29.785,10.742,0.000
1606128745.152,43.457,-34.668,-19.043,149.414,0.000
1606128745.156,13.184,-37.598,-26.855,68.359,0.000
1606128745.160,-78.613,-47.363,-38.574,-139.648,0.000
1606128745.164,-105.469,-42.969,-38.574,-192.383,0.000
1606128745.168,-33.691,-11.719,-39.062,-25.391,0.000
1606128745.172,43.945,-8.301,-34.668,133.789,0.000
1606128745.176,22.949,-30.762,-32.227,81.055,0.000
1606128745.179,-70.801,-38.086,-33.203,-120.117,0.000
1606128745.183,-110.352,-41.504,-33.691,-192.871,0.000
1606128745.187,-50.293,-39.062,-30.273,-51.270,0.000
1606128745.191,35.156,-30.762,-20.508,121.582,0.000
1606128745.195,33.203,-25.391,-21.484,95.215,0.000
1606128745.199,-53.711,-38.086,-33.691,-110.352,0.000
1606128745.203,-104.004,-44.922,-30.762,-211.426,0.000
1606128745.207,-53.223,-26.367,-29.785,-89.844,0.000
1606128745.211,32.227,-11.719,-41.504,94.727,0.000
1606128745.215,42.480,-20.996,-40.527,96.191,0.000
1606128745.219,-34.180,-25.879,-48.828,-99.121,0.000
1606128745.222,-86.426,-27.344,-55.664,-215.332,0.000
1606128745.226,-38.574,-24.902,-41.016,-101.074,0.000
1606128745.230,46.875,-21.973,-28.809,98.633,0.000
1606128745.234,61.035,-25.879,-23.926,128.418,0.000
1606128745.238,-17.090,-31.250,-30.762,-46.387,0.000
1606128745.242,-84.961,-35.645,-37.109,-184.570,0.000
1606128745.246,-50.293,-14.648,-25.879,-103.516,0.000
1606128745.250,43.945,-4.395,-15.137,102.051,0.000
1606128745.254,69.824,-20.996,-13.672,156.738,0.000
1606128745.258,0.000,-23.926,-24.902,-7.324,0.000
1606128745.262,-79.102,-35.156,-31.738,-172.852,0.000
1606128745.265,-67.383,-23.438,-21.484,-132.324,0.000
1606128745.269,18.555,3.906,-13.672,69.824,0.000
1606128745.273,57.129,-14.648,-8.789,149.902,0.000
1606128745.277,-3.906,-37.109,-15.137,9.277,0.000
1606128745.281,-88.379,-42.480,-23.438,-169.922,0.000
1606128745.285,-89.844,-39.551,-27.832,-157.227,0.000
1606128745.289,-3.906,-39.551,-20.020,43.945,0.000
1606128745.293,50.781,-34.668,-9.766,153.320,0.000
1606128745.297,-2.441,-35.645,-20.508,33.691,0.000
1606128745.301,-95.703,-51.270,-30.273,-155.273,0.000
1606128745.304,-104.980,-36.133,-19.043,-161.621,0.000
1606128745.308,-20.996,-16.602,-11.230,23.438,0.000
1606128745.312,29.785,-27.832,-19.531,134.766,0.000
1606128745.316,-10.254,-34.668,-27.344,30.273,0.000
1606128745.320,-99.609,-46.875,-38.086,-172.852,0.000
1606128745.324,-122.559,-47.852,-40.527,-206.543,0.000
1606128745.328,-38.086,-31.250,-26.367,-24.902,0.000
1606128745.332,37.598,-24.902,-10.254,120.605,0.000
1606128745.336,10.742,-29.297,-16.113,55.664,0.000
1606128745.340,-79.102,-38.086,-31.738,-141.602,0.000
1606128745.344,-107.422,-38.086,-31.250,-193.848,0.000
1606128745.347,-34.180,-23.926,-24.414,-21.973,0.000
1606128745.351,37.598,-15.625,-19.043,138.184,0.000
1606128745.355,21.973,-17.578,-9.766,89.355,0.000
1606128745.359,-64.453,-28.320,-13.672,-114.258,0.000
1606128745.363,-112.305,-33.691,-19.043,-197.266,0.000
1606128745.367,-52.246,-0.488,-10.742,-51.270,0.000
1606128745.371,29.297,7.324,-9.766,121.094,0.000
1606128745.375,23.438,-23.926,-17.578,103.027,0.000
1606128745.379,-62.988,-34.668,-31.738,-91.309,0.000
1606128745.383,-115.234,-39.551,-34.668,-197.754,0.000
1606128745.387,-63.965,-34.668,-24.902,-77.637,0.000
1606128745.390,24.902,-23.438,-16.602,110.840,0.000
1606128745.394,36.621,-13.672,-15.137,118.652,0.000
1606128745.398,-47.363,-28.809,-27.344,-79.102,0.000
1606128745.402,-110.352,-41.504,-38.574,-203.613,0.000
1606128745.406,-67.871,-12.695,-24.414,-101.562,0.000
1606128745.410,22.949,-1.953,-14.160,95.703,0.000
1606128745.414,47.852,-19.531,-24.414,135.254,0.000
1606128745.418,-23.926,-25.879,-40.039,-41.504,0.000
1606128745.422,-99.609,-37.598,-53.223,-197.266,0.000
1606128745.426,-78.125,-34.668,-48.340,-129.883,0.000
1606128745.429,22.461,-18.066,-35.645,74.707,0.000
1606128745.433,59.082,-11.719,-34.668,130.859,0.000
1606128745.437,-7.812,-19.531,-35.156,-26.855,0.000
1606128745.441,-83.008,-37.598,-31.738,-188.477,0.000
1606128745.445,-67.871,-14.648,-35.156,-144.043,0.000
1606128745.449,23.438,22.949,-35.645,59.082,0.000
1606128745.453,59.570,-3.418,-31.738,135.742,0.000
1606128745.457,3.906,-28.809,-32.227,1.953,0.000
1606128745.461,-83.008,-36.133,-39.551,-170.898,0.000
1606128745.465,-89.844,-36.133,-39.551,-158.691,0.000
1606128745.469,-8.301,-36.621,-42.480,34.180,0.000
1606128745.472,38.086,-35.645,-36.133,132.324,0.000
1606128745.476,-6.836,-36.133,-27.832,13.672,0.000
1606128745.480,-91.797,-48.340,-35.645,-168.457,0.000
1606128745.484,-104.004,-47.852,-40.039,-169.922,0.000
1606128745.488,-22.949,-32.227,-31.738,22.949,0.000
1606128745.492,41.992,-34.180,-23.438,152.344,0.000
1606128745.496,5.371,-42.480,-26.855,55.664,0.000
1606128745.500,-89.355,-45.410,-33.691,-158.691,0.000
1606128745.504,-109.375,-43.457,-33.203,-198.242,0.000
1606128745.508,-33.203,-23.438,-25.879,-14.160,0.000
1606128745.512,32.227,-25.879,-24.414,125.977,0.000
1606128745.515,7.324,-36.133,-24.902,56.152,0.000
1606128745.519,-79.590,-42.480,-22.949,-143.066,0.000
1606128745.523,-110.840,-49.805,-26.367,-201.660,0.000
1606128745.527,-47.363,-41.504,-23.926,-41.016,0.000
1606128745.531,23.438,-29.785,-23.438,118.164,0.000
1606128745.535,10.254,-34.180,-24.902,80.566,0.000
1606128745.539,-76.172,-40.527,-26.367,-119.141,0.000
1606128745.543,-113.770,-50.293,-27.832,-206.543,0.000
1606128745.547,-52.734,-7.812,-24.414,-65.430,0.000
1606128745.551,34.180,17.578,-16.602,110.840,0.000
1606128745.554,36.133,-23.926,-17.578,104.980,0.000
1606128745.558,-51.758,-39.551,-31.738,-86.426,0.000
1606128745.562,-102.051,-46.387,-36.133,-193.848,0.000
1606128745.566,-53.711,-43.945,-35.645,-79.590,0.000
1606128745.570,27.832,-30.762,-31.738,109.375,0.000
1606128745.574,39.062,-27.344,-26.855,126.465,0.000
1606128745.578,-40.527,-33.691,-31.738,-58.594,0.000
1606128745.582,-104.004,-42.480,-36.133,-184.082,0.000
1606128745.586,-69.336,-26.367,-28.809,-93.750,0.000
1606128745.590,21.484,-13.184,-20.020,99.609,0.000
1606128745.594,44.922,-27.832,-20.020,130.371,0.000
1606128745.597,-26.855,-39.062,-24.902,-41.504,0.000
1606128745.601,-95.215,-46.387,-36.133,-186.523,0.000
1606128745.605,-67.383,-40.527,-33.691,-125.000,0.000
1606128745.609,24.902,-29.297,-24.414,79.102,0.000
1606128745.613,58.594,-26.367,-21.484,138.672,0.000
1606128745.617,-11.230,-29.785,-29.297,-25.391,0.000
1606128745.621,-93.262,-34.180,-36.621,-187.988,0.000
1606128745.625,-83.496,-31.738,-36.621,-148.926,0.000
1606128745.629,7.812,-23.438,-31.250,52.246,0.000
1606128745.633,56.152,-15.137,-34.668,141.113,0.000
1606128745.637,-0.488,-25.879,-33.691,5.859,0.000
1606128745.640,-88.867,-47.852,-34.180,-171.387,0.000
1606128745.644,-95.215,-33.691,-39.551,-154.785,0.000
1606128745.648,-7.324,-0.977,-31.738,43.945,0.000
1606128745.652,47.363,-18.555,-29.785,147.949,0.000
1606128745.656,1.465,-31.250,-29.785,35.156,0.000
1606128745.660,-84.473,-34.180,-33.691,-155.762,0.000
1606128745.664,-99.609,-29.785,-33.691,-168.945,0.000
1606128745.668,-18.066,-8.301,-25.879,23.438,0.000
1606128745.672,40.039,-19.531,-21.973,137.207,0.000
1606128745.676,0.000,-32.227,-25.879,39.551,0.000
1606128745.679,-81.055,-39.551,-35.156,-144.531,0.000
1606128745.683,-104.492,-41.016,-30.762,-188.477,0.000
1606128745.687,-32.715,-17.578,-21.973,-14.648,0.000
1606128745.691,38.574,-16.602,-21.973,133.301,0.000
1606128745.695,15.625,-31.738,-26.855,70.801,0.000
1606128745.699,-74.219,-41.504,-31.250,-133.301,0.000
1606128745.703,-115.723,-49.316,-31.250,-199.219,0.000
1606128745.707,-58.105,-47.852,-28.320,-44.434,0.000
1606128745.711,22.461,-33.203,-20.508,118.164,0.000
1606128745.715,20.020,-28.320,-18.066,79.102,0.000
1606128745.719,-65.918,-47.363,-30.762,-123.047,0.000
1606128745.722,-117.676,-53.711,-38.086,-213.867,0.000
1606128745.726,-63.965,-23.926,-25.391,-75.195,0.000
1606128745.730,22.949,-16.602,-23.926,107.910,0.000
1606128745.734,25.879,-36.133,-36.621,87.402,0.000
1606128745.738,-61.035,-38.574,-39.062,-111.816,0.000
1606128745.742,-114.746,-47.852,-41.504,-218.262,0.000
1606128745.746,-66.895,-17.090,-35.645,-99.121,0.000
1606128745.750,23.438,2.930,-19.531,97.656,0.000
1606128745.754,33.691,-36.133,-22.461,111.816,0.000
1606128745.758,-51.270,-46.875,-42.480,-82.520,0.000
1606128745.762,-114.258,-51.270,-42.969,-215.820,0.000
1606128745.765,-77.148,-43.457,-31.250,-121.094,0.000
1606128745.769,8.301,-29.785,-26.855,83.984,0.000
1606128745.773,28.809,-30.273,-28.320,126.953,0.000
1606128745.777,-42.969,-34.180,-27.344,-49.805,0.000
1606128745.781,-105.957,-43.457,-28.320,-194.824,0.000
1606128745.785,-74.707,-24.902,-23.438,-125.977,0.000
1606128745.789,17.578,-2.930,-15.137,78.125,0.000
1606128745.793,56.152,-20.508,-22.461,143.555,0.000
1606128745.797,-5.859,-31.738,-30.273,-18.066,0.000
1606128745.801,-82.520,-39.062,-34.668,-178.711,0.000
1606128745.804,-75.684,-31.738,-30.273,-135.254,0.000
1606128745.808,12.207,-26.855,-20.020,63.477,0.000
1606128745.812,59.570,-24.902,-21.484,148.438,0.000
1606128745.816,-0.488,-21.973,-23.438,15.137,0.000
1606128745.820,-86.426,-29.785,-25.879,-162.598,0.000
1606128745.824,-87.402,-24.414,-29.785,-161.621,0.000
1606128745.828,1.953,20.020,-25.391,30.762,0.000
1606128745.832,56.641,5.859,-24.414,141.113,0.000
1606128745.836,10.742,-30.273,-25.391,30.762,0.000
1606128745.840,-75.195,-32.715,-32.715,-156.738,0.000
1606128745.844,-87.891,-34.180,-31.250,-170.410,0.000
1606128745.847,-6.836,-28.320,-24.414,15.625,0.000
1606128745.851,57.129,-22.949,-25.879,149.902,0.000
1606128745.855,23.438,-23.438,-23.926,68.848,0.000
1606128745.859,-72.266,-40.527,-26.855,-133.301,0.000
1606128745.863,-104.980,-46.387,-31.250,-186.523,0.000
1606128745.867,-33.691,-20.508,-25.391,-18.066,0.000
1606128745.871,38.574,-18.066,-20.996,133.301,0.000
1606128745.875,19.043,-29.785,-20.508,73.730,0.000
1606128745.879,-80.078,-39.551,-27.344,-130.371,0.000
1606128745.883,-123.047,-43.457,-32.715,-194.336,0.000
1606128745.887,-55.176,-36.133,-17.578,-41.016,0.000
1606128745.890,22.461,-32.227,-8.301,123.047,0.000
1606128745.894,8.789,-35.645,-12.207,89.355,0.000
1606128745.898,-82.520,-43.457,-21.973,-115.234,0.000
1606128745.902,-127.441,-47.363,-33.203,-207.520,0.000
1606128745.906,-71.777,-44.434,-28.809,-73.242,0.000
1606128745.910,11.719,-36.621,-25.879,104.004,0.000
1606128745.914,9.766,-35.156,-28.320,94.238,0.000
1606128745.918,-77.148,-40.527,-27.344,-105.957,0.000
1606128745.922,-129.395,-51.758,-41.504,-228.027,0.000
1606128745.926,-75.684,-30.762,-39.551,-116.211,0.000
1606128745.929,26.855,4.395,-25.391,86.914,0.000
1606128745.933,45.898,-12.695,-23.926,108.887,0.000
1606128745.937,-35.156,-31.738,-32.715,-75.195,0.000
1606128745.941,-100.586,-37.109,-39.551,-208.984,0.000
1606128745.945,-73.242,-31.738,-32.227,-120.605,0.000
1606128745.949,11.230,-24.902,-25.879,81.543,0.000
1606128745.953,39.551,-27.832,-23.926,122.070,0.000
1606128745.957,-30.762,-32.715,-26.367,-43.457,0.000
1606128745.961,-104.004,-48.340,-29.785,-190.918,0.000
1606128745.965,-85.449,-26.855,-30.762,-138.672,0.000
1606128745.969,7.812,10.742,-26.367,69.336,0.000
1606128745.972,51.758,-9.766,-21.484,142.090,0.000
1606128745.976,-13.672,-29.297,-26.855,-11.719,0.000
1606128745.980,-97.656,-38.086,-31.738,-176.270,0.000
1606128745.984,-88.867,-40.039,-32.227,-144.043,0.000
1606128745.988,1.465,-27.832,-28.320,54.688,0.000
1606128745.992,45.898,-20.996,-17.090,145.996,0.000
1606128745.996,-7.812,-26.367,-20.020,18.066,0.000
1606128746.000,-87.891,-35.645,-26.367,-161.133,0.000
1606128746.004,-94.238,-32.715,-30.273,-155.762,0.000
1606128746.008,-12.695,-10.742,-28.809,41.504,0.000
1606128746.012,40.039,-12.695,-18.555,155.273,0.000
1606128746.015,-10.254,-32.227,-25.879,38.086,0.000
1606128746.019,-103.027,-42.969,-40.039,-162.109,0.000
1606128746.023,-118.164,-38.574,-40.527,-187.012,0.000
1606128746.027,-38.574,-18.555,-25.879,-6.836,0.000
1606128746.031,30.762,-17.090,-17.090,132.812,0.000
1606128746.035,4.883,-26.855,-23.926,51.758,0.000
1606128746.039,-82.520,-32.715,-25.879,-152.344,0.000
1606128746.043,-106.445,-40.527,-27.832,-198.242,0.000
1606128746.047,-42.480,-37.598,-25.391,-34.668,0.000
1606128746.051,25.391,-31.250,-27.832,116.211,0.000
1606128746.054,10.254,-31.738,-39.062,67.383,0.000
1606128746.058,-77.148,-45.410,-43.945,-140.137,0.000
1606128746.062,-113.770,-54.688,-41.992,-220.215,0.000
1606128746.066,-45.410,-27.344,-25.391,-65.430,0.000
1606128746.070,35.156,-16.113,-22.949,112.305,0.000
1606128746.074,21.484,-33.691,-35.156,82.520,0.000
1606128746.078,-68.848,-42.969,-40.039,-120.605,0.000
1606128746.082,-117.188,-47.363,-40.527,-219.727,0.000
1606128746.086,-60.547,-41.992,-28.320,-90.820,0.000
1606128746.090,30.273,-24.902,-18.555,97.656,0.000
1606128746.094,34.668,-26.855,-26.367,91.797,0.000
1606128746.097,-54.688,-39.062,-35.156,-99.609,0.000
1606128746.101,-116.211,-41.016,-36.133,-206.543,0.000
1606128746.105,-76.172,-29.785,-32.715,-103.027,0.000
1606128746.109,19.531,-10.254,-21.484,89.355,0.000
1606128746.113,34.180,-19.043,-17.578,109.375,0.000
1606128746.117,-48.340,-32.227,-23.438,-74.707,0.000
1606128746.121,-119.141,-41.992,-31.250,-211.426,0.000
1606128746.125,-89.355,-40.527,-31.738,-133.789,0.000
1606128746.129,9.766,-25.879,-22.461,70.312,0.000
1606128746.133,42.969,-26.367,-19.531,119.629,0.000
1606128746.137,-23.438,-35.156,-30.273,-45.898,0.000
1606128746.140,-96.680,-49.316,-35.156,-198.730,0.000
1606128746.144,-75.195,-28.320,-30.273,-142.090,0.000
1606128746.148,25.391,-0.488,-16.113,67.871,0.000
1606128746.152,65.918,-18.066,-16.113,136.719,0.000
1606128746.156,3.906,-27.832,-29.785,-16.113,0.000
1606128746.160,-74.707,-35.156,-37.109,-178.711,0.000
1606128746.164,-66.406,-27.344,-31.250,-146.484,0.000
1606128746.168,26.367,-11.719,-20.020,58.594,0.000
1606128746.172,76.660,-15.137,-18.555,156.250,0.000
1606128746.176,20.020,-23.438,-26.367,24.414,0.000
1606128746.179,-69.824,-30.273,-36.133,-158.691,0.000
1606128746.183,-80.078,-29.785,-36.133,-158.691,0.000
1606128746.187,-0.488,-19.043,-29.297,30.762,0.000
1606128746.191,60.059,-12.695,-19.531,151.855,0.000
1606128746.195,18.555,-15.625,-21.484,47.852,0.000
1606128746.199,-77.148,-26.855,-31.250,-146.484,0.000
1606128746.203,-96.680,-34.668,-24.414,-170.898,0.000
1606128746.207,-13.672,3.418,-12.207,16.113,0.000
1606128746.211,51.758,18.555,-13.672,152.344,0.000
1606128746.215,16.602,-20.020,-19.043,67.383,0.000
1606128746.219,-73.730,-37.109,-24.414,-126.953,0.000
1606128746.222,-107.910,-37.598,-28.809,-178.711,0.000
1606128746.226,-34.668,-26.367,-20.508,-12.207,0.000
1606128746.230,43.457,-21.484,-12.207,139.648,0.000
1606128746.234,17.090,-29.785,-19.043,80.566,0.000
1606128746.238,-77.637,-39.062,-25.879,-120.605,0.000
1606128746.242,-119.141,-43.945,-27.832,-198.730,0.000
1606128746.246,-59.082,-5.859,-28.809,-55.664,0.000
1606128746.250,20.508,16.113,-22.949,113.281,0.000
1606128746.254,13.672,-25.879,-24.902,82.520,0.000
1606128746.258,-74.707,-41.504,-31.250,-116.699,0.000
1606128746.262,-130.859,-46.387,-36.133,-216.797,0.000
1606128746.265,-84.961,-46.387,-39.062,-97.656,0.000
1606128746.269,12.695,-36.621,-38.574,91.797,0.000
1606128746.273,26.855,-35.645,-34.180,100.586,0.000
1606128746.277,-56.641,-46.387,-36.133,-87.402,0.000
1606128746.281,-111.816,-50.781,-43.457,-201.660,0.000
1606128746.285,-73.242,-31.738,-40.039,-99.121,0.000
1606128746.289,18.555,-18.066,-31.250,97.168,0.000
1606128746.293,40.039,-29.297,-27.832,125.000,0.000
1606128746.297,-41.504,-44.922,-30.273,-55.664,0.000
1606128746.301,-111.328,-60.547,-37.598,-199.219,0.000
1606128746.304,-83.496,-34.180,-34.180,-120.605,0.000
1606128746.308,11.230,4.395,-23.926,87.891,0.000
1606128746.312,43.457,-18.555,-22.461,142.578,0.000
1606128746.316,-25.879,-42.480,-25.391,-19.531,0.000
1606128746.320,-102.051,-45.410,-25.879,-170.898,0.000
1606128746.324,-83.008,-42.480,-28.320,-119.141,0.000
1606128746.328,11.719,-34.180,-26.367,79.590,0.000
1606128746.332,52.734,-27.832,-22.461,156.738,0.000
1606128746.336,-5.371,-27.832,-26.855,7.812,0.000
1606128746.340,-90.332,-41.504,-34.180,-170.898,0.000
1606128746.344,-90.332,-36.621,-28.320,-145.996,0.000
1606128746.347,2.441,-4.883,-20.020,56.152,0.000
1606128746.351,53.711,-11.719,-24.902,155.273,0.000
1606128746.355,0.977,-33.203,-28.809,31.250,0.000
1606128746.359,-84.473,-36.621,-28.809,-156.250,0.000
1606128746.363,-88.867,-36.621,-27.832,-158.203,0.000
1606128746.367,-6.836,-25.391,-23.926,36.133,0.000
1606128746.371,55.664,-17.578,-18.066,158.691,0.000
1606128746.375,23.438,-22.461,-22.461,57.129,0.000
1606128746.379,-66.406,-27.344,-33.203,-141.602,0.000
1606128746.383,-85.938,-30.273,-31.738,-172.363,0.000
1606128746.387,-1.953,-7.812,-22.461,6.348,0.000
1606128746.390,71.289,2.930,-19.531,145.508,0.000
1606128746.394,36.133,-22.461,-23.438,67.871,0.000
1606128746.398,-63.965,-33.203,-29.297,-137.207,0.000
1606128746.402,-98.633,-31.250,-30.273,-192.383,0.000
1606128746.406,-31.738,-31.738,-29.297,-28.809,0.000
1606128746.410,47.852,-29.297,-20.996,128.418,0.000
1606128746.414,33.691,-26.367,-25.391,79.590,0.000
1606128746.418,-62.500,-34.668,-40.527,-127.441,0.000
1606128746.422,-108.887,-42.480,-43.457,-208.496,0.000
1606128746.426,-42.480,-17.090,-36.621,-60.547,0.000
1606128746.429,42.969,-7.324,-23.926,117.188,0.000
1606128746.433,29.785,-27.344,-23.926,98.633,0.000
1606128746.437,-61.523,-38.574,-36.621,-109.375,0.000
1606128746.441,-114.258,-51.270,-39.062,-216.797,0.000
1606128746.445,-61.035,-39.551,-30.762,-84.473,0.000
1606128746.449,32.715,-18.555,-23.438,106.445,0.000
1606128746.453,41.504,-21.484,-20.996,114.258,0.000
1606128746.457,-43.945,-33.203,-25.391,-76.660,0.000
1606128746.461,-103.516,-34.668,-28.320,-198.242,0.000
1606128746.465,-64.453,-30.762,-21.484,-95.703,0.000
1606128746.469,32.227,-23.438,-13.184,105.469,0.000
1606128746.472,62.988,-15.625,-20.020,143.555,0.000
1606128746.476,-18.066,-18.555,-22.461,-36.621,0.000
1606128746.480,-100.098,-31.738,-30.273,-189.453,0.000
1606128746.484,-74.707,-24.414,-33.691,-120.117,0.000
1606128746.488,17.578,20.020,-23.438,90.820,0.000
1606128746.492,43.457,6.348,-20.020,142.578,0.000
1606128746.496,-27.832,-36.621,-27.832,-26.855,0.000
1606128746.500,-106.934,-42.969,-35.645,-186.523,0.000
1606128746.504,-95.215,-37.109,-34.180,-141.602,0.000
1606128746.508,1.953,-23.926,-27.344,65.918,0.000
1606128746.512,45.410,-23.926,-24.414,148.926,0.000
1606128746.515,-19.531,-34.668,-29.785,0.977,0.000
1606128746.519,-105.957,-42.969,-34.668,-179.199,0.000
1606128746.523,-99.609,-33.691,-33.203,-155.762,0.000
1606128746.527,-3.418,-20.508,-20.996,41.992,0.000
1606128746.531,45.898,-20.020,-18.066,138.184,0.000
1606128746.535,-6.348,-33.691,-20.996,15.625,0.000
1606128746.539,-94.727,-42.480,-28.809,-174.316,0.000
1606128746.543,-101.562,-35.645,-27.344,-171.387,0.000
1606128746.547,-17.578,-32.227,-19.043,19.531,0.000
1606128746.551,45.898,-27.832,-18.066,131.348,0.000
1606128746.554,6.836,-25.879,-20.508,34.668,0.000
1606128746.558,-88.867,-35.645,-33.203,-162.109,0.000
1606128746.562,-106.445,-35.645,-29.297,-190.430,0.000
1606128746.566,-27.832,-24.414,-24.902,-7.812,0.000
1606128746.570,41.016,-18.066,-25.879,141.113,0.000
1606128746.574,12.207,-27.344,-25.391,65.918,0.000
1606128746.578,-90.332,-42.480,-34.180,-142.578,0.000
1606128746.582,-123.047,-43.457,-34.180,-195.801,0.000
1606128746.586,-45.410,-25.879,-24.902,-25.391,0.000
1606128746.590,31.250,-17.090,-23.438,139.160,0.000
1606128746.594,20.020,-22.949,-22.949,89.844,0.000
1606128746.597,-70.312,-30.273,-22.461,-117.188,0.000
1606128746.601,-116.699,-40.527,-36.133,-200.684,0.000
1606128746.605,-52.246,-39.551,-34.180,-62.500,0.000
1606128746.609,33.691,-32.715,-18.066,110.840,0.000
1606128746.613,32.715,-28.809,-16.113,99.121,0.000
1606128746.617,-59.082,-35.645,-30.273,-99.121,0.000
1606128746.621,-115.234,-43.945,-37.109,-207.520,0.000
1606128746.625,-64.941,-38.086,-26.367,-87.891,0.000
1606128746.629,27.344,-28.320,-23.926,98.145,0.000
1606128746.633,41.016,-22.949,-31.250,108.398,0.000
1606128746.637,-45.410,-28.809,-35.645,-79.590,0.000
1606128746.640,-108.398,-44.922,-42.969,-205.566,0.000
1606128746.644,-76.172,-43.945,-45.898,-121.094,0.000
1606128746.648,17.578,-27.344,-33.203,76.172,0.000
1606128746.652,45.898,-24.414,-22.949,124.512,0.000
1606128746.656,-35.645,-41.992,-32.227,-53.711,0.000
1606128746.660,-105.957,-49.316,-38.574,-200.195,0.000
1606128746.664,-74.707,-36.621,-31.738,-124.512,0.000
1606128746.668,27.344,-24.414,-18.555,85.938,0.000
1606128746.672,61.035,-20.020,-17.578,144.531,0.000
1606128746.676,-19.531,-28.320,-31.250,-17.578,0.000
1606128746.679,-99.121,-37.598,-30.273,-176.270,0.000
1606128746.683,-76.172,-35.156,-22.461,-130.371,0.000
1606128746.687,14.648,-29.297,-13.672,75.195,0.000
1606128746.691,61.035,-28.320,-15.137,161.133,0.000
1606128746.695,3.418,-26.855,-27.832,22.949,0.000
1606128746.699,-83.984,-31.250,-32.227,-153.809,0.000
1606128746.703,-86.426,-36.133,-32.227,-142.090,0.000
1606128746.707,6.836,-20.996,-28.809,54.199,0.000
1606128746.711,62.500,-16.113,-23.438,163.086,0.000
1606128746.715,5.371,-27.832,-24.414,39.551,0.000
1606128746.719,-85.449,-34.668,-27.832,-153.809,0.000
1606128746.722,-100.586,-38.574,-31.738,-169.434,0.000
1606128746.726,-20.996,-27.344,-23.438,19.531,0.000
1606128746.730,41.992,-20.508,-18.066,144.531,0.000
1606128746.734,7.324,-26.367,-27.832,49.805,0.000
1606128746.738,-85.449,-30.273,-37.109,-150.879,0.000
1606128746.742,-107.910,-25.391,-39.062,-192.383,0.000
1606128746.746,-30.273,-16.113,-37.109,-17.578,0.000
1606128746.750,43.945,-12.207,-24.902,129.395,0.000
1606128746.754,21.484,-21.484,-24.414,64.453,0.000
1606128746.758,-67.383,-26.367,-36.621,-134.766,0.000
1606128746.762,-96.191,-29.297,-33.691,-197.754,0.000
1606128746.765,-38.086,-17.578,-27.832,-52.246,0.000
1606128746.769,31.738,-0.488,-22.949,105.957,0.000
1606128746.773,25.879,-19.531,-26.855,74.219,0.000
1606128746.777,-65.430,-37.109,-41.016,-128.906,0.000
1606128746.781,-115.723,-35.645,-38.574,-221.191,0.000
1606128746.785,-59.082,-33.203,-34.668,-87.891,0.000
1606128746.789,32.227,-24.414,-29.785,93.262,0.000
1606128746.793,41.992,-21.973,-29.785,84.473,0.000
1606128746.797,-44.434,-33.203,-43.457,-113.770,0.000
1606128746.801,-99.121,-35.645,-44.922,-218.262,0.000
1606128746.804,-47.363,-24.902,-36.133,-98.145,0.000
1606128746.808,46.875,-19.531,-25.879,100.586,0.000
1606128746.812,56.152,-23.926,-25.391,119.141,0.000
1606128746.816,-31.250,-29.785,-34.668,-60.547,0.000
1606128746.820,-102.539,-33.691,-36.621,-187.988,0.000
1606128746.824,-72.754,-31.250,-22.949,-103.027,0.000
1606128746.828,17.578,-25.879,-8.301,99.121,0.000
1606128746.832,43.945,-26.855,-16.602,134.277,0.000
1606128746.836,-22.949,-32.227,-26.367,-37.598,0.000
1606128746.840,-96.680,-35.645,-23.926,-181.641,0.000
1606128746.844,-80.566,-29.785,-25.391,-125.000,0.000
1606128746.847,9.277,-19.531,-23.926,73.730,0.000
1606128746.851,43.457,-16.602,-10.254,143.066,0.000
1606128746.855,-22.949,-22.461,-15.625,-4.395,0.000
1606128746.859,-105.957,-35.645,-35.645,-186.035,0.000
1606128746.863,-95.703,-37.598,-34.180,-160.156,0.000
1606128746.867,2.441,-31.738,-20.508,59.082,0.000
1606128746.871,49.805,-26.367,-14.648,150.879,0.000
1606128746.875,-7.812,-30.762,-20.508,13.184,0.000
1606128746.879,-90.820,-40.527,-27.344,-167.480,0.000
1606128746.883,-90.820,-36.621,-30.273,-161.133,0.000
1606128746.887,-0.977,-22.949,-16.113,40.039,0.000
1606128746.890,61.035,-19.043,-4.883,155.273,0.000
1606128746.894,12.695,-23.438,-18.066,44.922,0.000
1606128746.898,-78.613,-26.367,-28.320,-148.926,0.000
1606128746.902,-93.262,-33.203,-28.809,-174.805,0.000
1606128746.906,-18.066,-28.809,-20.020,9.277,0.000
1606128746.910,40.039,-28.809,-19.531,135.254,0.000
1606128746.914,7.812,-33.203,-31.738,42.969,0.000
1606128746.918,-82.520,-38.574,-38.574,-155.762,0.000
1606128746.922,-107.422,-39.062,-37.598,-197.266,0.000
1606128746.926,-30.273,-34.668,-29.785,-23.438,0.000
1606128746.929,37.598,-24.414,-20.020,125.000,0.000
1606128746.933,15.137,-18.555,-21.484,68.359,0.000
1606128746.937,-70.801,-33.203,-31.250,-129.883,0.000
1606128746.941,-104.980,-38.086,-35.156,-199.219,0.000
1606128746.945,-40.527,-28.320,-29.297,-50.293,0.000
1606128746.949,39.551,-16.113,-19.043,117.676,0.000
1606128746.953,32.227,-17.578,-21.484,88.867,0.000
1606128746.957,-55.664,-30.273,-25.879,-117.676,0.000
1606128746.961,-104.492,-34.668,-32.227,-213.379,0.000
1606128746.965,-50.781,-27.832,-28.320,-76.172,0.000
1606128746.969,35.156,-25.879,-15.137,108.887,0.000
1606128746.972,36.621,-23.926,-15.625,106.445,0.000
1606128746.976,-53.711,-27.832,-31.738,-90.332,0.000
1606128746.980,-119.141,-36.621,-41.016,-209.961,0.000
1606128746.984,-70.312,-32.227,-38.086,-86.914,0.000
1606128746.988,24.902,-20.020,-34.668,107.422,0.000
1606128746.992,38.574,-16.602,-31.738,117.188,0.000
1606128746.996,-40.527,-32.715,-38.086,-54.688,0.000
1606128747.000,-112.793,-50.781,-37.598,-192.871,0.000
1606128747.004,-84.473,-46.387,-29.297,-117.676,0.000
1606128747.008,15.137,-27.832,-23.926,94.238,0.000
1606128747.012,49.316,-20.020,-17.090,143.066,0.000
1606128747.015,-23.926,-26.855,-22.949,-35.156,0.000
1606128747.019,-96.191,-38.086,-32.715,-189.941,0.000
1606128747.023,-75.195,-37.598,-25.391,-137.695,0.000
1606128747.027,17.578,-23.926,-15.137,67.871,0.000
1606128747.031,56.641,-22.461,-20.996,143.066,0.000
1606128747.035,-0.977,-28.809,-28.320,-6.836,0.000
1606128747.039,-83.984,-37.598,-38.086,-175.293,0.000
1606128747.043,-82.520,-41.016,-36.133,-149.414,0.000
1606128747.047,9.277,-21.973,-29.297,51.758,0.000
1606128747.051,58.594,-12.695,-31.250,145.996,0.000
1606128747.054,1.953,-32.227,-29.297,9.766,0.000
1606128747.058,-89.355,-42.480,-34.180,-175.293,0.000
1606128747.062,-94.727,-38.574,-31.738,-165.527,0.000
1606128747.066,-5.371,-25.879,-19.043,34.668,0.000
1606128747.070,51.758,-14.160,-19.043,152.832,0.000
1606128747.074,7.324,-22.461,-28.809,48.828,0.000
1606128747.078,-86.426,-36.133,-41.992,-151.855,0.000
1606128747.082,-109.375,-41.504,-48.340,-182.129,0.000
1606128747.086,-27.344,-8.301,-34.180,6.836,0.000
1606128747.090,41.992,8.301,-22.949,145.508,0.000
1606128747.094,4.395,-23.926,-30.762,59.570,0.000
1606128747.097,-93.750,-37.109,-40.039,-147.949,0.000
1606128747.101,-118.652,-40.039,-37.598,-192.383,0.000
1606128747.105,-39.551,-30.762,-27.344,-16.602,0.000
1606128747.109,35.156,-24.414,-18.555,138.672,0.000
1606128747.113,17.090,-29.297,-25.391,83.496,0.000
1606128747.117,-77.637,-36.133,-31.738,-120.605,0.000
1606128747.121,-114.746,-35.156,-32.227,-196.777,0.000
1606128747.125,-50.781,-26.367,-28.809,-48.828,0.000
1606128747.129,28.320,-20.996,-24.414,123.535,0.000
1606128747.133,28.320,-15.137,-20.996,101.074,0.000
1606128747.137,-60.547,-21.973,-26.855,-106.934,0.000
1606128747.140,-110.352,-38.086,-37.598,-205.566,0.000
1606128747.144,-48.828,-28.809,-28.809,-69.336,0.000
1606128747.148,46.387,6.348,-13.672,121.094,0.000
1606128747.152,51.758,-7.812,-16.113,111.816,0.000
1606128747.156,-35.645,-39.062,-31.250,-80.566,0.000
1606128747.160,-91.797,-38.086,-28.809,-191.406,0.000
1606128747.164,-51.270,-31.738,-29.785,-96.191,0.000
1606128747.168,32.715,-25.391,-34.180,93.750,0.000
1606128747.172,41.016,-31.250,-31.250,119.629,0.000
1606128747.176,-40.039,-40.527,-34.180,-59.570,0.000
1606128747.179,-105.957,-44.922,-41.016,-196.289,0.000
1606128747.183,-83.008,-45.410,-36.621,-125.488,0.000
1606128747.187,11.719,-24.902,-20.508,71.777,0.000
1606128747.191,42.969,-15.137,-17.578,124.512,0.000
1606128747.195,-35.156,-32.227,-24.902,-39.062,0.000
1606128747.199,-114.746,-40.527,-38.086,-195.312,0.000
1606128747.203,-101.074,-34.180,-34.180,-142.578,0.000
1606128747.207,-4.395,-22.461,-21.484,64.941,0.000
1606128747.211,41.504,-20.508,-14.160,143.066,0.000
1606128747.215,-18.066,-30.273,-16.113,-7.812,0.000
1606128747.219,-105.469,-37.598,-31.250,-183.105,0.000
1606128747.222,-105.957,-42.969,-34.180,-154.785,0.000
1606128747.226,-18.555,-1.465,-24.902,45.898,0.000
1606128747.230,38.574,17.578,-17.578,145.020,0.000
1606128747.234,-9.277,-30.273,-24.902,19.043,0.000
1606128747.238,-96.680,-50.293,-32.227,-169.434,0.000
1606128747.242,-101.074,-47.363,-34.180,-169.922,0.000
1606128747.246,-15.625,-30.273,-27.344,22.461,0.000
1606128747.250,50.293,-25.879,-22.949,138.672,0.000
1606128747.254,10.742,-31.250,-29.785,36.133,0.000
1606128747.258,-85.938,-34.180,-31.738,-160.645,0.000
1606128747.262,-105.957,-38.086,-33.203,-198.730,0.000
1606128747.265,-25.391,-26.855,-29.297,-14.160,0.000
1606128747.269,48.340,-17.578,-19.531,138.672,0.000
1606128747.273,20.996,-24.902,-21.484,67.871,0.000
1606128747.277,-73.242,-34.180,-30.762,-140.625,0.000
1606128747.281,-94.727,-39.062,-27.832,-195.801,0.000
1606128747.285,-26.855,-20.020,-20.020,-29.297,0.000
1606128747.289,41.016,-4.395,-18.066,128.418,0.000
1606128747.293,24.414,-25.391,-22.461,76.660,0.000
1606128747.297,-74.707,-39.551,-30.762,-133.789,0.000
1606128747.301,-118.652,-46.875,-29.785,-207.520,0.000
1606128747.304,-55.664,-32.715,-17.578,-61.035,0.000
1606128747.308,25.879,-21.973,-12.695,114.746,0.000
1606128747.312,19.043,-33.203,-26.367,95.703,0.000
1606128747.316,-69.824,-39.551,-35.645,-107.910,0.000
1606128747.320,-114.746,-41.016,-34.180,-203.613,0.000
1606128747.324,-62.988,-37.598,-25.879,-76.660,0.000
1606128747.328,24.902,-15.625,-14.160,107.422,0.000
1606128747.332,33.203,-11.719,-12.207,113.770,0.000
1606128747.336,-52.734,-31.738,-21.484,-74.707,0.000
1606128747.340,-117.188,-40.039,-26.855,-198.730,0.000
1606128747.344,-83.496,-31.250,-27.832,-95.215,0.000
1606128747.347,9.766,-24.414,-19.531,105.469,0.000
1606128747.351,27.832,-24.414,-16.113,130.371,0.000
1606128747.355,-54.199,-26.367,-27.832,-49.316,0.000
1606128747.359,-125.000,-34.180,-31.738,-193.359,0.000
1606128747.363,-101.562,-30.762,-29.785,-124.512,0.000
1606128747.367,-5.859,-13.672,-18.555,79.590,0.000
1606128747.371,30.273,-16.113,-14.648,137.695,0.000
1606128747.375,-40.039,-35.156,-27.344,-28.809,0.000
1606128747.379,-115.723,-42.969,-37.109,-193.848,0.000
1606128747.383,-92.773,-33.203,-37.598,-146.973,0.000
1606128747.387,8.301,-24.902,-34.180,55.176,0.000
1606128747.390,54.199,-23.926,-34.180,130.371,0.000
1606128747.394,-12.695,-32.227,-30.762,-12.207,0.000
1606128747.398,-99.121,-41.504,-27.344,-188.477,0.000
1606128747.402,-87.402,-36.133,-26.367,-174.316,0.000
1606128747.406,2.441,-24.414,-23.438,21.973,0.000
1606128747.410,53.711,-14.160,-17.578,128.418,0.000
1606128747.414,9.766,-16.602,-23.926,13.672,0.000
1606128747.418,-73.730,-31.250,-34.180,-170.898,0.000
1606128747.422,-88.379,-45.410,-38.574,-183.105,0.000
1606128747.426,-7.812,-28.320,-36.133,9.277,0.000
1606128747.429,60.547,-3.906,-26.855,147.461,0.000
1606128747.433,14.160,-21.973,-28.320,51.758,0.000
1606128747.437,-86.426,-41.504,-37.109,-151.855,0.000
1606128747.441,-107.910,-42.480,-37.109,-187.012,0.000
1606128747.445,-34.668,-36.621,-32.227,-9.277,0.000
1606128747.449,34.180,-30.762,-24.902,135.254,0.000
1606128747.453,9.766,-34.180,-24.414,64.453,0.000
1606128747.457,-78.613,-37.598,-26.855,-136.230,0.000
1606128747.461,-108.398,-42.969,-30.762,-193.848,0.000
1606128747.465,-40.039,-34.668,-28.809,-33.203,0.000
1606128747.469,34.180,-17.578,-21.973,127.930,0.000
1606128747.472,15.625,-28.320,-29.785,84.473,0.000
1606128747.476,-74.707,-42.969,-37.109,-117.188,0.000
1606128747.480,-118.164,-42.480,-38.086,-200.195,0.000
1606128747.484,-56.152,-34.668,-27.344,-59.082,0.000
1606128747.488,34.668,-27.344,-19.043,121.094,0.000
1606128747.492,37.598,-23.926,-19.531,106.934,0.000
1606128747.496,-51.270,-29.785,-21.484,-86.914,0.000
1606128747.500,-112.793,-46.387,-41.016,-198.730,0.000
1606128747.504,-65.918,-40.039,-45.410,-92.285,0.000
1606128747.508,27.344,-10.742,-31.250,99.121,0.000
1606128747.512,38.574,-18.555,-29.785,106.934,0.000
1606128747.515,-38.086,-35.156,-30.273,-78.125,0.000
1606128747.519,-96.680,-33.203,-29.297,-200.684,0.000
1606128747.523,-66.895,-32.715,-29.297,-117.188,0.000
1606128747.527,26.367,-22.461,-21.484,88.379,0.000
1606128747.531,53.711,-23.926,-18.555,130.859,0.000
1606128747.535,-25.879,-32.715,-27.344,-44.922,0.000
1606128747.539,-98.633,-38.086,-40.039,-194.336,0.000
1606128747.543,-74.707,-40.039,-40.527,-129.395,0.000
1606128747.547,13.184,-28.809,-28.809,76.660,0.000
1606128747.551,47.852,-20.020,-22.949,137.207,0.000
1606128747.554,-19.043,-25.879,-28.809,-20.508,0.000
1606128747.558,-107.910,-38.574,-37.109,-190.430,0.000
1606128747.562,-96.680,-37.109,-32.715,-156.250,0.000
1606128747.566,1.953,-15.137,-16.602,51.758,0.000
1606128747.570,45.898,-12.695,-14.160,135.254,0.000
1606128747.574,-21.484,-32.227,-26.855,-7.812,0.000
1606128747.578,-103.027,-33.203,-30.273,-178.711,0.000
1606128747.582,-98.633,-27.832,-27.832,-165.039,0.000
1606128747.586,-14.160,-20.508,-28.320,26.855,0.000
1606128747.590,45.898,-15.625,-24.414,137.207,0.000
1606128747.594,-2.930,-26.855,-34.180,19.531,0.000
1606128747.597,-97.168,-34.668,-43.457,-176.758,0.000
1606128747.601,-107.910,-33.203,-38.574,-188.477,0.000
1606128747.605,-23.926,-21.484,-29.785,-1.465,0.000
1606128747.609,44.922,-5.859,-19.043,127.930,0.000
1606128747.613,5.371,-22.461,-31.738,38.574,0.000
1606128747.617,-92.773,-41.016,-50.781,-160.645,0.000
1606128747.621,-111.328,-41.016,-45.410,-196.289,0.000
1606128747.625,-33.691,-34.668,-35.645,-23.438,0.000
1606128747.629,42.480,-26.855,-28.809,126.465,0.000
1606128747.633,22.949,-30.273,-35.645,64.941,0.000
1606128747.637,-64.453,-31.250,-38.574,-134.277,0.000
1606128747.640,-96.191,-30.762,-33.691,-197.266,0.000
1606128747.644,-32.227,-26.367,-31.250,-39.062,0.000
1606128747.648,53.223,-12.695,-20.508,132.812,0.000
1606128747.652,33.203,-22.461,-31.738,82.520,0.000
1606128747.656,-62.500,-35.645,-47.363,-131.348,0.000
1606128747.660,-103.516,-37.109,-45.898,-209.961,0.000
1606128747.664,-48.828,-30.273,-37.598,-66.406,0.000
1606128747.668,36.621,-24.902,-24.902,108.887,0.000
1606128747.672,39.062,-24.902,-26.855,99.121,0.000
1606128747.676,-52.734,-32.715,-39.062,-97.656,0.000
1606128747.679,-108.398,-38.086,-44.922,-212.891,0.000
1606128747.683,-63.477,-33.203,-42.480,-102.051,0.000
1606128747.687,31.250,-20.508,-26.855,99.121,0.000
1606128747.691,49.316,-17.090,-20.508,107.910,0.000
1606128747.695,-40.527,-24.414,-28.809,-82.031,0.000
1606128747.699,-111.328,-31.250,-35.645,-204.102,0.000
1606128747.703,-85.938,-38.086,-34.668,-128.906,0.000
1606128747.707,2.441,-14.160,-24.902,70.801,0.000
1606128747.711,27.832,-4.395,-19.531,125.000,0.000
1606128747.715,-51.270,-36.133,-26.855,-48.340,0.000
1606128747.719,-126.465,-47.363,-32.715,-206.055,0.000
1606128747.722,-104.492,-39.551,-33.203,-144.043,0.000
1606128747.726,-11.230,-32.715,-26.855,60.059,0.000
1606128747.730,27.344,-33.203,-22.949,121.094,0.000
1606128747.734,-38.086,-39.551,-25.391,-32.715,0.000
1606128747.738,-115.723,-43.457,-28.809,-199.219,0.000
1606128747.742,-102.051,-38.086,-30.762,-165.039,0.000
1606128747.746,-9.277,-16.602,-24.902,45.410,0.000
1606128747.750,40.039,-11.230,-23.926,136.230,0.000
1606128747.754,-7.324,-32.715,-28.809,7.324,0.000
1606128747.758,-85.938,-37.598,-29.785,-165.527,0.000
1606128747.762,-92.773,-42.480,-29.785,-166.016,0.000
1606128747.765,-6.836,-37.109,-32.715,26.367,0.000
1606128747.769,53.711,-23.926,-23.438,146.973,0.000
1606128747.773,12.207,-29.297,-24.414,37.109,0.000
1606128747.777,-79.102,-43.945,-28.320,-154.785,0.000
1606128747.781,-91.797,-44.922,-28.320,-172.363,0.000
1606128747.785,-0.977,-19.531,-25.391,13.184,0.000
1606128747.789,71.289,-2.930,-20.020,145.996,0.000
1606128747.793,36.133,-22.949,-28.320,57.129,0.000
1606128747.797,-64.941,-40.039,-30.273,-142.578,0.000
1606128747.801,-109.863,-47.363,-33.203,-195.312,0.000
1606128747.804,-38.086,-26.855,-30.762,-22.461,0.000
1606128747.808,46.875,-2.930,-21.973,129.883,0.000
1606128747.812,26.367,-18.555,-17.090,75.195,0.000
1606128747.816,-66.895,-33.203,-25.879,-120.605,0.000
1606128747.820,-104.004,-36.133,-34.180,-196.289,0.000
1606128747.824,-36.621,-31.250,-28.809,-41.504,0.000
1606128747.828,43.457,-22.461,-26.367,124.023,0.000
1606128747.832,34.668,-27.832,-21.484,95.215,0.000
1606128747.836,-53.223,-37.598,-32.227,-97.168,0.000
1606128747.840,-100.586,-40.039,-40.039,-195.312,0.000
1606128747.844,-53.223,-36.133,-30.273,-67.871,0.000
1606128747.847,31.738,-20.996,-18.555,107.910,0.000
1606128747.851,42.969,-14.648,-17.578,104.980,0.000
1606128747.855,-41.992,-29.297,-26.855,-84.473,0.000
1606128747.859,-107.910,-37.598,-34.668,-210.449,0.000
1606128747.863,-69.824,-30.273,-31.738,-109.375,0.000
1606128747.867,27.832,-19.531,-16.113,94.727,0.000
1606128747.871,43.945,-19.531,-15.137,120.117,0.000
1606128747.875,-39.062,-31.738,-27.344,-62.988,0.000
1606128747.879,-108.887,-38.086,-34.180,-196.289,0.000
1606128747.883,-79.102,-41.504,-23.926,-113.770,0.000
1606128747.887,18.555,-3.906,-14.648,84.961,0.000
1606128747.890,47.852,22.949,-21.484,126.465,0.000
1606128747.894,-29.785,-20.020,-31.738,-38.086,0.000
1606128747.898,-108.887,-41.504,-31.738,-190.918,0.000
1606128747.902,-88.867,-37.109,-30.273,-134.277,0.000
1606128747.906,9.277,-28.809,-25.391,74.707,0.000
1606128747.910,47.852,-27.832,-25.391,149.902,0.000
1606128747.914,-17.090,-34.668,-32.715,1.465,0.000
1606128747.918,-94.727,-39.551,-33.203,-170.898,0.000
1606128747.922,-87.891,-35.645,-30.762,-146.973,0.000
1606128747.926,4.395,-21.973,-17.090,58.594,0.000
1606128747.929,60.059,-12.207,-13.184,153.320,0.000
1606128747.933,8.789,-20.020,-29.297,20.020,0.000
1606128747.937,-81.055,-36.133,-40.039,-165.039,0.000
1606128747.941,-97.656,-42.969,-36.621,-168.945,0.000
1606128747.945,-11.230,-19.043,-25.879,30.762,0.000
1606128747.949,52.734,-2.441,-25.879,147.461,0.000
1606128747.953,7.812,-24.902,-29.785,36.133,0.000
1606128747.957,-81.543,-41.016,-36.621,-157.715,0.000
1606128747.961,-92.773,-37.109,-37.109,-181.152,0.000
1606128747.965,-12.207,-26.855,-29.785,-4.395,0.000
1606128747.969,52.246,-21.973,-23.438,133.789,0.000
1606128747.972,29.297,-19.043,-18.555,65.918,0.000
1606128747.976,-58.594,-22.949,-31.250,-132.324,0.000
1606128747.980,-91.797,-31.738,-38.086,-193.359,0.000
1606128747.984,-21.484,-27.344,-24.902,-29.785,0.000
1606128747.988,60.059,6.836,-15.625,135.742,0.000
1606128747.992,46.387,8.301,-16.113,90.820,0.000
1606128747.996,-55.664,-26.367,-26.367,-120.117,0.000
1606128748.000,-107.910,-41.992,-32.715,-200.684,0.000
1606128748.004,-46.875,-37.109,-29.785,-56.152,0.000
1606128748.008,36.133,-20.508,-22.461,119.629,0.000
1606128748.012,28.809,-23.926,-22.461,101.074,0.000
1606128748.015,-63.965,-44.434,-32.715,-104.492,0.000
1606128748.019,-121.094,-48.828,-37.109,-206.543,0.000
1606128748.023,-68.359,-39.062,-30.762,-77.637,0.000
1606128748.027,26.855,-23.926,-14.160,114.258,0.000
1606128748.031,33.203,-27.832,-19.043,109.863,0.000
1606128748.035,-56.152,-41.016,-35.156,-83.984,0.000
1606128748.039,-116.211,-39.062,-28.809,-196.289,0.000
1606128748.043,-78.613,-39.062,-20.996,-100.098,0.000
1606128748.047,15.137,-29.785,-11.719,95.703,0.000
1606128748.051,38.574,-24.902,-6.348,131.836,0.000
1606128748.054,-42.480,-37.598,-18.555,-46.387,0.000
1606128748.058,-103.027,-49.316,-29.785,-178.711,0.000
1606128748.062,-74.219,-46.875,-32.227,-108.887,0.000
1606128748.066,20.508,-26.367,-25.879,92.285,0.000
1606128748.070,60.059,-17.578,-20.020,154.297,0.000
1606128748.074,-11.719,-29.785,-23.926,-19.043,0.000
1606128748.078,-90.332,-37.109,-25.391,-178.223,0.000
1606128748.082,-78.613,-39.551,-28.809,-133.301,0.000
1606128748.086,14.648,-19.043,-26.855,66.406,0.000
1606128748.090,60.059,-2.441,-23.438,143.555,0.000
1606128748.094,-6.348,-23.438,-29.785,-4.395,0.000
1606128748.097,-93.750,-39.551,-26.855,-179.688,0.000
1606128748.101,-93.750,-38.574,-29.297,-164.062,0.000
1606128748.105,-5.371,-27.832,-31.250,35.156,0.000
1606128748.109,51.270,-25.391,-28.809,136.719,0.000
1606128748.113,0.977,-31.250,-30.273,12.695,0.000
1606128748.117,-93.750,-35.156,-33.203,-172.363,0.000
1606128748.121,-109.375,-45.410,-35.156,-183.105,0.000
1606128748.125,-29.785,-17.090,-33.691,4.883,0.000
1606128748.129,36.621,8.789,-23.926,131.836,0.000
1606128748.133,-3.906,-25.879,-20.020,36.621,0.000
1606128748.137,-101.562,-40.527,-28.320,-159.180,0.000
1606128748.140,-117.188,-43.945,-25.391,-189.941,0.000
1606128748.144,-37.598,-44.434,-20.020,-12.207,0.000
1606128748.148,31.250,-24.414,-20.020,133.789,0.000
1606128748.152,3.418,-23.926,-20.508,66.895,0.000
1606128748.156,-93.262,-41.992,-26.855,-134.766,0.000
1606128748.160,-127.441,-48.828,-33.203,-197.266,0.000
1606128748.164,-57.129,-38.574,-27.832,-42.480,0.000
1606128748.168,31.738,15.137,-16.113,125.977,0.000
1606128748.172,20.508,9.277,-24.414,77.148,0.000
1606128748.176,-76.660,-49.316,-44.434,-138.184,0.000
1606128748.179,-123.047,-57.129,-37.109,-214.844,0.000
1606128748.183,-56.152,-47.852,-31.250,-65.918,0.000
1606128748.187,31.738,-36.133,-33.203,106.445,0.000
1606128748.191,26.367,-39.062,-30.762,82.520,0.000
1606128748.195,-60.059,-49.805,-37.109,-110.352,0.000
1606128748.199,-113.770,-53.711,-37.598,-206.055,0.000
1606128748.203,-63.965,-44.922,-32.715,-87.402,0.000
1606128748.207,25.879,-27.832,-20.508,102.539,0.000
1606128748.211,37.109,-26.855,-17.090,113.281,0.000
1606128748.215,-45.898,-36.621,-29.297,-75.684,0.000
1606128748.219,-115.234,-45.410,-34.180,-207.031,0.000
1606128748.222,-86.914,-49.316,-30.273,-110.352,0.000
1606128748.226,10.254,-14.160,-19.043,100.098,0.000
1606128748.230,37.598,-13.672,-13.184,131.836,0.000
1606128748.234,-49.316,-50.781,-30.273,-54.688,0.000
1606128748.238,-124.512,-58.594,-45.898,-199.707,0.000
1606128748.242,-93.262,-47.363,-41.016,-126.953,0.000
1606128748.246,3.418,-31.738,-26.855,73.242,0.000
1606128748.250,36.621,-29.297,-20.508,126.465,0.000
1606128748.254,-35.645,-35.645,-26.367,-29.785,0.000
1606128748.258,-115.723,-34.668,-34.180,-191.406,0.000
1606128748.262,-108.398,-36.133,-36.133,-160.645,0.000
1606128748.265,-8.789,-19.531,-16.602,45.898,0.000
1606128748.269,48.340,9.766,-2.930,138.184,0.000
1606128748.273,-18.555,-17.090,-29.297,-12.207,0.000
1606128748.277,-103.027,-41.504,-40.039,-187.012,0.000
1606128748.281,-98.145,-40.039,-31.738,-165.527,0.000
1606128748.285,-7.812,-25.391,-26.367,31.250,0.000
1606128748.289,47.363,-19.043,-22.461,137.207,0.000
1606128748.293,-2.930,-28.809,-24.414,20.020,0.000
1606128748.297,-84.473,-38.086,-29.785,-163.086,0.000
1606128748.301,-98.145,-43.457,-32.715,-177.246,0.000
1606128748.304,-17.090,-19.531,-21.484,10.742,0.000
1606128748.308,60.547,-3.906,-3.418,147.949,0.000
1606128748.312,20.020,-24.414,-12.695,46.875,0.000
1606128748.316,-83.984,-38.086,-31.250,-156.250,0.000
1606128748.320,-103.516,-39.062,-32.227,-182.129,0.000
1606128748.324,-32.715,-28.320,-26.367,-10.254,0.000
1606128748.328,31.738,-17.578,-20.020,129.883,0.000
1606128748.332,11.230,-28.809,-18.555,68.359,0.000
1606128748.336,-83.008,-36.133,-27.344,-133.789,0.000
1606128748.340,-117.188,-34.668,-27.344,-195.801,0.000
1606128748.344,-51.270,-30.762,-26.367,-40.039,0.000
1606128748.347,22.949,-22.461,-18.555,119.141,0.000
1606128748.351,6.348,-24.414,-14.648,79.102,0.000
1606128748.355,-87.891,-38.574,-34.668,-129.395,0.000
1606128748.359,-128.906,-46.387,-45.898,-215.820,0.000
1606128748.363,-71.777,-46.875,-39.551,-79.102,0.000
1606128748.367,17.578,-19.043,-23.438,102.051,0.000
1606128748.371,30.273,-12.695,-17.090,99.121,0.000
1606128748.375,-54.688,-42.480,-30.762,-102.051,0.000
1606128748.379,-101.562,-43.945,-32.227,-213.867,0.000
1606128748.383,-49.316,-39.062,-21.484,-99.121,0.000
1606128748.387,37.109,-30.273,-8.789,94.238,0.000
1606128748.390,52.246,-30.273,-19.043,104.980,0.000
1606128748.394,-30.762,-39.062,-41.992,-87.402,0.000
1606128748.398,-101.562,-44.434,-48.828,-211.426,0.000
1606128748.402,-66.406,-49.316,-39.062,-117.188,0.000
1606128748.406,30.273,-27.832,-26.367,86.426,0.000
1606128748.410,57.129,-14.160,-20.508,129.883,0.000
1606128748.414,-22.461,-29.297,-21.484,-37.598,0.000
1606128748.418,-104.004,-40.039,-25.879,-188.965,0.000
1606128748.422,-86.914,-46.875,-24.902,-135.254,0.000
1606128748.426,9.277,-33.691,-18.555,70.312,0.000
1606128748.429,45.898,-17.090,-10.254,139.648,0.000
1606128748.433,-23.926,-29.785,-23.926,-12.207,0.000
1606128748.437,-99.609,-39.551,-35.645,-170.898,0.000
1606128748.441,-89.355,-42.480,-26.855,-143.066,0.000
1606128748.445,0.000,-16.113,-19.531,59.570,0.000
1606128748.449,48.828,21.973,-13.672,154.297,0.000
1606128748.453,-10.254,-16.113,-19.043,9.277,0.000
1606128748.457,-94.727,-46.387,-30.762,-176.270,0.000
1606128748.461,-94.727,-35.645,-26.855,-160.156,0.000
1606128748.465,-8.301,-19.043,-18.555,41.504,0.000
1606128748.469,41.016,-21.973,-23.926,142.090,0.000
1606128748.472,-2.441,-33.203,-33.691,25.391,0.000
1606128748.476,-84.961,-37.598,-38.086,-163.574,0.000
1606128748.480,-100.586,-38.086,-35.156,-180.664,0.000
1606128748.484,-16.113,-28.809,-24.414,3.906,0.000
1606128748.488,51.758,-19.043,-21.973,137.695,0.000
1606128748.492,17.090,-20.996,-24.414,54.199,0.000
1606128748.496,-67.871,-29.297,-24.414,-143.066,0.000
1606128748.500,-91.309,-32.227,-33.691,-183.594,0.000
1606128748.504,-24.414,-24.902,-31.738,-17.578,0.000
1606128748.508,50.293,-7.812,-17.090,130.859,0.000
1606128748.512,30.273,-13.184,-20.508,72.754,0.000
1606128748.515,-64.941,-30.273,-34.668,-130.859,0.000
1606128748.519,-106.445,-34.668,-39.551,-202.148,0.000
1606128748.523,-43.945,-25.391,-39.551,-47.852,0.000
1606128748.527,41.504,-8.301,-32.227,122.070,0.000
1606128748.531,36.621,-17.090,-23.926,87.891,0.000
1606128748.535,-55.664,-35.645,-28.809,-113.770,0.000
1606128748.539,-110.352,-42.480,-30.762,-200.684,0.000
1606128748.543,-58.594,-39.062,-28.809,-68.359,0.000
1606128748.547,31.738,-18.066,-28.320,110.840,0.000
1606128748.551,31.250,-20.996,-24.414,108.887,0.000
1606128748.554,-58.105,-39.062,-29.297,-90.820,0.000
1606128748.558,-117.188,-47.852,-34.180,-209.961,0.000
1606128748.562,-80.078,-45.410,-35.156,-99.609,0.000
1606128748.566,18.066,-21.484,-25.391,99.121,0.000
1606128748.570,38.574,-24.902,-16.602,120.605,0.000
1606128748.574,-44.922,-41.016,-25.391,-62.500,0.000
1606128748.578,-111.328,-41.016,-35.156,-195.312,0.000
1606128748.582,-76.660,-40.527,-29.785,-107.422,0.000
1606128748.586,20.508,-17.578,-23.926,94.727,0.000
1606128748.590,40.039,-17.090,-28.809,128.418,0.000
1606128748.594,-37.598,-41.992,-33.691,-43.457,0.000
1606128748.597,-100.098,-46.875,-31.250,-188.477,0.000
1606128748.601,-81.055,-45.410,-30.762,-141.602,0.000
1606128748.605,9.277,-12.207,-27.832,57.129,0.000
1606128748.609,49.316,9.277,-22.461,131.348,0.000
1606128748.613,-12.695,-34.668,-32.715,-24.902,0.000
1606128748.617,-91.309,-52.734,-46.387,-190.918,0.000
1606128748.621,-84.473,-48.340,-42.480,-160.156,0.000
1606128748.625,4.883,-31.738,-23.438,44.434,0.000
1606128748.629,47.852,-24.902,-20.020,138.184,0.000
1606128748.633,-10.742,-41.016,-27.832,4.395,0.000
1606128748.637,-103.027,-52.246,-32.227,-179.688,0.000
1606128748.640,-109.863,-51.758,-41.992,-177.246,0.000
1606128748.644,-17.090,-33.691,-33.691,26.367,0.000
1606128748.648,51.270,-9.277,-20.020,156.738,0.000
1606128748.652,7.324,-19.043,-24.902,41.992,0.000
1606128748.656,-92.773,-43.457,-40.039,-162.598,0.000
1606128748.660,-111.816,-50.293,-41.016,-184.570,0.000
1606128748.664,-27.832,-38.574,-29.297,-2.930,0.000
1606128748.668,40.527,-30.762,-25.391,128.906,0.000
1606128748.672,9.766,-39.062,-31.738,44.434,0.000
1606128748.676,-87.402,-39.551,-35.156,-154.785,0.000
1606128748.679,-119.141,-36.621,-34.180,-207.031,0.000
1606128748.683,-47.852,-38.574,-26.367,-41.016,0.000
1606128748.687,37.598,-15.137,-17.578,126.953,0.000
1606128748.691,27.832,-11.230,-17.578,84.473,0.000
1606128748.695,-63.965,-28.809,-31.250,-117.188,0.000
1606128748.699,-104.004,-41.992,-42.480,-192.383,0.000
1606128748.703,-46.875,-44.434,-36.133,-48.340,0.000
1606128748.707,34.180,-30.273,-23.926,117.188,0.000
1606128748.711,31.250,-28.809,-26.855,92.285,0.000
1606128748.715,-58.105,-34.668,-40.039,-109.863,0.000
1606128748.719,-111.328,-40.527,-41.992,-209.961,0.000
1606128748.722,-61.035,-44.922,-31.738,-80.078,0.000
1606128748.726,26.855,-4.395,-22.949,108.398,0.000
1606128748.730,34.668,16.602,-24.902,110.840,0.000
1606128748.734,-53.223,-29.297,-30.762,-83.496,0.000
1606128748.738,-115.234,-48.340,-33.203,-201.172,0.000
1606128748.742,-79.590,-49.805,-30.762,-105.957,0.000
1606128748.746,3.906,-41.504,-28.320,82.520,0.000
1606128748.750,30.762,-33.691,-26.367,114.258,0.000
1606128748.754,-40.527,-41.992,-27.344,-57.129,0.000
1606128748.758,-110.352,-46.387,-29.297,-190.918,0.000
1606128748.762,-83.496,-43.457,-26.855,-116.699,0.000
1606128748.765,13.184,-29.785,-13.184,82.031,0.000
1606128748.769,50.293,-24.902,-5.859,142.090,0.000
1606128748.773,-25.391,-35.156,-23.438,-18.066,0.000
1606128748.777,-105.469,-40.039,-32.227,-178.223,0.000
1606128748.781,-86.426,-43.945,-30.273,-131.348,0.000
1606128748.785,10.254,-14.648,-24.902,67.383,0.000
1606128748.789,52.246,16.602,-21.973,140.137,0.000
1606128748.793,-14.648,-22.949,-25.879,-5.371,0.000
1606128748.797,-96.680,-45.410,-27.344,-178.223,0.000
1606128748.801,-94.727,-42.969,-22.949,-160.645,0.000
1606128748.804,-12.207,-37.109,-18.555,36.133,0.000
1606128748.808,38.086,-31.250,-21.973,130.371,0.000
1606128748.812,-11.719,-39.551,-32.227,3.418,0.000
1606128748.816,-102.051,-47.852,-36.621,-179.688,0.000
1606128748.820,-110.840,-42.969,-33.203,-179.688,0.000
1606128748.824,-25.391,-32.715,-28.809,9.766,0.000
1606128748.828,39.551,-19.043,-19.043,138.672,0.000
1606128748.832,0.488,-20.508,-25.879,42.969,0.000
1606128748.836,-91.309,-36.621,-30.762,-152.344,0.000
1606128748.840,-107.422,-38.086,-20.508,-178.223,0.000
1606128748.844,-25.879,-28.320,-22.949,-0.488,0.000
1606128748.847,50.781,-17.578,-19.531,146.484,0.000
1606128748.851,24.414,-19.531,-18.066,75.195,0.000
1606128748.855,-68.359,-29.297,-35.156,-130.371,0.000
1606128748.859,-99.609,-29.785,-32.715,-186.035,0.000
1606128748.863,-28.809,-20.996,-20.020,-22.461,0.000
1606128748.867,54.688,0.977,-17.090,139.160,0.000
1606128748.871,38.086,-2.930,-16.602,92.773,0.000
1606128748.875,-63.965,-25.879,-20.020,-115.234,0.000
1606128748.879,-121.582,-37.598,-31.738,-202.148,0.000
1606128748.883,-69.824,-33.691,-35.645,-59.570,0.000
1606128748.887,19.531,-25.391,-29.297,118.164,0.000
1606128748.890,17.578,-32.227,-30.273,91.797,0.000
1606128748.894,-71.777,-36.133,-30.762,-109.863,0.000
1606128748.898,-121.094,-42.480,-31.250,-211.426,0.000
1606128748.902,-71.777,-46.387,-31.738,-94.238,0.000
1606128748.906,16.113,-32.715,-17.578,96.680,0.000
1606128748.910,30.273,-26.367,-15.625,112.305,0.000
1606128748.914,-47.363,-31.250,-14.160,-73.730,0.000
1606128748.918,-112.793,-38.574,-25.879,-204.102,0.000
1606128748.922,-79.590,-46.387,-38.086,-114.746,0.000
1606128748.926,17.090,-21.973,-29.297,84.473,0.000
1606128748.929,47.852,10.254,-24.414,127.930,0.000
1606128748.933,-28.809,-16.602,-27.344,-43.457,0.000
1606128748.937,-102.539,-41.016,-29.297,-188.965,0.000
1606128748.941,-77.637,-36.133,-22.461,-121.582,0.000
1606128748.945,11.719,-27.832,-18.066,78.613,0.000
1606128748.949,45.410,-23.926,-14.648,128.906,0.000
1606128748.953,-19.531,-34.668,-26.855,-32.227,0.000
1606128748.957,-99.609,-39.062,-41.504,-188.965,0.000
1606128748.961,-89.355,-39.551,-39.062,-146.484,0.000
1606128748.965,-0.488,-28.320,-30.762,56.641,0.000
1606128748.969,45.898,-4.883,-22.461,143.066,0.000
1606128748.972,-13.672,-26.367,-28.320,3.906,0.000
1606128748.976,-101.074,-42.969,-34.180,-174.316,0.000
1606128748.980,-95.215,-38.574,-24.902,-155.273,0.000
1606128748.984,-0.488,-28.320,-19.531,48.340,0.000
1606128748.988,57.617,-18.555,-22.461,150.879,0.000
1606128748.992,6.348,-27.832,-16.602,32.227,0.000
1606128748.996,-91.797,-44.434,-22.949,-158.691,0.000
1606128749.000,-101.074,-42.480,-38.086,-176.270,0.000
1606128749.004,-19.043,-23.438,-30.762,2.930,0.000
1606128749.008,44.434,21.973,-22.461,131.836,0.000
1606128749.012,8.301,5.859,-24.414,41.016,0.000
1606128749.015,-85.449,-42.480,-27.832,-158.203,0.000
1606128749.019,-103.516,-41.016,-25.879,-187.988,0.000
1606128749.023,-28.809,-34.180,-20.020,-11.719,0.000
1606128749.027,44.434,-22.461,-17.578,138.184,0.000
1606128749.031,23.926,-25.879,-19.531,78.125,0.000
1606128749.035,-74.707,-43.945,-30.273,-131.836,0.000
1606128749.039,-109.375,-49.805,-36.133,-197.754,0.000
1606128749.043,-33.203,-43.945,-31.738,-32.227,0.000
1606128749.047,43.945,-34.180,-18.555,130.371,0.000
1606128749.051,28.320,-28.809,-19.043,90.332,0.000
1606128749.054,-66.895,-37.598,-28.320,-111.816,0.000
1606128749.058,-120.117,-51.270,-28.320,-205.566,0.000
1606128749.062,-59.570,-51.270,-26.367,-67.383,0.000
1606128749.066,28.809,-23.926,-21.973,117.676,0.000
1606128749.070,29.785,-17.578,-22.461,107.422,0.000
1606128749.074,-54.199,-41.504,-30.273,-92.773,0.000
1606128749.078,-107.422,-45.898,-34.180,-203.613,0.000
1606128749.082,-67.871,-41.992,-32.227,-93.262,0.000
1606128749.086,16.113,-30.273,-29.785,93.750,0.000
1606128749.090,27.344,-26.855,-27.344,105.957,0.000
1606128749.094,-55.176,-32.715,-30.273,-77.148,0.000
1606128749.097,-117.188,-30.762,-31.738,-199.219,0.000
1606128749.101,-81.543,-30.762,-26.855,-109.375,0.000
1606128749.105,10.254,-12.207,-20.020,86.426,0.000
1606128749.109,43.945,19.043,-17.090,129.883,0.000
1606128749.113,-28.809,-13.184,-21.973,-41.016,0.000
1606128749.117,-108.887,-43.945,-30.273,-194.336,0.000
1606128749.121,-89.355,-41.504,-31.250,-137.695,0.000
1606128749.125,8.301,-30.762,-22.461,63.477,0.000
1606128749.129,44.434,-20.020,-19.043,127.930,0.000
1606128749.133,-25.879,-26.855,-31.738,-29.297,0.000
1606128749.137,-103.516,-36.621,-35.645,-194.824,0.000
1606128749.140,-102.539,-43.457,-34.180,-166.016,0.000
1606128749.144,-11.719,-28.809,-28.809,46.387,0.000
1606128749.148,50.781,-9.277,-26.855,145.508,0.000
1606128749.152,-2.930,-29.297,-38.086,1.953,0.000
1606128749.156,-93.750,-44.434,-39.062,-181.641,0.000
1606128749.160,-98.145,-42.969,-32.715,-175.293,0.000
1606128749.164,-5.371,-28.320,-27.344,22.949,0.000
1606128749.168,56.641,-15.625,-25.879,137.695,0.000
1606128749.172,7.324,-26.367,-32.227,23.438,0.000
1606128749.176,-83.984,-38.086,-33.203,-166.016,0.000
1606128749.179,-92.773,-37.598,-33.691,-178.223,0.000
1606128749.183,-12.207,-30.273,-25.391,5.371,0.000
1606128749.187,51.758,-22.949,-15.625,136.719,0.000
1606128749.191,21.484,-23.926,-25.391,52.246,0.000
1606128749.195,-67.871,-30.273,-31.250,-144.043,0.000
1606128749.199,-99.121,-39.551,-28.320,-187.500,0.000
1606128749.203,-30.273,-39.551,-27.344,-22.461,0.000
1606128749.207,48.340,-6.348,-24.414,133.301,0.000
1606128749.211,27.832,8.789,-23.438,82.031,0.000
1606128749.215,-64.453,-31.250,-24.902,-119.629,0.000
1606128749.219,-98.145,-39.551,-26.855,-187.500,0.000
1606128749.222,-40.039,-29.297,-29.785,-38.086,0.000
1606128749.226,31.738,-29.297,-23.926,126.465,0.000
1606128749.230,20.508,-29.297,-22.461,98.145,0.000
1606128749.234,-68.848,-34.180,-29.785,-102.051,0.000
1606128749.238,-113.281,-35.645,-34.668,-195.312,0.000
1606128749.242,-56.152,-35.645,-27.344,-63.965,0.000
1606128749.246,31.250,-17.578,-24.902,117.188,0.000
1606128749.250,28.809,-13.672,-29.785,110.840,0.000
1606128749.254,-61.523,-36.133,-30.762,-90.820,0.000
1606128749.258,-116.699,-41.504,-32.227,-209.473,0.000
1606128749.262,-78.613,-37.598,-28.809,-106.934,0.000
1606128749.265,9.277,-25.391,-20.996,82.031,0.000
1606128749.269,34.180,-19.531,-13.672,109.375,0.000
1606128749.273,-41.016,-32.227,-24.414,-72.266,0.000
1606128749.277,-109.375,-36.133,-33.691,-206.055,0.000
1606128749.281,-75.195,-38.574,-33.203,-124.023,0.000
1606128749.285,18.066,-21.973,-26.855,70.801,0.000
1606128749.289,44.434,-3.906,-18.555,121.582,0.000
1606128749.293,-22.461,-29.785,-25.879,-35.156,0.000
1606128749.297,-96.191,-44.434,-32.715,-187.012,0.000
1606128749.301,-85.938,-44.434,-29.297,-141.602,0.000
1606128749.304,2.930,-21.973,-20.996,62.500,0.000
1606128749.308,45.410,7.812,-25.879,136.230,0.000
1606128749.312,-15.137,-14.648,-34.668,-12.207,0.000
1606128749.316,-107.422,-41.992,-40.039,-183.594,0.000
1606128749.320,-112.793,-44.434,-43.945,-161.621,0.000
1606128749.324,-17.578,-29.785,-27.832,44.434,0.000
1606128749.328,41.016,-23.926,-16.602,145.508,0.000
1606128749.332,-9.766,-31.738,-20.020,19.531,0.000
1606128749.336,-97.656,-36.133,-27.832,-167.969,0.000
1606128749.340,-106.934,-41.504,-32.715,-169.434,0.000
1606128749.344,-20.020,-31.250,-26.367,25.879,0.000
1606128749.347,43.457,-10.742,-29.297,139.160,0.000
1606128749.351,-5.859,-20.996,-36.621,27.832,0.000
1606128749.355,-99.609,-42.480,-45.410,-162.598,0.000
1606128749.359,-110.352,-48.340,-50.293,-180.176,0.000
1606128749.363,-27.344,-37.598,-39.062,1.465,0.000
1606128749.367,47.363,-20.508,-22.949,144.043,0.000
1606128749.371,19.043,-25.879,-16.602,67.383,0.000
1606128749.375,-76.660,-38.086,-34.180,-137.695,0.000
1606128749.379,-108.398,-36.621,-45.410,-189.453,0.000
1606128749.383,-32.715,-27.344,-29.785,-22.461,0.000
1606128749.387,42.969,-7.812,-24.902,130.371,0.000
1606128749.390,15.137,-14.648,-28.809,70.801,0.000
1606128749.394,-82.031,-45.898,-36.133,-136.230,0.000
1606128749.398,-119.629,-45.410,-37.109,-201.660,0.000
1606128749.402,-53.223,-38.574,-28.809,-50.293,0.000
1606128749.406,32.227,-34.668,-22.461,118.652,0.000
1606128749.410,27.344,-30.273,-20.020,94.727,0.000
1606128749.414,-65.430,-38.574,-29.297,-104.980,0.000
1606128749.418,-119.141,-47.363,-37.598,-202.148,0.000
1606128749.422,-64.453,-39.551,-33.691,-69.824,0.000
1606128749.426,30.273,-20.996,-25.391,119.141,0.000
1606128749.429,37.109,-18.066,-20.508,118.164,0.000
1606128749.433,-54.688,-37.598,-31.738,-83.984,0.000
1606128749.437,-118.652,-44.922,-38.574,-210.938,0.000
1606128749.441,-85.938,-46.387,-31.250,-107.422,0.000
1606128749.445,10.254,-22.461,-24.414,88.867,0.000
1606128749.449,40.527,-5.371,-14.160,119.141,0.000
1606128749.453,-40.039,-29.297,-25.879,-61.035,0.000
1606128749.457,-113.770,-37.598,-38.086,-206.543,0.000
1606128749.461,-81.055,-24.902,-30.273,-125.488,0.000
1606128749.465,14.160,-20.020,-24.414,79.590,0.000
1606128749.469,40.039,-26.367,-17.090,127.930,0.000
1606128749.472,-28.320,-33.691,-18.555,-34.668,0.000
1606128749.476,-103.516,-40.527,-25.391,-186.035,0.000
1606128749.480,-96.191,-44.434,-22.461,-140.625,0.000
1606128749.484,-6.348,-34.668,-20.996,58.105,0.000
1606128749.488,40.527,0.977,-21.973,130.859,0.000
1606128749.492,-24.902,-7.812,-25.391,-14.160,0.000
1606128749.496,-107.422,-41.992,-20.020,-180.176,0.000
1606128749.500,-105.957,-39.551,-16.113,-163.086,0.000
1606128749.504,-17.090,-34.180,-19.043,32.227,0.000
1606128749.508,37.598,-26.855,-19.043,134.277,0.000
1606128749.512,-11.719,-25.879,-27.832,6.348,0.000
1606128749.515,-97.168,-39.062,-35.156,-180.664,0.000
1606128749.519,-101.562,-42.969,-26.855,-180.664,0.000
1606128749.523,-12.207,-26.855,-13.184,12.695,0.000
1606128749.527,49.805,4.883,-13.672,132.812,0.000
1606128749.531,10.254,-6.836,-18.066,37.109,0.000
1606128749.535,-78.613,-39.062,-18.066,-148.438,0.000
1606128749.539,-99.121,-34.180,-23.438,-178.223,0.000
1606128749.543,-20.508,-25.391,-28.809,-5.859,0.000
1606128749.547,52.734,-19.531,-19.531,136.230,0.000
1606128749.551,24.902,-27.344,-23.438,61.035,0.000
1606128749.554,-61.035,-36.133,-25.879,-133.789,0.000
1606128749.558,-85.938,-31.250,-25.879,-183.594,0.000
1606128749.562,-29.297,-30.273,-30.762,-33.203,0.000
1606128749.566,44.922,-20.508,-16.602,122.559,0.000
1606128749.570,32.227,-13.672,-16.602,80.078,0.000
1606128749.574,-70.801,-32.715,-34.180,-121.094,0.000
1606128749.578,-124.023,-47.852,-39.551,-204.102,0.000
1606128749.582,-69.336,-38.574,-28.809,-66.406,0.000
1606128749.586,19.043,-13.672,-19.531,112.793,0.000
1606128749.590,21.484,-6.348,-17.090,96.191,0.000
1606128749.594,-67.383,-25.391,-22.461,-102.051,0.000
1606128749.597,-119.629,-37.109,-29.297,-208.496,0.000
1606128749.601,-62.988,-30.762,-14.648,-89.844,0.000
1606128749.605,31.250,-18.555,-4.883,100.586,0.000
1606128749.609,34.668,-19.531,-19.043,104.004,0.000
1606128749.613,-52.734,-25.879,-29.785,-82.520,0.000
1606128749.617,-109.375,-30.273,-34.668,-203.125,0.000
1606128749.621,-74.219,-28.320,-32.715,-118.652,0.000
1606128749.625,15.625,-13.672,-25.879,76.172,0.000
1606128749.629,41.992,-9.277,-23.438,118.164,0.000
1606128749.633,-41.016,-22.461,-24.414,-55.176,0.000
1606128749.637,-116.699,-34.180,-31.250,-200.195,0.000
1606128749.640,-93.750,-40.527,-43.457,-140.625,0.000
1606128749.644,-2.441,-35.645,-37.598,49.316,0.000
1606128749.648,35.645,-23.438,-24.902,110.352,0.000
1606128749.652,-29.297,-27.344,-30.762,-39.551,0.000
1606128749.656,-110.352,-39.551,-38.574,-196.777,0.000
1606128749.660,-102.539,-39.551,-30.762,-155.273,0.000
1606128749.664,-9.277,-30.273,-18.066,48.340,0.000
1606128749.668,42.480,-11.719,-18.066,136.719,0.000
1606128749.672,-14.648,-19.043,-22.461,5.859,0.000
1606128749.676,-107.422,-45.410,-31.250,-169.922,0.000
1606128749.679,-105.469,-40.527,-28.809,-157.715,0.000
1606128749.683,-15.137,-31.250,-21.484,34.668,0.000
1606128749.687,39.551,-28.320,-14.648,138.184,0.000
1606128749.691,-8.789,-34.180,-15.625,24.902,0.000
1606128749.695,-103.027,-50.293,-35.645,-157.227,0.000
1606128749.699,-111.816,-53.223,-32.227,-168.457,0.000
1606128749.703,-25.879,-40.527,-14.648,13.184,0.000
1606128749.707,44.434,-26.855,-4.883,139.648,0.000
1606128749.711,9.766,-22.949,-12.207,48.340,0.000
1606128749.715,-78.125,-34.668,-21.973,-143.555,0.000
1606128749.719,-93.262,-39.062,-22.461,-180.664,0.000
1606128749.722,-18.555,-29.785,-22.949,-12.695,0.000
1606128749.726,59.570,-16.602,-22.461,137.695,0.000
1606128749.730,40.527,-17.090,-21.484,75.684,0.000
1606128749.734,-58.105,-36.621,-27.344,-126.465,0.000
1606128749.738,-95.703,-46.387,-32.227,-188.477,0.000
1606128749.742,-31.250,-35.645,-26.855,-36.133,0.000
1606128749.746,47.363,-26.855,-16.113,122.070,0.000
1606128749.750,36.621,-34.668,-21.973,81.055,0.000
1606128749.754,-54.688,-45.410,-32.227,-119.629,0.000
1606128749.758,-101.562,-41.016,-31.738,-199.219,0.000
1606128749.762,-43.457,-31.250,-32.715,-60.059,0.000
1606128749.765,42.969,-27.344,-25.879,112.793,0.000
1606128749.769,42.480,-18.066,-21.973,102.051,0.000
1606128749.773,-50.293,-26.855,-33.691,-92.773,0.000
1606128749.777,-104.492,-41.016,-36.133,-197.754,0.000
1606128749.781,-58.594,-36.133,-25.391,-83.496,0.000
1606128749.785,32.715,-18.066,-10.742,102.051,0.000
1606128749.789,45.898,-10.742,-14.648,119.141,0.000
1606128749.793,-46.387,-28.320,-35.156,-65.430,0.000
1606128749.797,-116.699,-39.551,-38.574,-203.613,0.000
1606128749.801,-82.031,-35.156,-32.715,-122.070,0.000
1606128749.804,13.672,-20.996,-20.508,81.543,0.000
1606128749.808,35.645,-20.508,-21.484,121.094,0.000
1606128749.812,-45.898,-33.203,-35.156,-54.688,0.000
1606128749.816,-112.305,-41.992,-32.227,-196.777,0.000
1606128749.820,-83.496,-40.039,-34.668,-133.301,0.000
1606128749.824,9.277,-33.691,-21.973,65.430,0.000
1606128749.828,44.434,-23.438,-18.066,130.371,0.000
1606128749.832,-18.555,-24.902,-37.598,-22.461,0.000
1606128749.836,-92.773,-32.227,-38.086,-179.199,0.000
1606128749.840,-89.844,-35.645,-37.109,-147.461,0.000
1606128749.844,2.930,-23.438,-28.320,42.969,0.000
1606128749.847,58.105,-8.301,-19.043,130.859,0.000
1606128749.851,1.953,-19.531,-20.996,4.395,0.000
1606128749.855,-84.961,-37.598,-35.156,-164.551,0.000
1606128749.859,-91.797,-41.504,-39.062,-162.109,0.000
1606128749.863,-6.348,-35.156,-28.809,22.461,0.000
1606128749.867,53.711,-28.320,-20.020,136.719,0.000
1606128749.871,14.160,-26.855,-19.531,36.133,0.000
1606128749.875,-72.266,-39.551,-29.785,-140.137,0.000
1606128749.879,-89.844,-39.551,-30.762,-155.273,0.000
1606128749.883,-13.184,-25.391,-16.113,21.484,0.000
1606128749.887,52.734,-19.531,-10.742,150.391,0.000
1606128749.890,21.973,-22.949,-16.602,67.871,0.000
1606128749.894,-68.848,-28.809,-25.391,-127.441,0.000
1606128749.898,-97.656,-32.227,-23.438,-174.805,0.000
1606128749.902,-21.484,-28.809,-6.836,-7.812,0.000
1606128749.906,53.223,0.000,-7.812,142.578,0.000
1606128749.910,29.297,5.371,-16.113,84.473,0.000
1606128749.914,-69.336,-28.809,-25.879,-120.605,0.000
1606128749.918,-111.328,-39.062,-32.227,-187.012,0.000
1606128749.922,-44.434,-33.203,-22.461,-40.527,0.000
1606128749.926,43.945,-23.926,-20.020,118.164,0.000
1606128749.929,37.109,-21.484,-13.184,91.309,0.000
1606128749.933,-58.594,-25.391,-16.602,-101.074,0.000
1606128749.937,-113.281,-38.574,-39.551,-196.777,0.000
1606128749.941,-67.871,-46.387,-43.945,-77.637,0.000
1606128749.945,24.902,-12.207,-25.391,105.469,0.000
1606128749.949,41.992,17.578,-18.555,105.957,0.000
1606128749.953,-52.246,-24.902,-32.227,-91.309,0.000
1606128749.957,-115.234,-51.758,-35.645,-201.660,0.000
1606128749.961,-71.777,-43.457,-30.762,-96.680,0.000
1606128749.965,18.555,-31.250,-13.672,95.703,0.000
1606128749.969,33.203,-31.250,-13.672,117.676,0.000
1606128749.972,-47.363,-39.551,-33.691,-57.617,0.000
1606128749.976,-115.723,-42.480,-38.574,-186.035,0.000
1606128749.980,-87.402,-39.551,-33.691,-115.234,0.000
1606128749.984,8.301,-28.320,-19.531,84.473,0.000
1606128749.988,33.203,-26.855,-14.648,135.254,0.000
1606128749.992,-39.062,-34.180,-21.484,-27.832,0.000
1606128749.996,-110.840,-41.016,-29.785,-186.035,0.000
1606128750.000,-100.098,-46.387,-33.203,-146.484,0.000
1606128750.004,-4.883,-31.250,-23.438,62.012,0.000
1606128750.008,41.504,6.836,-19.531,141.113,0.000
1606128750.012,-19.531,-7.324,-22.461,-7.324,0.000
1606128750.015,-94.727,-39.062,-21.484,-172.363,0.000
1606128750.019,-81.055,-34.668,-18.066,-144.531,0.000
1606128750.023,12.695,-22.949,0.000,55.664,0.000
1606128750.027,52.734,-18.555,-6.348,140.137,0.000
1606128750.031,-5.371,-30.762,-31.738,1.953,0.000
1606128750.035,-83.984,-39.551,-30.762,-173.340,0.000
1606128750.039,-88.867,-31.738,-20.020,-166.016,0.000
1606128750.043,-10.742,-36.621,-19.043,14.648,0.000
1606128750.047,48.340,-0.488,-20.996,128.906,0.000
1606128750.051,25.391,24.902,-8.789,41.016,0.000
1606128750.054,-64.453,-26.367,-20.020,-156.250,0.000
1606128750.058,-90.332,-37.109,-32.715,-189.941,0.000
1606128750.062,-9.766,-23.926,-19.531,-10.254,0.000
1606128750.066,57.129,-18.066,-17.578,126.465,0.000
1606128750.070,24.902,-25.879,-24.902,52.734,0.000
1606128750.074,-69.824,-37.109,-27.344,-142.578,0.000
1606128750.078,-100.098,-32.715,-17.090,-188.477,0.000
1606128750.082,-34.180,-33.203,-18.555,-24.902,0.000
1606128750.086,41.992,-10.742,-16.602,132.324,0.000
1606128750.090,20.996,-6.348,-15.137,84.473,0.000
1606128750.094,-76.172,-37.598,-20.996,-121.094,0.000
1606128750.097,-110.840,-39.062,-18.555,-192.871,0.000
1606128750.101,-44.434,-26.367,-10.254,-41.504,0.000
1606128750.105,40.527,-15.625,4.883,124.023,0.000
1606128750.109,34.668,-16.113,-3.418,98.633,0.000
1606128750.113,-61.523,-32.227,-20.508,-98.145,0.000
1606128750.117,-108.887,-38.086,-14.648,-190.918,0.000
1606128750.121,-50.781,-32.715,-13.184,-66.895,0.000
1606128750.125,30.762,-28.809,-10.742,105.957,0.000
1606128750.129,35.156,-26.367,-6.836,106.445,0.000
1606128750.133,-46.875,-34.180,-7.812,-81.055,0.000
1606128750.137,-104.492,-43.457,-11.230,-202.148,0.000
1606128750.140,-66.895,-41.016,-2.930,-100.586,0.000
1606128750.144,18.555,-26.855,8.789,92.285,0.000
1606128750.148,43.457,9.277,4.395,118.652,0.000
1606128750.152,-35.645,-4.395,-3.418,-60.059,0.000
1606128750.156,-115.234,-42.480,-6.348,-203.613,0.000
1606128750.160,-87.402,-41.504,-4.395,-131.836,0.000
1606128750.164,7.324,-30.762,9.766,63.477,0.000
1606128750.168,39.551,-25.391,15.137,119.629,0.000
1606128750.172,-28.809,-38.086,-0.488,-40.527,0.000
1606128750.176,-107.910,-41.504,-7.324,-190.430,0.000
1606128750.179,-100.098,-37.598,-2.930,-143.555,0.000
1606128750.183,-7.324,-39.062,4.883,51.758,0.000
1606128750.187,49.805,-8.789,12.695,136.719,0.000
1606128750.191,-19.531,-17.090,-1.953,-13.184,0.000
1606128750.195,-113.281,-43.945,-16.113,-185.547,0.000
1606128750.199,-99.609,-36.621,4.395,-149.902,0.000
1606128750.203,-0.977,-26.367,15.625,51.758,0.000
1606128750.207,54.688,-19.531,-0.977,144.043,0.000
1606128750.211,7.324,-26.367,-3.906,22.949,0.000
1606128750.215,-79.102,-31.738,-4.395,-156.738,0.000
1606128750.219,-86.426,-30.762,-3.906,-164.062,0.000
1606128750.222,-4.883,-36.133,2.441,26.367,0.000
1606128750.226,61.035,0.488,5.859,151.367,0.000
1606128750.230,28.809,12.207,11.719,56.152,0.000
1606128750.234,-67.871,-34.668,-0.977,-139.160,0.000
1606128750.238,-90.332,-41.504,-15.137,-174.805,0.000
1606128750.242,-10.742,-28.809,-5.371,3.418,0.000
1606128750.246,59.570,-1.953,5.371,144.531,0.000
1606128750.250,36.133,-7.324,-3.906,73.242,0.000
1606128750.254,-51.758,-33.691,-15.625,-123.047,0.000
1606128750.258,-91.309,-34.668,-10.254,-183.105,0.000
1606128750.262,-26.367,-29.297,0.000,-29.297,0.000
1606128750.265,46.875,-23.438,-2.441,124.512,0.000
1606128750.269,25.391,-26.367,-13.672,77.637,0.000
1606128750.273,-69.824,-35.645,-13.672,-119.141,0.000
1606128750.277,-116.699,-34.180,-2.441,-197.266,0.000
1606128750.281,-52.734,-37.109,3.906,-50.781,0.000
1606128750.285,37.109,-8.301,4.395,126.465,0.000
1606128750.289,35.156,17.090,-5.859,109.375,0.000
1606128750.293,-55.176,-24.414,-6.348,-81.055,0.000
1606128750.297,-110.352,-41.016,-4.883,-181.152,0.000
1606128750.301,-70.312,-41.016,-15.137,-74.707,0.000
1606128750.304,13.184,-29.785,-8.301,108.887,0.000
1606128750.308,25.391,-20.020,-3.906,124.512,0.000
1606128750.312,-53.711,-30.273,-9.277,-62.012,0.000
1606128750.316,-109.375,-35.156,-5.859,-188.477,0.000
1606128750.320,-66.895,-29.297,-4.395,-95.703,0.000
1606128750.324,23.926,-24.902,-2.930,93.262,0.000
1606128750.328,55.664,7.812,7.812,134.766,0.000
1606128750.332,-17.090,4.395,-2.930,-35.645,0.000
1606128750.336,-94.727,-30.273,-20.020,-188.965,0.000
1606128750.340,-69.824,-32.715,-21.973,-125.488,0.000
1606128750.344,23.926,-22.949,-18.066,71.777,0.000
1606128750.347,55.664,-14.648,-15.625,133.301,0.000
1606128750.351,-10.742,-22.461,-20.508,-18.555,0.000
1606128750.355,-87.891,-31.738,-16.602,-175.293,0.000
1606128750.359,-72.266,-30.273,-10.254,-131.348,0.000
1606128750.363,20.508,-22.461,-15.137,69.824,0.000
1606128750.367,66.406,-12.695,-13.672,155.762,0.000
1606128750.371,0.977,-19.043,-17.090,17.578,0.000
1606128750.375,-94.727,-38.574,-28.320,-167.480,0.000
1606128750.379,-95.703,-36.621,-24.902,-159.668,0.000
1606128750.383,-0.977,-18.555,-12.695,37.598,0.000
1606128750.387,56.152,-7.812,-3.906,144.531,0.000
1606128750.390,3.418,-20.020,-8.789,26.855,0.000
1606128750.394,-90.820,-34.180,-23.926,-166.016,0.000
1606128750.398,-104.004,-32.715,-26.855,-178.223,0.000
1606128750.402,-17.578,-29.297,-14.160,12.695,0.000
1606128750.406,44.922,-19.531,-12.695,142.578,0.000
1606128750.410,9.766,-20.020,-19.531,59.570,0.000
1606128750.414,-79.590,-28.320,-27.832,-130.371,0.000
1606128750.418,-113.770,-35.645,-29.297,-173.340,0.000
1606128750.422,-41.504,-36.621,-17.090,-11.230,0.000
1606128750.426,39.062,-13.184,-14.648,136.719,0.000
1606128750.429,18.555,0.000,-9.766,81.055,0.000
1606128750.433,-74.707,-29.785,-15.625,-120.605,0.000
1606128750.437,-111.816,-45.898,-22.461,-185.059,0.000
1606128750.441,-48.828,-36.621,-25.879,-38.574,0.000
1606128750.445,40.039,-23.438,-18.555,125.488,0.000
1606128750.449,40.039,-21.973,-9.766,90.332,0.000
1606128750.453,-50.781,-34.180,-29.297,-118.164,0.000
1606128750.457,-101.074,-35.645,-41.016,-205.078,0.000
1606128750.461,-45.410,-26.855,-32.715,-71.777,0.000
1606128750.465,44.922,-14.160,-20.508,108.398,0.000
1606128750.469,47.363,-7.324,-16.602,99.121,0.000
1606128750.472,-51.758,-26.367,-25.879,-109.863,0.000
1606128750.476,-105.957,-39.551,-33.203,-218.262,0.000
1606128750.480,-58.105,-36.621,-42.480,-101.562,0.000
1606128750.484,32.715,-23.926,-41.016,85.938,0.000
1606128750.488,52.246,-18.555,-35.156,106.934,0.000
1606128750.492,-28.809,-33.691,-39.062,-75.195,0.000
1606128750.496,-93.750,-37.109,-32.227,-201.660,0.000
1606128750.500,-62.500,-28.320,-21.484,-112.793,0.000
1606128750.504,25.879,-22.949,-26.855,83.984,0.000
1606128750.508,47.852,1.953,-29.297,130.371,0.000
1606128750.512,-30.273,-6.836,-32.227,-38.574,0.000
1606128750.515,-108.398,-41.016,-40.039,-193.848,0.000
1606128750.519,-93.262,-37.109,-38.574,-134.277,0.000
1606128750.523,2.441,-27.344,-31.250,69.336,0.000
1606128750.527,50.293,-17.578,-25.879,140.625,0.000
1606128750.531,-14.648,-22.949,-27.832,-13.672,0.000
1606128750.535,-100.586,-35.156,-35.645,-186.035,0.000
1606128750.539,-100.098,-36.133,-45.410,-157.715,0.000
1606128750.543,-7.812,-28.320,-40.039,40.527,0.000
1606128750.547,41.992,-20.996,-30.762,130.371,0.000
1606128750.551,-10.742,-22.461,-36.133,2.930,0.000
1606128750.554,-94.727,-33.691,-42.969,-174.805,0.000
1606128750.558,-104.004,-36.621,-41.504,-174.316,0.000
1606128750.562,-19.531,-29.785,-30.762,14.160,0.000
1606128750.566,41.504,-7.324,-22.461,133.789,0.000
1606128750.570,2.930,-6.348,-23.438,36.621,0.000
1606128750.574,-85.449,-34.668,-24.902,-157.227,0.000
1606128750.578,-101.562,-40.527,-26.855,-185.059,0.000
1606128750.582,-19.531,-32.227,-26.367,1.953,0.000
1606128750.586,53.711,-21.484,-7.324,146.484,0.000
1606128750.590,21.973,-26.367,-7.812,60.059,0.000
1606128750.594,-79.102,-43.457,-29.785,-144.531,0.000
1606128750.597,-106.934,-44.434,-24.902,-182.617,0.000
1606128750.601,-31.250,-34.180,-20.508,-10.254,0.000
1606128750.605,49.805,-19.043,-20.020,145.508,0.000
1606128750.609,36.133,-8.301,-15.625,90.820,0.000
1606128750.613,-62.988,-27.344,-21.973,-117.188,0.000
1606128750.617,-111.328,-48.340,-31.250,-194.336,0.000
1606128750.621,-53.223,-41.992,-22.949,-48.828,0.000
1606128750.625,33.203,-22.949,-16.602,123.535,0.000
1606128750.629,28.320,-24.902,-22.949,97.168,0.000
1606128750.633,-69.336,-37.109,-20.508,-104.492,0.000
1606128750.637,-117.188,-34.668,-31.250,-202.637,0.000
1606128750.640,-53.711,-33.203,-40.039,-69.824,0.000
1606128750.644,38.086,-20.020,-25.879,125.000,0.000
1606128750.648,29.297,-5.859,-22.461,110.840,0.000
1606128750.652,-70.801,-32.227,-34.180,-93.750,0.000
1606128750.656,-131.836,-45.410,-36.621,-212.402,0.000
1606128750.660,-92.773,-37.109,-29.785,-114.746,0.000
1606128750.664,3.906,-29.297,-30.762,81.055,0.000
1606128750.668,25.391,-21.973,-29.297,108.887,0.000
1606128750.672,-57.129,-32.715,-31.250,-72.754,0.000
1606128750.676,-124.512,-44.922,-32.227,-209.473,0.000
1606128750.679,-87.891,-39.062,-21.973,-127.930,0.000
1606128750.683,13.184,-26.855,-19.043,76.172,0.000
1606128750.687,45.898,-27.344,-24.414,127.930,0.000
1606128750.691,-25.391,-39.062,-31.250,-32.227,0.000
1606128750.695,-94.238,-40.527,-37.598,-180.176,0.000
1606128750.699,-70.801,-37.598,-37.109,-126.953,0.000
1606128750.703,20.020,-37.109,-26.855,69.824,0.000
1606128750.707,68.848,-24.902,-16.602,148.926,0.000
1606128750.711,13.184,-19.043,-18.066,11.719,0.000
1606128750.715,-83.496,-41.992,-39.062,-166.992,0.000
1606128750.719,-85.449,-46.387,-38.086,-150.391,0.000
1606128750.722,4.395,-32.715,-21.484,42.969,0.000
1606128750.726,52.734,-26.855,-24.902,138.672,0.000
1606128750.730,-4.883,-34.668,-37.109,14.160,0.000
1606128750.734,-101.074,-46.875,-43.945,-172.363,0.000
1606128750.738,-113.281,-48.340,-43.945,-175.293,0.000
1606128750.742,-30.762,-43.945,-35.645,12.695,0.000
1606128750.746,34.180,-13.184,-20.508,134.277,0.000
1606128750.750,-7.324,-8.301,-27.344,31.738,0.000
1606128750.754,-101.074,-45.410,-40.527,-162.598,0.000
1606128750.758,-117.188,-47.852,-40.039,-185.059,0.000
1606128750.762,-34.668,-37.109,-31.250,-2.930,0.000
1606128750.765,40.527,-28.320,-20.020,143.555,0.000
1606128750.769,13.672,-29.785,-23.438,69.336,0.000
1606128750.773,-80.078,-41.504,-32.715,-132.812,0.000
1606128750.777,-116.699,-41.016,-38.086,-193.359,0.000
1606128750.781,-49.805,-34.668,-36.133,-39.062,0.000
1606128750.785,31.738,-12.207,-30.273,124.023,0.000
1606128750.789,20.996,1.465,-31.738,83.496,0.000
1606128750.793,-75.195,-28.320,-35.156,-127.441,0.000
1606128750.797,-119.629,-41.504,-41.016,-206.543,0.000
1606128750.801,-55.664,-35.645,-34.668,-55.664,0.000
1606128750.804,35.156,-12.207,-15.137,126.953,0.000
1606128750.808,39.062,0.000,-12.695,116.211,0.000
1606128750.812,-57.129,-31.250,-35.156,-90.332,0.000
1606128750.816,-110.352,-42.969,-40.039,-197.266,0.000
1606128750.820,-60.547,-39.062,-35.156,-80.566,0.000
1606128750.824,25.879,-27.344,-29.785,102.051,0.000
1606128750.828,35.156,-18.555,-30.762,108.398,0.000
1606128750.832,-53.223,-28.809,-38.574,-84.961,0.000
1606128750.836,-118.164,-36.133,-38.574,-210.938,0.000
1606128750.840,-77.148,-35.156,-29.785,-115.234,0.000
1606128750.844,17.090,-23.926,-23.438,81.543,0.000
1606128750.847,40.039,-20.020,-31.250,111.328,0.000
1606128750.851,-34.668,-35.156,-39.551,-65.430,0.000
1606128750.855,-114.258,-46.387,-42.480,-208.984,0.000
1606128750.859,-95.703,-39.551,-42.480,-138.184,0.000
1606128750.863,2.441,-31.250,-35.156,69.824,0.000
1606128750.867,34.668,-26.855,-26.855,123.535,0.000
1606128750.871,-34.668,-29.297,-34.668,-36.621,0.000
1606128750.875,-109.863,-44.434,-39.062,-189.453,0.000
1606128750.879,-100.098,-41.504,-35.645,-150.879,0.000
1606128750.883,-7.324,-24.902,-35.156,50.293,0.000
1606128750.887,45.898,-13.672,-36.133,132.324,0.000
1606128750.890,-8.301,-11.719,-25.391,-2.441,0.000
1606128750.894,-100.586,-31.250,-28.320,-186.523,0.000
1606128750.898,-100.586,-38.086,-40.039,-171.387,0.000
1606128750.902,-5.859,-28.809,-26.855,33.203,0.000
1606128750.906,44.922,-25.879,-19.531,133.789,0.000
1606128750.910,-8.789,-33.691,-33.691,14.648,0.000
1606128750.914,-92.773,-33.691,-39.551,-166.504,0.000
1606128750.918,-104.004,-29.297,-34.180,-169.434,0.000
1606128750.922,-22.461,-25.879,-24.414,21.973,0.000
1606128750.926,49.805,-16.113,-20.996,151.855,0.000
1606128750.929,16.602,-18.555,-16.113,66.406,0.000
1606128750.933,-81.543,-33.691,-28.809,-139.648,0.000
1606128750.937,-112.305,-40.527,-41.992,-186.523,0.000
1606128750.941,-36.621,-33.203,-26.367,-10.254,0.000
1606128750.945,39.062,-13.184,-20.996,134.277,0.000
1606128750.949,14.160,-14.160,-21.973,67.383,0.000
1606128750.953,-85.938,-40.527,-28.320,-142.578,0.000
1606128750.957,-120.605,-40.527,-31.738,-206.543,0.000
1606128750.961,-52.246,-32.715,-28.320,-51.758,0.000
1606128750.965,28.809,-27.832,-22.949,103.516,0.000
1606128750.969,16.602,-27.832,-17.090,65.918,0.000
1606128750.972,-71.777,-39.062,-23.926,-131.348,0.000
1606128750.976,-106.934,-32.715,-23.926,-206.543,0.000
1606128750.980,-48.828,-21.973,-23.926,-70.312,0.000
1606128750.984,31.250,-20.508,-23.438,101.562,0.000
1606128750.988,38.086,14.160,-15.625,100.098,0.000
1606128750.992,-47.363,2.930,-22.949,-94.727,0.000
1606128750.996,-113.770,-42.480,-26.855,-217.285,0.000
1606128751.000,-70.312,-45.410,-26.855,-104.004,0.000
1606128751.004,30.762,-33.203,-21.484,97.656,0.000
1606128751.008,51.270,-21.973,-10.254,115.234,0.000
1606128751.012,-37.109,-30.762,-21.973,-76.660,0.000
1606128751.015,-107.422,-37.109,-30.762,-204.102,0.000
1606128751.019,-73.242,-31.738,-25.391,-113.281,0.000
1606128751.023,24.414,-26.367,-19.043,86.426,0.000
1606128751.027,54.199,-2.930,-15.137,127.930,0.000
1606128751.031,-25.391,-11.230,-25.879,-47.363,0.000
1606128751.035,-104.004,-41.504,-38.086,-202.148,0.000
1606128751.039,-80.078,-34.180,-30.762,-137.695,0.000
1606128751.043,15.625,-22.461,-15.625,70.801,0.000
1606128751.047,49.316,-20.020,-13.672,128.906,0.000
1606128751.051,-20.020,-29.785,-25.391,-31.250,0.000
1606128751.054,-104.492,-40.527,-33.691,-196.777,0.000
1606128751.058,-100.586,-43.945,-32.227,-167.969,0.000
1606128751.062,-5.859,-35.645,-26.367,36.133,0.000
1606128751.066,43.945,-24.414,-15.625,134.766,0.000
1606128751.070,-11.719,-27.344,-28.320,0.000,0.000
1606128751.074,-99.121,-44.434,-39.551,-184.082,0.000
1606128751.078,-104.492,-48.340,-33.203,-179.688,0.000
1606128751.082,-17.090,-33.203,-24.902,14.648,0.000
1606128751.086,43.457,-17.578,-24.902,132.324,0.000
1606128751.090,-5.371,-23.438,-37.109,20.508,0.000
1606128751.094,-107.422,-45.898,-45.898,-174.805,0.000
1606128751.097,-122.070,-50.293,-38.574,-194.336,0.000
1606128751.101,-32.715,-37.598,-26.855,-6.836,0.000
1606128751.105,36.133,-32.227,-23.438,128.418,0.000
1606128751.109,7.812,-40.527,-27.832,39.551,0.000
1606128751.113,-77.148,-45.898,-31.250,-155.762,0.000
1606128751.117,-108.398,-44.922,-29.785,-194.336,0.000
1606128751.121,-38.086,-41.016,-34.180,-31.738,0.000
1606128751.125,44.922,-28.320,-27.832,117.676,0.000
1606128751.129,32.227,-11.230,-20.020,72.754,0.000
1606128751.133,-62.500,-23.926,-34.668,-124.023,0.000
1606128751.137,-101.074,-41.504,-31.738,-193.359,0.000
1606128751.140,-35.645,-32.715,-19.043,-43.945,0.000
1606128751.144,41.992,-24.414,-20.996,118.164,0.000
1606128751.148,38.574,-22.949,-21.973,86.426,0.000
1606128751.152,-52.246,-32.715,-31.738,-112.793,0.000
1606128751.156,-106.445,-35.156,-41.016,-206.055,0.000
1606128751.160,-51.758,-28.809,-39.551,-79.590,0.000
1606128751.164,40.039,-25.391,-27.344,106.445,0.000
1606128751.168,48.828,7.324,-17.090,110.352,0.000
1606128751.172,-38.574,0.488,-23.926,-78.125,0.000
1606128751.176,-103.516,-41.992,-29.785,-198.730,0.000
1606128751.179,-71.289,-40.039,-30.273,-98.633,0.000
1606128751.183,25.391,-24.414,-14.648,100.586,0.000
1606128751.187,44.922,-19.043,-7.324,125.977,0.000
1606128751.191,-44.922,-38.086,-18.555,-63.477,0.000
1606128751.195,-113.281,-48.340,-32.227,-205.566,0.000
1606128751.199,-80.078,-40.039,-37.598,-129.883,0.000
1606128751.203,8.789,-27.344,-23.926,72.266,0.000
1606128751.207,39.062,-22.949,-21.484,127.930,0.000
1606128751.211,-30.762,-30.762,-31.250,-35.645,0.000
1606128751.215,-113.770,-44.434,-41.504,-195.312,0.000
1606128751.219,-96.191,-48.340,-34.668,-141.602,0.000
1606128751.222,2.441,-35.156,-16.602,66.895,0.000
1606128751.226,47.363,-1.465,-19.531,139.160,0.000
1606128751.230,-19.043,-13.184,-31.250,-12.695,0.000
1606128751.234,-101.074,-46.387,-39.551,-182.617,0.000
1606128751.238,-89.355,-38.086,-34.180,-153.809,0.000
1606128751.242,0.977,-28.809,-19.531,53.711,0.000
1606128751.246,55.176,-28.809,-20.020,157.227,0.000
1606128751.250,7.812,-36.621,-28.320,30.273,0.000
1606128751.254,-84.961,-38.086,-34.668,-153.320,0.000
1606128751.258,-87.891,-32.227,-32.715,-148.926,0.000
1606128751.262,6.348,-34.180,-20.996,42.969,0.000
1606128751.265,61.035,-22.949,-25.391,150.879,0.000
1606128751.269,14.160,-5.859,-22.461,49.805,0.000
1606128751.273,-80.566,-27.832,-24.902,-145.996,0.000
1606128751.277,-99.609,-37.598,-30.273,-172.852,0.000
1606128751.281,-22.461,-32.227,-26.367,7.324,0.000
1606128751.285,54.199,-25.879,-15.137,146.973,0.000
1606128751.289,28.809,-26.367,-13.672,73.242,0.000
1606128751.293,-69.824,-40.039,-36.621,-133.789,0.000
1606128751.297,-101.562,-41.016,-38.574,-184.570,0.000
1606128751.301,-26.855,-29.785,-25.879,-12.207,0.000
1606128751.304,53.223,-19.043,-14.648,145.020,0.000
1606128751.308,34.668,-16.113,-18.555,91.797,0.000
1606128751.312,-58.594,-34.668,-28.320,-119.141,0.000
1606128751.316,-106.445,-41.992,-26.855,-198.730,0.000
1606128751.320,-48.828,-36.133,-31.250,-59.082,0.000
1606128751.324,40.039,-20.996,-19.531,115.234,0.000
1606128751.328,38.086,-17.578,-10.742,102.051,0.000
1606128751.332,-50.293,-29.785,-23.438,-97.656,0.000
1606128751.336,-109.375,-36.621,-33.203,-200.195,0.000
1606128751.340,-66.406,-32.715,-27.344,-80.566,0.000
1606128751.344,26.367,-19.043,-15.137,106.934,0.000
1606128751.347,37.598,-14.648,-5.859,113.770,0.000
1606128751.351,-48.828,-29.785,-21.484,-74.707,0.000
1606128751.355,-108.398,-40.039,-35.156,-195.312,0.000
1606128751.359,-61.035,-29.785,-19.043,-95.215,0.000
1606128751.363,37.598,-20.996,-6.348,108.398,0.000
1606128751.367,56.152,-2.441,-6.836,136.719,0.000
1606128751.371,-28.809,-2.930,-16.602,-46.875,0.000
1606128751.375,-101.562,-32.715,-19.531,-186.523,0.000
1606128751.379,-73.730,-29.297,-20.020,-114.746,0.000
1606128751.383,21.973,-15.137,-17.090,82.031,0.000
1606128751.387,57.129,-11.719,-8.301,139.160,0.000
1606128751.390,-17.090,-17.090,-10.742,-23.438,0.000
1606128751.394,-99.609,-30.762,-24.902,-187.500,0.000
1606128751.398,-88.867,-29.297,-24.414,-143.066,0.000
1606128751.402,8.301,-26.855,-7.812,62.988,0.000
1606128751.406,53.223,-3.418,-12.207,142.578,0.000
1606128751.410,-16.113,-0.488,-22.461,-5.859,0.000
1606128751.414,-102.539,-37.598,-31.250,-178.223,0.000
1606128751.418,-94.727,-39.062,-30.762,-157.715,0.000
1606128751.422,0.000,-28.320,-21.484,33.691,0.000
1606128751.426,58.105,-22.461,-17.578,135.254,0.000
1606128751.429,14.160,-20.020,-22.461,20.508,0.000
1606128751.433,-79.102,-30.762,-32.715,-163.574,0.000
1606128751.437,-97.168,-39.551,-35.156,-171.875,0.000
1606128751.441,-10.254,-33.691,-26.855,20.996,0.000
1606128751.445,54.199,-12.695,-10.742,155.762,0.000
1606128751.449,15.137,2.441,-15.137,62.988,0.000
1606128751.453,-83.496,-23.438,-33.203,-146.484,0.000
1606128751.457,-109.375,-36.133,-35.645,-185.547,0.000
1606128751.461,-25.879,-24.414,-26.367,-1.465,0.000
1606128751.465,51.270,-20.996,-13.184,145.020,0.000
1606128751.469,25.879,-28.809,-15.625,71.777,0.000
1606128751.472,-73.730,-37.109,-36.133,-131.348,0.000
1606128751.476,-111.816,-41.016,-43.457,-193.359,0.000
1606128751.480,-37.109,-32.227,-30.273,-32.227,0.000
1606128751.484,44.434,-22.461,-25.879,131.836,0.000
1606128751.488,33.203,-28.809,-21.484,95.215,0.000
1606128751.492,-59.570,-34.668,-26.367,-101.562,0.000
1606128751.496,-112.793,-37.598,-42.969,-191.406,0.000
1606128751.500,-57.129,-30.762,-34.668,-54.688,0.000
1606128751.504,33.691,-17.090,-13.672,127.441,0.000
1606128751.508,39.062,-4.883,-8.301,122.559,0.000
1606128751.512,-58.105,-21.973,-24.902,-82.031,0.000
1606128751.515,-123.535,-44.922,-32.227,-204.102,0.000
1606128751.519,-69.824,-39.062,-26.855,-87.402,0.000
1606128751.523,28.809,-25.391,-18.066,107.910,0.000
1606128751.527,41.504,-20.996,-11.719,121.094,0.000
1606128751.531,-39.551,-30.762,-22.949,-70.312,0.000
1606128751.535,-102.051,-41.504,-34.180,-199.219,0.000
1606128751.539,-69.824,-38.086,-30.273,-107.422,0.000
1606128751.543,20.508,-31.250,-25.879,84.473,0.000
1606128751.547,47.852,-16.113,-17.090,126.465,0.000
1606128751.551,-28.320,-15.625,-29.785,-45.898,0.000
1606128751.554,-106.934,-42.969,-48.340,-204.590,0.000
1606128751.558,-85.449,-48.340,-37.598,-140.625,0.000
1606128751.562,9.766,-38.086,-37.109,62.988,0.000
1606128751.566,53.223,-27.832,-29.785,133.789,0.000
1606128751.570,-11.719,-29.297,-24.902,-11.719,0.000
1606128751.574,-93.262,-42.480,-36.133,-172.363,0.000
1606128751.578,-82.520,-41.504,-38.086,-132.812,0.000
1606128751.582,2.930,-32.227,-18.555,68.848,0.000
1606128751.586,47.852,-20.020,-12.695,152.832,0.000
1606128751.590,-7.812,-22.949,-27.832,10.742,0.000
1606128751.594,-94.727,-41.992,-36.133,-167.969,0.000
1606128751.597,-99.121,-42.480,-37.109,-160.156,0.000
1606128751.601,-13.184,-30.762,-30.762,35.156,0.000
1606128751.605,50.781,-20.508,-22.949,149.414,0.000
1606128751.609,4.883,-26.855,-25.879,29.785,0.000
1606128751.613,-91.309,-41.504,-26.855,-164.551,0.000
1606128751.617,-103.027,-43.945,-28.320,-179.199,0.000
1606128751.621,-15.137,-32.715,-26.855,6.348,0.000
1606128751.625,54.688,-21.484,-17.090,139.160,0.000
1606128751.629,22.461,-17.090,-24.902,55.176,0.000
1606128751.633,-70.801,-21.973,-31.250,-141.602,0.000
1606128751.637,-97.656,-27.832,-31.738,-187.500,0.000
1606128751.640,-25.879,-29.297,-26.367,-22.949,0.000
1606128751.644,43.457,-28.809,-16.113,125.977,0.000
1606128751.648,27.344,-12.695,-4.395,74.219,0.000
1606128751.652,-66.406,-18.555,-20.508,-127.930,0.000
1606128751.656,-108.398,-34.668,-31.738,-203.613,0.000
1606128751.660,-40.527,-29.297,-18.066,-50.293,0.000
1606128751.664,39.551,-24.902,-15.137,119.141,0.000
1606128751.668,36.621,-19.531,-15.137,93.750,0.000
1606128751.672,-62.500,-32.715,-23.926,-106.445,0.000
1606128751.676,-119.141,-44.434,-30.762,-200.195,0.000
1606128751.679,-55.176,-30.273,-28.809,-68.359,0.000
1606128751.683,35.645,-21.973,-21.484,112.793,0.000
1606128751.687,37.598,-23.438,-12.207,109.375,0.000
1606128751.691,-55.176,-33.203,-24.414,-85.938,0.000
1606128751.695,-120.605,-44.434,-37.598,-203.125,0.000
1606128751.699,-78.613,-44.434,-37.598,-97.656,0.000
1606128751.703,17.090,-35.645,-26.855,92.773,0.000
1606128751.707,35.156,-31.250,-18.555,114.746,0.000
1606128751.711,-51.270,-42.969,-37.598,-72.754,0.000
1606128751.715,-122.070,-49.316,-45.898,-214.355,0.000
1606128751.719,-83.984,-39.062,-32.715,-130.371,0.000
1606128751.722,14.160,-28.809,-18.066,74.707,0.000
1606128751.726,44.922,-5.371,-12.207,127.441,0.000
1606128751.730,-27.832,-0.977,-23.926,-41.504,0.000
1606128751.734,-111.816,-39.551,-35.156,-210.449,0.000
1606128751.738,-94.238,-42.969,-31.738,-156.738,0.000
1606128751.742,7.324,-27.344,-19.043,58.594,0.000
1606128751.746,52.246,-20.996,-10.254,133.789,0.000
1606128751.750,-15.625,-26.367,-20.508,-12.695,0.000
1606128751.754,-98.145,-38.574,-30.762,-176.270,0.000
1606128751.758,-93.262,-37.109,-30.762,-152.832,0.000
1606128751.762,-8.301,-33.691,-18.555,43.457,0.000
1606128751.765,41.504,-20.996,-12.695,144.531,0.000
1606128751.769,-13.672,-21.484,-21.484,24.414,0.000
1606128751.773,-96.680,-36.621,-27.832,-152.344,0.000
1606128751.777,-96.191,-35.156,-25.391,-145.508,0.000
1606128751.781,-6.348,-28.809,-16.602,46.875,0.000
1606128751.785,51.270,-20.996,-11.719,154.785,0.000
1606128751.789,3.906,-13.672,-11.719,48.828,0.000
1606128751.793,-88.867,-27.832,-20.020,-146.484,0.000
1606128751.797,-107.422,-35.645,-29.297,-173.340,0.000
1606128751.801,-30.273,-31.250,-20.996,3.418,0.000
1606128751.804,37.109,-29.785,-14.648,131.836,0.000
1606128751.808,17.090,-28.320,-20.508,62.988,0.000
1606128751.812,-73.242,-32.227,-22.461,-128.906,0.000
1606128751.816,-109.375,-34.668,-24.414,-184.082,0.000
1606128751.820,-28.809,-24.414,-18.066,-21.484,0.000
1606128751.824,52.734,-22.461,-12.207,125.000,0.000
1606128751.828,36.621,-6.348,-19.531,77.148,0.000
1606128751.832,-58.594,-8.789,-31.738,-124.512,0.000
1606128751.836,-98.145,-35.156,-32.715,-200.684,0.000
1606128751.840,-30.273,-28.320,-28.809,-50.781,0.000
1606128751.844,45.898,-22.461,-28.320,114.746,0.000
1606128751.847,33.691,-30.273,-36.621,85.938,0.000
1606128751.851,-55.176,-40.527,-44.434,-110.352,0.000
1606128751.855,-98.633,-36.621,-31.738,-198.730,0.000
1606128751.859,-48.828,-31.250,-23.438,-74.707,0.000
1606128751.863,42.480,-29.297,-25.391,110.352,0.000
1606128751.867,51.270,-15.625,-23.438,121.094,0.000
1606128751.871,-41.992,-25.879,-33.203,-72.266,0.000
1606128751.875,-107.422,-45.410,-41.992,-196.289,0.000
1606128751.879,-67.383,-36.621,-29.297,-97.656,0.000
1606128751.883,24.902,-21.484,-21.484,100.586,0.000
1606128751.887,41.504,-19.043,-22.461,131.348,0.000
1606128751.890,-37.109,-30.273,-27.344,-48.340,0.000
1606128751.894,-106.445,-39.551,-30.762,-189.453,0.000
1606128751.898,-81.543,-39.062,-27.344,-112.305,0.000
1606128751.902,12.207,-31.738,-20.508,87.402,0.000
1606128751.906,48.828,-27.832,-23.926,140.137,0.000
1606128751.910,-19.043,-29.785,-35.645,-17.578,0.000
1606128751.914,-100.098,-33.203,-34.668,-174.805,0.000
1606128751.918,-95.215,-40.039,-37.598,-137.207,0.000
1606128751.922,-5.371,-43.457,-41.016,54.199,0.000
1606128751.926,42.969,-21.973,-39.551,127.441,0.000
1606128751.929,-15.625,-0.488,-41.504,-14.648,0.000
1606128751.933,-100.098,-25.879,-38.574,-187.012,0.000
1606128751.937,-97.656,-45.898,-41.504,-174.316,0.000
1606128751.941,-4.395,-41.016,-39.551,19.531,0.000
1606128751.945,53.223,-27.344,-31.250,121.582,0.000
1606128751.949,3.418,-31.250,-47.363,-1.465,0.000
1606128751.953,-80.078,-41.016,-56.641,-187.012,0.000
1606128751.957,-85.449,-34.668,-38.086,-185.059,0.000
1606128751.961,0.488,-28.809,-30.273,8.789,0.000
1606128751.965,58.594,-24.414,-39.551,130.859,0.000
1606128751.969,16.602,-27.344,-37.109,41.016,0.000
1606128751.972,-78.613,-37.109,-31.250,-151.367,0.000
1606128751.976,-106.445,-41.992,-40.039,-185.547,0.000
1606128751.980,-34.668,-39.062,-39.551,-12.207,0.000
1606128751.984,32.227,-26.367,-19.531,132.324,0.000
1606128751.988,6.836,-29.785,-16.602,68.359,0.000
1606128751.992,-88.867,-42.969,-32.715,-130.371,0.000
1606128751.996,-120.117,-44.434,-30.762,-190.430,0.000
1606128752.000,-47.363,-37.109,-20.996,-27.832,0.000
1606128752.004,31.250,-29.297,-22.949,135.254,0.000
1606128752.008,23.926,-0.977,-23.926,98.145,0.000
1606128752.012,-63.477,-4.395,-26.855,-103.516,0.000
1606128752.015,-116.699,-35.645,-29.297,-195.801,0.000
1606128752.019,-63.477,-32.227,-27.832,-60.547,0.000
1606128752.023,29.297,-19.531,-18.066,117.676,0.000
1606128752.027,33.203,-15.137,-14.648,103.027,0.000
1606128752.031,-54.688,-30.762,-27.344,-96.191,0.000
1606128752.035,-106.445,-34.668,-33.691,-200.195,0.000
1606128752.039,-61.523,-30.762,-29.785,-85.449,0.000
1606128752.043,30.762,-29.297,-23.926,98.145,0.000
1606128752.047,41.504,-24.414,-22.461,111.328,0.000
1606128752.051,-42.480,-31.250,-29.297,-75.195,0.000
1606128752.054,-106.934,-36.621,-39.062,-209.473,0.000
1606128752.058,-76.660,-32.227,-42.480,-126.953,0.000
1606128752.062,15.625,-28.809,-29.785,67.871,0.000
1606128752.066,42.969,-16.113,-17.578,115.234,0.000
1606128752.070,-25.391,-20.020,-23.438,-46.875,0.000
1606128752.074,-94.727,-38.086,-38.086,-194.824,0.000
1606128752.078,-74.219,-39.062,-40.039,-137.207,0.000
1606128752.082,19.531,-28.809,-27.344,66.406,0.000
1606128752.086,60.547,-22.461,-20.996,130.371,0.000
1606128752.090,-9.277,-30.273,-32.227,-30.762,0.000
1606128752.094,-101.074,-42.969,-38.086,-200.195,0.000
1606128752.097,-102.051,-41.504,-34.668,-168.945,0.000
1606128752.101,-9.277,-28.809,-25.391,37.109,0.000
1606128752.105,40.527,-28.320,-19.531,129.883,0.000
1606128752.109,-18.555,-30.762,-29.785,1.465,0.000
1606128752.113,-110.352,-46.387,-36.621,-173.340,0.000
1606128752.117,-121.094,-52.246,-34.668,-169.434,0.000
1606128752.121,-34.180,-39.551,-29.297,25.391,0.000
1606128752.125,30.762,-33.691,-25.391,137.695,0.000
1606128752.129,-16.113,-35.156,-28.320,29.297,0.000
1606128752.133,-107.910,-42.969,-34.668,-159.180,0.000
1606128752.137,-118.652,-48.828,-29.297,-173.828,0.000
1606128752.140,-37.109,-41.992,-21.973,3.906,0.000
1606128752.144,29.297,-28.809,-21.973,127.441,0.000
1606128752.148,0.000,-18.555,-24.902,49.805,0.000
1606128752.152,-90.332,-38.086,-39.062,-147.461,0.000
1606128752.156,-119.141,-53.223,-33.691,-195.312,0.000
1606128752.160,-53.223,-43.945,-24.414,-32.227,0.000
1606128752.164,20.508,-37.109,-33.691,118.164,0.000
1606128752.168,3.906,-39.062,-37.598,64.453,0.000
1606128752.172,-92.773,-49.316,-36.621,-137.695,0.000
1606128752.176,-131.836,-57.129,-37.598,-211.914,0.000
1606128752.179,-59.082,-46.387,-27.832,-62.012,0.000
1606128752.183,29.297,-37.109,-25.879,104.492,0.000
1606128752.187,25.879,-38.574,-29.297,75.684,0.000
1606128752.191,-68.359,-45.898,-26.367,-117.188,0.000
1606128752.195,-119.629,-49.805,-31.250,-203.125,0.000
1606128752.199,-62.988,-42.480,-41.016,-71.289,0.000
1606128752.203,27.832,-41.016,-34.668,103.516,0.000
1606128752.207,44.434,-10.254,-24.414,107.910,0.000
1606128752.211,-39.551,4.883,-31.738,-73.242,0.000
1606128752.215,-106.934,-38.574,-36.621,-192.383,0.000
1606128752.219,-62.012,-47.363,-29.785,-78.613,0.000
1606128752.222,31.250,-35.156,-21.973,113.770,0.000
1606128752.226,45.410,-26.367,-19.043,125.000,0.000
1606128752.230,-36.133,-33.203,-16.113,-50.293,0.000
1606128752.234,-104.492,-48.828,-26.855,-188.965,0.000
1606128752.238,-67.383,-41.016,-27.832,-108.887,0.000
1606128752.242,23.926,-35.156,-16.113,90.820,0.000
1606128752.246,50.781,-6.836,-21.484,133.301,0.000
1606128752.250,-16.113,0.977,-30.762,-32.227,0.000
1606128752.254,-97.656,-42.480,-34.180,-187.500,0.000
1606128752.258,-84.473,-43.945,-32.227,-144.043,0.000
1606128752.262,5.859,-31.250,-24.902,53.711,0.000
1606128752.265,38.086,-23.438,-18.066,124.023,0.000
1606128752.269,-25.391,-28.809,-20.996,-25.391,0.000
1606128752.273,-102.539,-42.969,-29.785,-186.523,0.000
1606128752.277,-95.703,-34.668,-24.902,-156.250,0.000
1606128752.281,-7.324,-30.273,-21.973,34.668,0.000
1606128752.285,43.457,-15.137,-24.414,129.883,0.000
1606128752.289,-5.859,-4.395,-18.555,14.160,0.000
1606128752.293,-96.191,-41.504,-21.484,-164.062,0.000
1606128752.297,-107.422,-51.270,-32.227,-170.898,0.000
1606128752.301,-19.531,-39.062,-28.320,16.113,0.000
1606128752.304,43.945,-25.391,-16.602,138.184,0.000
1606128752.308,3.418,-14.648,-20.996,40.527,0.000
1606128752.312,-88.867,-31.250,-28.320,-150.391,0.000
1606128752.316,-110.352,-43.945,-25.879,-176.270,0.000
1606128752.320,-31.738,-37.598,-18.066,6.348,0.000
1606128752.324,41.504,-28.320,-16.602,148.926,0.000
1606128752.328,7.812,-41.504,-21.973,67.871,0.000
1606128752.332,-89.355,-56.641,-26.367,-138.672,0.000
1606128752.336,-112.305,-45.410,-33.691,-186.035,0.000
1606128752.340,-33.203,-34.180,-32.715,-21.973,0.000
1606128752.344,46.875,-24.414,-22.461,131.348,0.000
1606128752.347,26.855,-25.879,-26.367,82.031,0.000
1606128752.351,-63.965,-35.156,-29.297,-109.863,0.000
1606128752.355,-99.609,-36.621,-24.414,-174.316,0.000
1606128752.359,-40.039,-35.645,-22.949,-33.691,0.000
1606128752.363,46.387,-25.391,-12.207,138.672,0.000
1606128752.367,43.945,-24.414,-18.066,118.652,0.000
1606128752.371,-48.828,-35.156,-28.809,-79.590,0.000
1606128752.375,-95.703,-37.109,-29.785,-181.641,0.000
1606128752.379,-44.922,-24.902,-33.203,-69.336,0.000
1606128752.383,43.945,-16.113,-17.090,119.629,0.000
1606128752.387,57.129,-7.812,-16.602,127.930,0.000
1606128752.390,-31.250,-14.160,-34.180,-67.871,0.000
1606128752.394,-99.609,-37.109,-34.668,-192.871,0.000
1606128752.398,-60.059,-34.668,-30.762,-92.285,0.000
1606128752.402,35.645,-22.949,-21.973,97.168,0.000
1606128752.406,52.246,-23.438,-18.555,120.605,0.000
1606128752.410,-32.227,-35.645,-33.691,-54.199,0.000
1606128752.414,-104.492,-43.945,-36.133,-190.918,0.000
1606128752.418,-73.730,-37.109,-28.320,-117.676,0.000
1606128752.422,15.625,-29.297,-22.461,82.031,0.000
1606128752.426,47.363,-8.789,-18.555,138.672,0.000
1606128752.429,-16.113,-7.324,-24.414,-17.090,0.000
1606128752.433,-101.074,-37.598,-36.621,-184.570,0.000
1606128752.437,-93.750,-44.434,-32.715,-148.438,0.000
1606128752.441,-0.977,-36.621,-28.320,50.781,0.000
1606128752.445,42.969,-26.367,-37.109,126.465,0.000
1606128752.449,-16.602,-31.250,-39.062,-12.695,0.000
1606128752.453,-100.098,-48.340,-32.715,-186.035,0.000
1606128752.457,-93.750,-47.363,-32.715,-167.480,0.000
1606128752.461,-0.977,-32.715,-30.762,30.273,0.000
1606128752.465,53.711,-21.973,-23.438,135.254,0.000
1606128752.469,2.441,-29.785,-26.855,17.578,0.000
1606128752.472,-87.402,-43.945,-35.645,-162.598,0.000
1606128752.476,-96.680,-44.922,-39.551,-166.016,0.000
1606128752.480,-14.648,-38.086,-39.551,17.090,0.000
1606128752.484,50.781,-34.180,-30.273,138.672,0.000
1606128752.488,21.484,-5.371,-19.531,48.828,0.000
1606128752.492,-68.848,-10.254,-27.344,-143.555,0.000
1606128752.496,-97.656,-46.875,-38.086,-181.641,0.000
1606128752.500,-17.578,-42.480,-26.855,-10.254,0.000
1606128752.504,54.199,-29.297,-22.461,127.441,0.000
1606128752.508,33.691,-21.973,-31.738,61.523,0.000
1606128752.512,-56.641,-33.203,-36.621,-134.277,0.000
1606128752.515,-95.703,-41.016,-38.574,-192.871,0.000
1606128752.519,-21.484,-31.738,-31.250,-35.645,0.000
1606128752.523,60.059,-24.902,-25.879,123.047,0.000
1606128752.527,42.969,-11.719,-17.578,85.449,0.000
1606128752.531,-54.199,-22.461,-16.113,-115.234,0.000
1606128752.535,-107.910,-46.875,-31.250,-204.590,0.000
1606128752.539,-50.781,-37.598,-23.438,-67.871,0.000
1606128752.543,35.156,-27.344,-6.836,104.492,0.000
1606128752.547,32.715,-26.367,-10.254,95.215,0.000
1606128752.551,-60.547,-34.668,-25.391,-98.633,0.000
1606128752.554,-124.023,-43.945,-34.668,-211.426,0.000
1606128752.558,-77.637,-41.504,-31.250,-93.262,0.000
1606128752.562,20.020,-27.344,-17.578,99.121,0.000
1606128752.566,31.250,-16.113,-21.973,107.910,0.000
1606128752.570,-56.641,-27.832,-36.133,-80.078,0.000
1606128752.574,-121.094,-44.922,-36.621,-211.426,0.000
1606128752.578,-79.590,-40.527,-31.738,-118.652,0.000
1606128752.582,14.648,-36.133,-24.902,79.102,0.000
1606128752.586,39.062,-11.230,-13.672,119.141,0.000
1606128752.590,-32.715,0.977,-18.066,-45.898,0.000
1606128752.594,-108.887,-33.203,-29.785,-195.801,0.000
1606128752.597,-88.867,-41.504,-25.879,-134.277,0.000
1606128752.601,-1.465,-31.738,-31.250,58.594,0.000
1606128752.605,33.691,-22.461,-33.691,120.117,0.000
1606128752.609,-26.367,-27.344,-28.320,-23.926,0.000
1606128752.613,-106.445,-44.922,-36.133,-184.082,0.000
1606128752.617,-101.562,-41.992,-34.180,-153.809,0.000
1606128752.621,-16.602,-37.109,-22.949,39.551,0.000
1606128752.625,28.809,-25.391,-20.996,130.859,0.000
1606128752.629,-23.926,-10.254,-20.996,2.441,0.000
1606128752.633,-109.375,-35.156,-27.832,-173.340,0.000
1606128752.637,-117.188,-50.781,-38.574,-167.480,0.000
1606128752.640,-32.227,-41.504,-31.738,18.555,0.000
1606128752.644,30.273,-32.227,-18.555,130.859,0.000
1606128752.648,-9.766,-35.156,-22.461,24.902,0.000
1606128752.652,-99.121,-44.922,-33.203,-165.527,0.000
1606128752.656,-114.746,-43.945,-32.227,-183.594,0.000
1606128752.660,-29.785,-33.203,-20.020,1.465,0.000
1606128752.664,41.016,-25.879,-15.137,136.230,0.000
1606128752.668,13.184,2.441,-24.414,56.641,0.000
1606128752.672,-82.520,-8.789,-38.086,-142.090,0.000
1606128752.676,-113.770,-43.457,-39.062,-187.988,0.000
1606128752.679,-34.668,-30.762,-29.785,-13.672,0.000
1606128752.683,37.109,-24.902,-27.832,136.230,0.000
1606128752.687,13.184,-30.273,-24.902,68.359,0.000
1606128752.691,-80.078,-39.551,-33.691,-135.254,0.000
1606128752.695,-116.699,-39.062,-41.016,-195.312,0.000
1606128752.699,-48.828,-25.879,-24.414,-41.992,0.000
1606128752.703,32.227,-22.461,-22.949,122.559,0.000
1606128752.707,23.926,-11.719,-26.367,95.703,0.000
1606128752.711,-66.406,-20.508,-34.668,-100.586,0.000
1606128752.715,-112.793,-41.016,-45.410,-185.059,0.000
1606128752.719,-55.664,-33.203,-34.180,-55.176,0.000
1606128752.722,33.691,-25.879,-20.996,116.699,0.000
1606128752.726,42.480,-13.184,-10.254,115.723,0.000
1606128752.730,-48.828,-21.484,-31.738,-79.590,0.000
1606128752.734,-116.211,-43.945,-47.852,-198.730,0.000
1606128752.738,-70.312,-35.645,-30.762,-94.238,0.000
1606128752.742,25.879,-20.996,-21.973,99.609,0.000
1606128752.746,43.457,-17.090,-20.996,122.070,0.000
1606128752.750,-40.527,-29.785,-24.414,-59.570,0.000
1606128752.754,-114.746,-41.992,-26.367,-193.359,0.000
1606128752.758,-84.961,-30.762,-24.902,-107.422,0.000
1606128752.762,12.207,-23.926,-13.672,98.633,0.000
1606128752.765,46.875,-20.996,-8.301,140.137,0.000
1606128752.769,-13.184,3.906,-27.832,-29.297,0.000
1606128752.773,-90.820,-12.695,-45.410,-184.570,0.000
1606128752.777,-82.520,-39.062,-42.969,-144.043,0.000
1606128752.781,15.625,-34.180,-35.645,54.688,0.000
1606128752.785,55.176,-23.438,-34.668,128.418,0.000
1606128752.789,-8.301,-28.809,-40.039,-17.090,0.000
1606128752.793,-82.031,-39.551,-43.945,-181.641,0.000
1606128752.797,-75.195,-33.203,-45.898,-157.715,0.000
1606128752.801,19.043,-25.879,-31.250,43.945,0.000
1606128752.804,66.895,-12.207,-22.461,138.184,0.000
1606128752.808,14.160,8.789,-29.785,12.695,0.000
1606128752.812,-72.754,-23.926,-40.039,-166.016,0.000
1606128752.816,-85.938,-46.387,-40.039,-167.480,0.000
1606128752.820,0.000,-31.738,-24.414,26.367,0.000
1606128752.824,57.617,-22.949,-8.789,141.113,0.000
1606128752.828,17.090,-26.855,-20.996,36.133,0.000
1606128752.832,-76.172,-41.016,-40.527,-153.320,0.000
1606128752.836,-93.750,-37.598,-37.109,-171.387,0.000
1606128752.840,-7.324,-23.926,-23.438,7.812,0.000
1606128752.844,52.734,-22.461,-22.461,138.184,0.000
1606128752.847,23.926,-18.555,-29.297,73.730,0.000
1606128752.851,-57.617,-24.414,-26.855,-114.746,0.000
1606128752.855,-96.191,-35.645,-32.715,-171.387,0.000
1606128752.859,-36.133,-30.273,-37.109,-22.461,0.000
1606128752.863,34.668,-28.320,-20.996,127.441,0.000
1606128752.867,18.555,-2.930,-21.484,85.938,0.000
1606128752.871,-75.684,3.906,-40.039,-115.234,0.000
1606128752.875,-114.746,-31.250,-42.969,-191.406,0.000
1606128752.879,-45.410,-32.227,-32.715,-43.457,0.000
1606128752.883,34.668,-21.484,-20.020,124.023,0.000
1606128752.887,27.832,-26.367,-27.832,96.680,0.000
1606128752.890,-64.453,-38.086,-41.016,-102.539,0.000
1606128752.894,-118.164,-43.945,-42.969,-202.148,0.000
1606128752.898,-60.547,-41.992,-31.738,-76.172,0.000
1606128752.902,31.250,-36.621,-22.949,105.469,0.000
1606128752.906,41.016,-18.555,-31.738,107.910,0.000
1606128752.910,-42.480,-21.973,-36.133,-79.102,0.000
1606128752.914,-107.910,-47.852,-37.598,-198.730,0.000
1606128752.918,-68.848,-47.363,-39.062,-102.539,0.000
1606128752.922,27.344,-33.203,-27.832,85.938,0.000
1606128752.926,48.828,-22.949,-21.973,114.746,0.000
1606128752.929,-32.715,-33.203,-27.344,-58.594,0.000
1606128752.933,-104.492,-41.504,-30.762,-194.824,0.000
1606128752.937,-78.125,-36.621,-29.297,-122.559,0.000
1606128752.941,14.160,-25.879,-18.555,75.684,0.000
1606128752.945,46.387,-10.742,-12.695,129.395,0.000
1606128752.949,-17.578,8.301,-26.367,-23.926,0.000
1606128752.953,-88.867,-12.207,-40.039,-178.223,0.000
1606128752.957,-83.984,-32.715,-35.645,-138.672,0.000
1606128752.961,3.906,-29.297,-25.391,62.988,0.000
1606128752.965,46.875,-23.926,-20.020,143.066,0.000
1606128752.969,-15.625,-25.879,-29.785,-1.953,0.000
1606128752.972,-93.750,-46.875,-30.762,-166.504,0.000
1606128752.976,-86.426,-43.945,-22.949,-135.254,0.000
1606128752.980,4.883,-23.926,-22.949,58.105,0.000
1606128752.984,50.781,-15.137,-24.902,145.996,0.000
1606128752.988,-3.418,-11.230,-34.180,18.066,0.000
1606128752.992,-84.961,-25.879,-42.969,-158.203,0.000
1606128752.996,-99.609,-31.738,-43.945,-166.992,0.000
1606128753.000,-23.926,-22.461,-27.344,12.695,0.000
1606128753.004,43.945,-11.719,-23.926,136.230,0.000
1606128753.008,16.113,-3.906,-33.691,49.805,0.000
1606128753.012,-69.336,-19.531,-33.203,-139.160,0.000
1606128753.015,-92.285,-33.691,-31.738,-177.246,0.000
1606128753.019,-21.973,-25.391,-31.250,-13.672,0.000
1606128753.023,46.875,-13.672,-20.508,122.559,0.000
1606128753.027,24.902,-13.672,-26.367,59.570,0.000
1606128753.031,-64.941,-28.809,-41.504,-135.254,0.000
1606128753.035,-96.191,-35.156,-40.039,-193.359,0.000
1606128753.039,-33.691,-35.645,-43.457,-39.062,0.000
1606128753.043,35.156,-35.645,-39.062,116.211,0.000
1606128753.047,32.227,-21.484,-27.832,79.590,0.000
1606128753.051,-53.223,-21.484,-37.598,-122.559,0.000
1606128753.054,-109.863,-42.969,-38.574,-205.566,0.000
1606128753.058,-50.293,-36.621,-28.809,-59.082,0.000
1606128753.062,33.203,-23.926,-24.902,111.816,0.000
1606128753.066,27.832,-30.273,-25.391,92.285,0.000
1606128753.070,-56.152,-37.109,-30.762,-92.773,0.000
1606128753.074,-108.887,-39.551,-37.598,-197.754,0.000
1606128753.078,-62.500,-41.016,-37.109,-89.355,0.000
1606128753.082,22.461,-34.668,-27.344,96.191,0.000
1606128753.086,32.715,-9.766,-19.531,110.840,0.000
1606128753.090,-52.246,-12.695,-28.809,-76.660,0.000
1606128753.094,-120.117,-42.969,-39.062,-207.520,0.000
1606128753.097,-78.613,-36.621,-32.715,-113.281,0.000
1606128753.101,13.672,-25.879,-20.996,86.426,0.000
1606128753.105,36.133,-21.973,-13.672,126.953,0.000
1606128753.109,-34.180,-29.785,-26.855,-44.434,0.000
1606128753.113,-106.445,-44.434,-43.457,-194.336,0.000
1606128753.117,-78.125,-40.039,-35.156,-125.977,0.000
1606128753.121,18.555,-28.320,-27.832,74.707,0.000
1606128753.125,47.363,-27.344,-27.344,124.023,0.000
1606128753.129,-21.973,-34.668,-31.738,-22.461,0.000
1606128753.133,-97.656,-36.621,-35.156,-178.223,0.000
1606128753.137,-80.078,-31.738,-32.227,-150.391,0.000
1606128753.140,11.230,-26.855,-21.973,48.828,0.000
1606128753.144,54.199,-24.414,-24.902,129.395,0.000
1606128753.148,-5.859,-3.418,-39.551,-3.906,0.000
1606128753.152,-94.727,-13.672,-44.922,-174.316,0.000
1606128753.156,-97.168,-42.480,-41.504,-167.969,0.000
1606128753.160,-6.836,-38.574,-31.250,19.043,0.000
1606128753.164,49.316,-33.203,-25.879,126.953,0.000
1606128753.168,2.930,-31.250,-28.809,23.926,0.000
1606128753.172,-86.426,-39.551,-32.715,-157.715,0.000
1606128753.176,-101.562,-41.992,-30.273,-173.828,0.000
1606128753.179,-20.020,-28.809,-22.949,11.230,0.000
1606128753.183,40.039,-22.461,-24.902,139.160,0.000
1606128753.187,10.742,-15.137,-25.879,52.246,0.000
1606128753.191,-74.707,-23.438,-21.484,-134.766,0.000
1606128753.195,-105.957,-38.086,-27.832,-177.246,0.000
1606128753.199,-35.156,-26.367,-31.738,-23.926,0.000
1606128753.203,33.691,-20.508,-27.832,119.141,0.000
1606128753.207,11.719,-26.367,-17.578,66.895,0.000
1606128753.211,-73.730,-35.156,-16.113,-125.000,0.000
1606128753.215,-113.281,-37.109,-27.344,-188.477,0.000
1606128753.219,-53.711,-34.180,-21.973,-44.922,0.000
1606128753.222,28.320,-29.785,-20.020,118.164,0.000
1606128753.226,28.320,-13.184,-23.438,98.145,0.000
1606128753.230,-56.641,-8.301,-25.391,-91.309,0.000
1606128753.234,-109.863,-35.645,-33.203,-185.059,0.000
1606128753.238,-58.594,-44.922,-30.273,-65.918,0.000
1606128753.242,31.738,-32.715,-18.555,109.863,0.000
1606128753.246,39.062,-24.414,-21.484,104.980,0.000
1606128753.250,-39.062,-30.762,-32.227,-85.449,0.000
1606128753.254,-90.332,-41.504,-39.062,-195.801,0.000
1606128753.258,-49.316,-39.062,-32.715,-85.938,0.000
1606128753.262,43.457,-25.879,-21.484,104.980,0.000
1606128753.265,57.129,-17.090,-17.090,126.465,0.000
1606128753.269,-32.715,-22.949,-19.043,-54.199,0.000
1606128753.273,-105.957,-37.598,-24.902,-191.895,0.000
1606128753.277,-82.031,-41.504,-29.297,-116.699,0.000
1606128753.281,4.395,-33.691,-28.320,76.660,0.000
1606128753.285,36.621,-10.254,-23.438,127.441,0.000
