timestamps,TP9,AF7,AF8,TP10,Right AUX
1606138555.845,0.000,0.000,0.000,-0.488,0.000
1606138555.848,0.000,0.000,0.000,0.488,0.000
1606138555.852,-1.953,-1.953,-1.953,-1.953,0.000
1606138555.856,0.488,3.418,3.418,-7.324,0.000
1606138555.860,-6.348,-17.578,-19.043,24.414,0.000
1606138555.864,-59.570,-42.969,-44.922,-114.746,0.000
1606138555.868,-84.473,-30.762,-37.109,-277.344,0.000
1606138555.872,-31.738,-24.902,-36.621,-99.121,0.000
1606138555.876,26.855,-30.762,-27.832,178.711,0.000
1606138555.880,20.020,-30.273,-26.367,215.820,0.000
1606138555.884,-49.805,-37.109,-39.062,-50.781,0.000
1606138555.888,-86.914,-45.898,-39.062,-260.742,0.000
1606138555.891,-39.551,-31.738,-34.668,-126.465,0.000
1606138555.895,33.691,-21.973,-27.344,167.969,0.000
1606138555.899,38.574,-24.414,-25.879,235.840,0.000
1606138555.903,-15.137,-30.762,-33.691,-14.160,0.000
1606138555.907,-60.547,-34.668,-35.156,-236.816,0.000
1606138555.911,-30.273,-23.438,-33.203,-145.508,0.000
1606138555.915,55.664,-10.254,-18.555,153.809,0.000
1606138555.919,71.289,-10.742,-13.672,256.836,0.000
1606138555.923,9.277,-21.973,-33.203,23.926,0.000
1606138555.927,-49.316,-30.273,-38.086,-238.281,0.000
1606138555.931,-35.156,-27.832,-34.180,-202.637,0.000
1606138555.934,37.109,-20.996,-31.738,95.703,0.000
1606138555.938,61.523,-23.926,-35.645,229.980,0.000
1606138555.942,6.348,-24.902,-40.039,48.828,0.000
1606138555.946,-55.176,-21.973,-32.227,-213.379,0.000
1606138555.950,-42.969,-25.879,-32.227,-227.539,0.000
1606138555.954,27.344,-24.902,-30.273,44.922,0.000
1606138555.958,57.129,-18.066,-26.855,220.215,0.000
1606138555.962,9.766,-7.324,-28.809,93.262,0.000
1606138555.966,-50.781,-6.348,-35.156,-192.383,0.000
1606138555.970,-55.176,-17.578,-34.180,-244.629,0.000
1606138555.973,-1.953,-21.484,-22.949,20.996,0.000
1606138555.977,42.969,-24.414,-15.625,235.352,0.000
1606138555.981,8.789,-27.832,-17.090,136.719,0.000
1606138555.985,-71.777,-31.738,-26.367,-170.898,0.000
1606138555.989,-99.121,-30.762,-30.273,-264.160,0.000
1606138555.993,-35.645,-21.973,-21.484,-20.996,0.000
1606138555.997,19.043,-26.367,-18.066,222.656,0.000
1606138556.001,-8.301,-36.621,-26.855,158.203,0.000
1606138556.005,-76.660,-37.109,-31.250,-137.207,0.000
1606138556.009,-96.191,-33.691,-29.297,-261.230,0.000
1606138556.013,-36.133,-24.414,-23.438,-69.336,0.000
1606138556.016,32.715,-20.508,-18.066,189.941,0.000
1606138556.020,21.973,-25.391,-20.996,186.035,0.000
1606138556.024,-36.621,-23.438,-19.043,-93.262,0.000
1606138556.028,-56.641,-24.414,-26.367,-273.438,0.000
1606138556.032,-19.043,-30.273,-42.480,-133.789,0.000
1606138556.036,41.504,-26.367,-36.133,134.766,0.000
1606138556.040,46.387,-12.695,-37.598,168.457,0.000
1606138556.044,-34.180,-10.742,-50.781,-103.027,0.000
1606138556.048,-86.914,-21.484,-46.387,-304.199,0.000
1606138556.052,-41.504,-20.508,-42.969,-173.340,0.000
1606138556.056,21.973,-14.648,-39.551,125.000,0.000
1606138556.059,18.555,-21.484,-40.039,187.012,0.000
1606138556.063,-49.805,-27.344,-51.270,-67.383,0.000
1606138556.067,-94.238,-27.832,-47.363,-291.016,0.000
1606138556.071,-58.594,-26.367,-33.203,-210.449,0.000
1606138556.075,20.996,-16.602,-27.832,91.309,0.000
1606138556.079,41.016,-16.113,-34.668,196.777,0.000
1606138556.083,-39.551,-23.438,-36.133,-27.832,0.000
1606138556.087,-104.004,-29.297,-29.297,-275.391,0.000
1606138556.091,-71.289,-31.738,-36.133,-235.352,0.000
1606138556.095,2.441,-20.996,-37.598,68.359,0.000
1606138556.098,8.789,-27.832,-21.484,219.238,0.000
1606138556.102,-46.387,-41.992,-21.973,39.062,0.000
1606138556.106,-104.492,-39.062,-37.109,-218.750,0.000
1606138556.110,-96.191,-41.016,-41.016,-234.375,0.000
1606138556.114,-23.926,-41.504,-30.273,42.480,0.000
1606138556.118,15.625,-30.762,-18.066,236.816,0.000
1606138556.122,-32.715,-34.180,-26.367,87.891,0.000
1606138556.126,-100.586,-47.363,-35.156,-199.219,0.000
1606138556.130,-92.773,-45.410,-33.691,-252.441,0.000
1606138556.134,-8.789,-32.227,-23.926,14.648,0.000
1606138556.138,44.922,-28.809,-11.719,238.281,0.000
1606138556.141,2.930,-36.621,-17.090,111.816,0.000
1606138556.145,-64.941,-35.645,-30.273,-177.734,0.000
1606138556.149,-66.895,-31.738,-32.227,-248.535,0.000
1606138556.153,0.488,-27.344,-32.715,-31.250,0.000
1606138556.157,44.922,-25.391,-28.320,203.125,0.000
1606138556.161,5.859,-23.438,-27.832,126.465,0.000
1606138556.165,-64.453,-26.367,-36.621,-166.992,0.000
1606138556.169,-85.449,-37.109,-42.480,-290.527,0.000
1606138556.173,-30.273,-33.691,-41.992,-99.121,0.000
1606138556.177,36.621,-31.250,-23.438,177.246,0.000
1606138556.181,21.973,-30.273,-17.090,165.527,0.000
1606138556.184,-59.082,-29.297,-32.715,-119.629,0.000
1606138556.188,-98.145,-37.598,-35.645,-285.645,0.000
1606138556.192,-47.852,-30.273,-28.809,-123.047,0.000
1606138556.196,16.602,-22.461,-22.461,164.062,0.000
1606138556.200,2.441,-27.832,-15.625,173.828,0.000
1606138556.204,-77.637,-33.691,-23.438,-114.258,0.000
1606138556.208,-127.441,-35.156,-41.992,-313.965,0.000
1606138556.212,-86.426,-33.691,-40.039,-184.570,0.000
1606138556.216,-9.277,-31.250,-28.809,105.469,0.000
1606138556.220,-1.953,-31.250,-33.691,166.504,0.000
1606138556.223,-64.453,-41.504,-41.504,-67.383,0.000
1606138556.227,-102.051,-36.133,-36.133,-284.180,0.000
1606138556.231,-61.035,-22.461,-33.203,-204.590,0.000
1606138556.235,14.160,-20.996,-36.133,96.680,0.000
1606138556.239,35.645,-16.113,-34.668,209.473,0.000
1606138556.243,-22.461,-22.949,-37.598,3.906,0.000
1606138556.247,-88.379,-38.086,-38.574,-254.883,0.000
1606138556.251,-72.266,-40.527,-29.297,-232.422,0.000
1606138556.255,8.789,-32.715,-18.066,70.312,0.000
1606138556.259,33.203,-26.367,-19.043,222.656,0.000
1606138556.263,-25.879,-27.832,-26.855,23.438,0.000
1606138556.266,-87.891,-26.855,-26.855,-246.582,0.000
1606138556.270,-74.219,-24.902,-32.227,-242.676,0.000
1606138556.274,-1.465,-33.203,-38.086,33.203,0.000
1606138556.278,36.133,-33.691,-33.203,207.520,0.000
1606138556.282,-10.742,-33.691,-29.785,63.477,0.000
1606138556.286,-90.332,-41.992,-39.062,-228.516,0.000
1606138556.290,-93.750,-39.062,-42.969,-271.973,0.000
1606138556.294,-26.855,-36.133,-33.691,-6.348,0.000
1606138556.298,12.695,-37.598,-26.855,195.801,0.000
1606138556.302,-21.484,-37.109,-37.109,85.449,0.000
1606138556.306,-98.633,-37.598,-38.086,-195.312,0.000
1606138556.309,-107.422,-30.762,-26.855,-270.996,0.000
1606138556.313,-33.203,-21.484,-23.438,-41.016,0.000
1606138556.317,19.043,-23.438,-31.738,200.195,0.000
1606138556.321,-11.719,-29.785,-41.992,141.113,0.000
1606138556.325,-83.008,-31.250,-37.109,-145.996,0.000
1606138556.329,-98.633,-32.227,-30.762,-262.207,0.000
1606138556.333,-36.133,-32.715,-22.949,-59.570,0.000
1606138556.337,26.367,-27.344,-11.230,209.961,0.000
1606138556.341,7.324,-30.762,-12.695,194.824,0.000
1606138556.345,-66.406,-38.086,-19.043,-105.469,0.000
1606138556.348,-100.098,-43.945,-28.809,-279.785,0.000
1606138556.352,-43.945,-48.828,-22.949,-110.840,0.000
1606138556.356,40.039,-32.715,-10.254,183.594,0.000
1606138556.360,39.062,-21.973,-22.461,202.637,0.000
1606138556.364,-29.785,-28.320,-35.645,-85.938,0.000
1606138556.368,-73.730,-30.762,-21.973,-272.949,0.000
1606138556.372,-51.758,-34.668,-11.230,-144.043,0.000
1606138556.376,23.926,-24.902,-22.461,139.160,0.000
1606138556.380,38.086,-16.602,-22.949,216.309,0.000
1606138556.384,-27.832,-26.367,-21.973,-25.879,0.000
1606138556.388,-80.566,-35.156,-30.762,-271.484,0.000
1606138556.391,-59.082,-41.016,-33.203,-204.590,0.000
1606138556.395,13.672,-35.156,-20.508,94.727,0.000
1606138556.399,26.367,-36.621,-28.809,204.590,0.000
1606138556.403,-39.551,-41.504,-37.598,-14.160,0.000
1606138556.407,-93.750,-36.621,-33.203,-262.207,0.000
1606138556.411,-77.148,-36.621,-33.691,-229.492,0.000
1606138556.415,-4.395,-31.738,-28.809,68.359,0.000
1606138556.419,21.484,-29.785,-24.414,210.449,0.000
1606138556.423,-31.250,-33.691,-23.926,29.785,0.000
1606138556.427,-90.820,-31.738,-24.414,-231.445,0.000
1606138556.431,-81.055,-23.438,-27.344,-221.680,0.000
1606138556.434,-2.441,-24.414,-9.766,62.012,0.000
1606138556.438,26.855,-33.203,-8.301,229.980,0.000
1606138556.442,-31.738,-39.551,-23.438,76.660,0.000
1606138556.446,-97.168,-36.621,-24.902,-203.125,0.000
1606138556.450,-91.309,-26.367,-24.902,-245.117,0.000
1606138556.454,-22.949,-32.715,-22.949,15.625,0.000
1606138556.458,22.949,-35.645,-19.531,236.328,0.000
1606138556.462,-8.789,-25.879,-13.672,126.953,0.000
1606138556.466,-78.125,-28.320,-13.184,-170.410,0.000
1606138556.470,-87.891,-31.738,-21.484,-258.301,0.000
1606138556.473,-22.949,-23.926,-23.438,-24.414,0.000
1606138556.477,29.785,-27.832,-14.160,215.332,0.000
1606138556.481,4.883,-25.391,-13.184,153.809,0.000
1606138556.485,-60.059,-23.438,-22.949,-145.020,0.000
1606138556.489,-82.520,-20.996,-32.227,-277.832,0.000
1606138556.493,-23.926,-12.207,-36.133,-78.125,0.000
1606138556.497,47.852,-20.020,-26.855,175.293,0.000
1606138556.501,41.992,-24.414,-29.297,158.691,0.000
1606138556.505,-28.320,-25.879,-47.852,-125.000,0.000
1606138556.509,-64.453,-27.344,-47.363,-287.598,0.000
1606138556.513,-23.438,-25.391,-36.621,-125.977,0.000
1606138556.516,37.598,-20.996,-26.367,161.133,0.000
1606138556.520,38.574,-22.461,-26.367,192.383,0.000
1606138556.524,-35.645,-28.809,-27.344,-72.754,0.000
1606138556.528,-89.844,-18.555,-27.832,-274.902,0.000
1606138556.532,-54.688,-5.371,-29.297,-165.527,0.000
1606138556.536,17.578,-15.625,-25.879,124.512,0.000
1606138556.540,24.414,-26.367,-26.855,190.918,0.000
1606138556.544,-44.922,-34.180,-28.320,-59.082,0.000
1606138556.548,-90.820,-36.621,-23.926,-275.391,0.000
1606138556.552,-61.035,-36.133,-22.461,-186.523,0.000
1606138556.556,9.766,-23.926,-25.391,99.609,0.000
1606138556.559,26.367,-8.301,-24.414,203.613,0.000
1606138556.563,-38.086,-24.414,-26.855,-6.348,0.000
1606138556.567,-111.328,-39.062,-31.250,-260.742,0.000
1606138556.571,-98.633,-38.086,-29.297,-218.262,0.000
1606138556.575,-20.020,-41.016,-20.996,74.707,0.000
1606138556.579,11.230,-37.598,-12.207,208.984,0.000
1606138556.583,-43.945,-44.922,-12.207,29.297,0.000
1606138556.587,-106.934,-50.293,-17.578,-236.328,0.000
1606138556.591,-94.727,-40.527,-20.020,-241.699,0.000
1606138556.595,-23.926,-34.668,-21.484,32.715,0.000
1606138556.598,10.254,-38.574,-21.973,213.379,0.000
1606138556.602,-32.715,-41.992,-20.020,72.266,0.000
1606138556.606,-96.191,-39.062,-29.785,-215.332,0.000
1606138556.610,-96.680,-43.945,-33.691,-263.672,0.000
1606138556.614,-21.484,-38.574,-26.855,-3.906,0.000
1606138556.618,29.297,-28.809,-24.414,222.656,0.000
1606138556.622,-7.812,-27.344,-26.855,123.047,0.000
1606138556.626,-83.008,-36.133,-27.344,-193.848,0.000
1606138556.630,-96.191,-22.461,-27.344,-292.969,0.000
1606138556.634,-27.832,-2.930,-26.367,-47.852,0.000
1606138556.638,30.273,-20.020,-26.367,197.266,0.000
1606138556.641,9.766,-29.297,-25.391,137.695,0.000
1606138556.645,-66.895,-38.574,-28.809,-161.133,0.000
1606138556.649,-90.820,-45.898,-34.180,-291.504,0.000
1606138556.653,-30.762,-41.016,-18.066,-86.914,0.000
1606138556.657,28.320,-36.621,-17.090,177.734,0.000
1606138556.661,15.625,-33.691,-34.180,175.781,0.000
1606138556.665,-57.617,-40.039,-33.203,-109.863,0.000
1606138556.669,-99.121,-34.180,-25.879,-302.246,0.000
1606138556.673,-52.734,-27.832,-25.391,-137.695,0.000
1606138556.677,26.855,-39.551,-22.461,152.344,0.000
1606138556.681,32.227,-30.273,-19.531,192.383,0.000
1606138556.684,-48.828,-29.297,-24.414,-72.754,0.000
1606138556.688,-91.797,-34.668,-34.180,-279.297,0.000
1606138556.692,-47.852,-33.691,-26.855,-154.297,0.000
1606138556.696,27.832,-29.785,-18.066,147.461,0.000
1606138556.700,36.133,-28.320,-20.996,215.332,0.000
1606138556.704,-31.738,-36.133,-15.625,-29.785,0.000
1606138556.708,-77.148,-33.691,-10.254,-240.234,0.000
1606138556.712,-41.504,-25.879,-14.648,-157.227,0.000
1606138556.716,23.926,-26.855,-12.695,117.188,0.000
1606138556.720,33.691,-29.297,-14.648,215.332,0.000
1606138556.723,-28.809,-34.180,-23.438,-2.930,0.000
1606138556.727,-95.703,-40.527,-26.367,-259.277,0.000
1606138556.731,-77.148,-31.250,-26.367,-224.609,0.000
1606138556.735,-1.465,-25.879,-25.391,60.059,0.000
1606138556.739,21.484,-25.879,-24.414,202.148,0.000
1606138556.743,-25.879,-25.879,-21.973,28.809,0.000
1606138556.747,-82.520,-32.227,-21.973,-243.652,0.000
1606138556.751,-76.660,-34.668,-28.809,-248.535,0.000
1606138556.755,-6.348,-25.879,-25.391,36.133,0.000
1606138556.759,27.832,-19.531,-13.184,222.168,0.000
1606138556.763,-16.602,-27.344,-13.672,74.219,0.000
1606138556.766,-78.125,-31.738,-26.855,-224.121,0.000
1606138556.770,-83.008,-27.344,-33.203,-273.438,0.000
1606138556.774,-14.160,-26.855,-22.949,-6.836,0.000
1606138556.778,38.574,-23.438,-22.461,210.938,0.000
1606138556.782,4.395,-20.508,-26.855,112.305,0.000
1606138556.786,-72.754,-33.691,-28.809,-184.082,0.000
1606138556.790,-83.008,-30.273,-24.902,-274.414,0.000
1606138556.794,-20.508,-21.973,-23.438,-38.086,0.000
1606138556.798,27.344,-25.879,-30.273,208.008,0.000
1606138556.802,2.930,-26.855,-23.438,148.926,0.000
1606138556.806,-67.383,-31.738,-19.531,-144.043,0.000
1606138556.809,-92.773,-33.203,-31.250,-276.855,0.000
1606138556.813,-42.969,-30.273,-34.668,-93.262,0.000
1606138556.817,20.508,-34.668,-28.320,171.387,0.000
1606138556.821,2.930,-36.133,-28.320,160.156,0.000
1606138556.825,-71.289,-34.180,-33.203,-125.977,0.000
1606138556.829,-94.727,-40.527,-30.762,-282.227,0.000
1606138556.833,-46.387,-43.945,-29.785,-116.699,0.000
1606138556.837,23.438,-24.414,-20.020,166.504,0.000
1606138556.841,24.414,-16.602,-22.461,191.406,0.000
1606138556.845,-59.570,-29.297,-28.809,-94.727,0.000
1606138556.848,-104.492,-32.227,-26.855,-289.062,0.000
1606138556.852,-64.941,-29.785,-32.715,-160.645,0.000
1606138556.856,13.184,-27.832,-30.762,124.512,0.000
1606138556.860,21.484,-27.344,-22.949,197.754,0.000
1606138556.864,-58.594,-39.551,-24.902,-48.340,0.000
1606138556.868,-99.121,-41.016,-28.320,-265.625,0.000
1606138556.872,-61.523,-30.273,-23.926,-186.035,0.000
1606138556.876,11.719,-25.391,-24.902,93.750,0.000
1606138556.880,33.203,-28.320,-24.902,205.566,0.000
1606138556.884,-33.203,-32.715,-21.484,4.883,0.000
1606138556.888,-95.703,-39.551,-24.414,-244.629,0.000
1606138556.891,-70.801,-41.016,-22.461,-211.426,0.000
1606138556.895,2.441,-29.297,-11.719,78.613,0.000
1606138556.899,30.762,-21.484,-13.672,231.934,0.000
1606138556.903,-20.020,-25.391,-20.508,44.434,0.000
1606138556.907,-91.797,-40.527,-28.320,-247.559,0.000
1606138556.911,-84.473,-32.227,-37.109,-263.184,0.000
1606138556.915,-4.883,-25.391,-32.715,38.574,0.000
1606138556.919,34.180,-33.691,-27.344,229.492,0.000
1606138556.923,-12.695,-34.180,-29.297,64.941,0.000
1606138556.927,-80.566,-41.992,-33.691,-221.680,0.000
1606138556.931,-80.566,-41.992,-34.180,-262.695,0.000
1606138556.934,-11.230,-39.062,-26.367,3.418,0.000
1606138556.938,36.621,-30.762,-18.066,220.215,0.000
1606138556.942,0.488,-22.949,-21.973,121.582,0.000
1606138556.946,-74.707,-33.691,-28.809,-175.781,0.000
1606138556.950,-82.520,-31.738,-24.414,-266.113,0.000
1606138556.954,-20.996,-31.250,-19.531,-41.504,0.000
1606138556.958,29.297,-42.969,-20.020,190.430,0.000
1606138556.962,4.883,-40.039,-19.531,142.578,0.000
1606138556.966,-68.848,-35.156,-14.648,-140.625,0.000
1606138556.970,-84.961,-38.574,-13.672,-271.973,0.000
1606138556.973,-25.879,-37.598,-20.020,-67.383,0.000
1606138556.977,35.156,-35.156,-18.066,201.660,0.000
1606138556.981,15.137,-30.762,-25.391,166.992,0.000
1606138556.985,-57.617,-28.320,-31.738,-121.582,0.000
1606138556.989,-79.590,-28.320,-27.832,-280.762,0.000
1606138556.993,-27.832,-24.414,-23.926,-107.910,0.000
1606138556.997,38.086,-22.461,-17.090,177.734,0.000
1606138557.001,35.645,-26.367,-17.578,194.336,0.000
1606138557.005,-39.551,-33.691,-24.902,-79.590,0.000
1606138557.009,-84.473,-27.344,-33.691,-274.902,0.000
1606138557.013,-43.945,-16.602,-32.227,-155.273,0.000
1606138557.016,29.297,-25.879,-23.926,144.531,0.000
1606138557.020,32.715,-27.832,-22.949,211.426,0.000
1606138557.024,-37.109,-29.297,-27.344,-45.898,0.000
1606138557.028,-91.309,-40.039,-30.762,-271.973,0.000
1606138557.032,-63.477,-33.203,-35.156,-190.430,0.000
1606138557.036,13.672,-14.648,-33.203,117.188,0.000
1606138557.040,30.762,-18.066,-22.949,229.492,0.000
1606138557.044,-34.180,-34.668,-18.555,-0.977,0.000
1606138557.048,-97.656,-28.809,-23.926,-266.113,0.000
1606138557.052,-78.125,-18.555,-28.320,-232.910,0.000
1606138557.056,2.441,-21.973,-29.297,66.895,0.000
1606138557.059,31.250,-21.484,-21.484,222.168,0.000
1606138557.063,-25.391,-29.297,-24.414,32.227,0.000
1606138557.067,-93.750,-36.133,-41.504,-248.535,0.000
1606138557.071,-85.449,-38.574,-34.180,-253.418,0.000
1606138557.075,-6.836,-36.133,-29.297,32.227,0.000
1606138557.079,33.691,-24.414,-31.738,218.262,0.000
1606138557.083,-13.184,-27.344,-30.762,75.195,0.000
1606138557.087,-83.008,-31.738,-24.902,-197.266,0.000
1606138557.091,-87.891,-19.531,-30.762,-255.371,0.000
1606138557.095,-18.066,-17.578,-26.855,-21.973,0.000
1606138557.098,23.438,-25.879,-26.367,189.941,0.000
1606138557.102,-17.578,-31.250,-32.715,92.285,0.000
1606138557.106,-86.426,-32.715,-28.809,-202.148,0.000
1606138557.110,-94.238,-25.391,-32.715,-290.039,0.000
1606138557.114,-28.320,-24.414,-32.715,-58.105,0.000
1606138557.118,27.832,-31.738,-27.344,197.266,0.000
1606138557.122,5.371,-33.691,-24.414,150.391,0.000
1606138557.126,-79.590,-34.668,-21.484,-159.180,0.000
1606138557.130,-116.699,-36.621,-30.273,-292.480,0.000
1606138557.134,-49.316,-38.086,-29.297,-82.031,0.000
1606138557.138,19.043,-32.715,-24.414,182.129,0.000
1606138557.141,2.930,-33.203,-22.949,162.598,0.000
1606138557.145,-65.918,-41.016,-27.344,-122.070,0.000
1606138557.149,-99.609,-31.738,-37.109,-283.203,0.000
1606138557.153,-33.203,-22.461,-28.320,-111.328,0.000
1606138557.157,34.668,-26.855,-18.555,173.828,0.000
1606138557.161,14.160,-26.367,-12.695,199.219,0.000
1606138557.165,-59.082,-38.086,-24.414,-81.055,0.000
1606138557.169,-100.586,-49.805,-41.016,-282.227,0.000
1606138557.173,-57.129,-43.457,-38.574,-165.527,0.000
1606138557.177,19.043,-36.133,-23.926,130.859,0.000
1606138557.181,31.738,-34.180,-23.926,219.238,0.000
1606138557.184,-45.410,-45.410,-39.551,-30.762,0.000
1606138557.188,-95.703,-34.180,-38.086,-268.066,0.000
1606138557.192,-55.176,-7.812,-33.691,-181.152,0.000
1606138557.196,20.020,-10.254,-28.809,120.117,0.000
1606138557.200,32.227,-26.367,-23.926,226.074,0.000
1606138557.204,-37.598,-37.109,-31.250,6.348,0.000
1606138557.208,-96.680,-41.016,-34.180,-247.559,0.000
1606138557.212,-66.895,-36.621,-26.855,-205.566,0.000
1606138557.216,8.301,-33.691,-27.344,90.820,0.000
1606138557.220,31.738,-35.156,-28.320,228.027,0.000
1606138557.223,-17.090,-28.320,-27.832,44.922,0.000
1606138557.227,-78.125,-15.625,-30.762,-222.656,0.000
1606138557.231,-74.707,-16.602,-31.250,-243.164,0.000
1606138557.235,-1.953,-26.855,-26.855,33.691,0.000
1606138557.239,33.203,-26.855,-20.996,221.191,0.000
1606138557.243,-9.766,-24.902,-17.090,81.055,0.000
1606138557.247,-76.660,-33.691,-16.113,-201.172,0.000
1606138557.251,-80.566,-37.109,-20.508,-253.418,0.000
1606138557.255,-13.184,-31.738,-25.391,-3.418,0.000
1606138557.259,37.598,-30.762,-27.832,217.285,0.000
1606138557.263,0.488,-34.180,-31.250,121.582,0.000
1606138557.266,-76.660,-32.715,-32.227,-172.852,0.000
1606138557.270,-87.891,-34.180,-29.297,-271.973,0.000
1606138557.274,-30.273,-33.691,-31.738,-44.922,0.000
1606138557.278,18.555,-33.203,-30.762,199.707,0.000
1606138557.282,-8.301,-36.621,-21.973,139.160,0.000
1606138557.286,-81.543,-39.551,-15.137,-159.668,0.000
1606138557.290,-104.492,-22.949,-18.555,-284.668,0.000
1606138557.294,-46.875,-15.625,-19.531,-88.867,0.000
1606138557.298,18.066,-32.715,-22.461,174.316,0.000
1606138557.302,9.277,-33.691,-19.531,167.480,0.000
1606138557.306,-64.453,-34.668,-17.090,-116.699,0.000
1606138557.309,-99.121,-39.062,-27.832,-283.691,0.000
1606138557.313,-46.875,-43.457,-31.738,-128.906,0.000
1606138557.317,18.555,-40.527,-28.809,152.832,0.000
1606138557.321,17.578,-33.691,-29.785,192.383,0.000
1606138557.325,-45.898,-37.109,-27.832,-86.426,0.000
1606138557.329,-78.613,-17.090,-26.855,-281.738,0.000
1606138557.333,-39.551,-8.301,-29.297,-161.621,0.000
1606138557.337,26.367,-24.902,-27.832,125.000,0.000
1606138557.341,41.016,-23.438,-22.461,209.961,0.000
1606138557.345,-28.809,-37.109,-27.832,-36.621,0.000
1606138557.348,-90.820,-48.828,-45.898,-278.320,0.000
1606138557.352,-59.570,-37.109,-40.527,-193.359,0.000
1606138557.356,14.160,-21.973,-32.227,103.516,0.000
1606138557.360,29.785,-26.367,-38.574,216.309,0.000
1606138557.364,-32.227,-32.715,-32.227,1.465,0.000
1606138557.368,-95.703,-23.438,-30.273,-255.859,0.000
1606138557.372,-82.031,-23.926,-33.691,-225.586,0.000
1606138557.376,-5.371,-29.297,-28.809,63.965,0.000
1606138557.380,23.926,-29.785,-23.438,214.355,0.000
1606138557.384,-27.832,-33.691,-21.484,44.922,0.000
1606138557.388,-93.750,-33.691,-29.297,-227.051,0.000
1606138557.391,-90.820,-38.574,-33.691,-253.906,0.000
1606138557.395,-17.090,-40.039,-27.344,24.902,0.000
1606138557.399,19.043,-39.062,-20.508,215.820,0.000
1606138557.403,-30.762,-43.945,-26.367,83.008,0.000
1606138557.407,-96.191,-36.621,-31.738,-206.543,0.000
1606138557.411,-92.285,-28.320,-32.227,-264.648,0.000
1606138557.415,-27.832,-35.156,-35.645,-6.836,0.000
1606138557.419,18.555,-35.645,-30.273,207.031,0.000
1606138557.423,-4.883,-30.762,-21.484,115.723,0.000
1606138557.427,-72.754,-34.180,-26.367,-180.176,0.000
1606138557.431,-82.031,-35.156,-30.762,-269.531,0.000
1606138557.434,-14.160,-27.344,-23.926,-33.691,0.000
1606138557.438,41.016,-20.020,-14.160,210.938,0.000
1606138557.442,21.484,-17.578,-11.230,162.109,0.000
1606138557.446,-46.875,-19.531,-16.113,-129.395,0.000
1606138557.450,-64.941,-22.949,-21.973,-260.742,0.000
1606138557.454,-13.672,-21.973,-32.227,-71.289,0.000
1606138557.458,41.992,-20.508,-30.762,181.152,0.000
1606138557.462,30.762,-21.973,-24.414,180.664,0.000
1606138557.466,-47.363,-33.203,-32.227,-108.887,0.000
1606138557.470,-92.773,-33.691,-33.691,-290.527,0.000
1606138557.473,-53.223,-25.879,-37.109,-132.812,0.000
1606138557.477,10.742,-29.297,-37.598,144.043,0.000
1606138557.481,9.766,-31.738,-26.855,184.570,0.000
1606138557.485,-52.246,-33.203,-23.438,-73.730,0.000
1606138557.489,-89.844,-39.551,-30.273,-273.438,0.000
1606138557.493,-54.688,-40.527,-40.039,-157.715,0.000
1606138557.497,15.625,-36.133,-35.156,136.230,0.000
1606138557.501,17.578,-35.645,-30.762,206.055,0.000
1606138557.505,-48.340,-31.250,-31.738,-26.855,0.000
1606138557.509,-95.703,-29.785,-32.715,-250.977,0.000
1606138557.513,-75.195,-36.621,-36.621,-202.148,0.000
1606138557.516,-1.953,-33.691,-27.344,90.820,0.000
1606138557.520,21.484,-33.203,-18.555,215.332,0.000
1606138557.524,-35.645,-36.621,-20.020,0.000,0.000
1606138557.528,-96.680,-41.016,-26.367,-254.395,0.000
1606138557.532,-74.707,-47.852,-27.344,-217.773,0.000
1606138557.536,2.930,-41.992,-22.461,70.801,0.000
1606138557.540,29.785,-30.273,-20.020,236.328,0.000
1606138557.544,-21.484,-31.250,-23.926,62.012,0.000
1606138557.548,-81.055,-38.086,-28.809,-230.469,0.000
1606138557.552,-69.824,-35.156,-27.832,-227.539,0.000
1606138557.556,5.371,-26.367,-26.367,66.406,0.000
1606138557.559,41.016,-21.484,-28.809,232.910,0.000
1606138557.563,-0.977,-22.461,-22.461,85.449,0.000
1606138557.567,-67.871,-25.391,-14.160,-195.312,0.000
1606138557.571,-82.520,-12.695,-23.438,-252.441,0.000
1606138557.575,-16.113,-12.207,-25.879,1.953,0.000
1606138557.579,27.344,-32.715,-26.367,212.402,0.000
1606138557.583,-9.766,-41.504,-27.832,105.469,0.000
1606138557.587,-76.660,-35.645,-30.762,-186.523,0.000
1606138557.591,-81.055,-26.367,-31.250,-271.484,0.000
1606138557.595,-17.578,-30.273,-26.367,-43.457,0.000
1606138557.598,28.809,-28.320,-22.461,199.219,0.000
1606138557.602,9.766,-27.832,-27.832,141.113,0.000
1606138557.606,-59.570,-38.086,-37.598,-168.945,0.000
1606138557.610,-80.566,-29.785,-25.391,-295.898,0.000
1606138557.614,-26.367,-20.508,-23.926,-95.215,0.000
1606138557.618,23.438,-25.879,-36.621,168.457,0.000
1606138557.622,2.441,-33.691,-30.273,163.086,0.000
1606138557.626,-70.801,-37.109,-25.879,-119.629,0.000
1606138557.630,-100.098,-29.297,-22.949,-284.668,0.000
1606138557.634,-46.875,-25.391,-19.043,-116.699,0.000
1606138557.638,17.578,-25.879,-26.855,164.062,0.000
1606138557.641,9.766,-24.902,-32.715,190.918,0.000
1606138557.645,-57.129,-34.180,-23.438,-68.359,0.000
1606138557.649,-87.891,-22.949,-19.531,-253.418,0.000
1606138557.653,-46.875,-5.371,-26.367,-138.184,0.000
1606138557.657,22.461,-15.137,-13.184,151.367,0.000
1606138557.661,33.203,-23.926,-9.277,222.656,0.000
1606138557.665,-29.785,-29.785,-25.391,-28.320,0.000
1606138557.669,-78.125,-30.273,-29.785,-257.812,0.000
1606138557.673,-48.340,-32.227,-32.715,-181.641,0.000
1606138557.677,26.367,-30.273,-21.973,114.258,0.000
1606138557.681,48.828,-21.484,-11.230,235.840,0.000
1606138557.684,-15.625,-25.391,-20.508,25.879,0.000
1606138557.688,-81.543,-30.762,-24.902,-243.164,0.000
1606138557.692,-65.430,-27.832,-28.809,-216.309,0.000
1606138557.696,9.766,-30.762,-32.227,73.730,0.000
1606138557.700,36.133,-24.414,-27.832,224.121,0.000
1606138557.704,-22.949,-26.367,-30.273,32.715,0.000
1606138557.708,-82.520,-20.996,-32.227,-245.117,0.000
1606138557.712,-63.965,-5.371,-31.250,-238.281,0.000
1606138557.716,4.395,-20.508,-26.367,39.551,0.000
1606138557.720,40.039,-26.855,-22.461,230.469,0.000
1606138557.723,-1.953,-31.738,-24.902,93.262,0.000
1606138557.727,-75.195,-33.203,-29.785,-202.148,0.000
1606138557.731,-73.242,-25.879,-30.762,-252.930,0.000
1606138557.735,-12.695,-32.227,-24.902,-0.977,0.000
1606138557.739,29.785,-34.668,-19.043,222.656,0.000
1606138557.743,18.066,-23.926,-15.625,156.250,0.000
1606138557.747,-42.480,-22.461,-31.738,-146.484,0.000
1606138557.751,-74.707,-5.859,-42.480,-271.484,0.000
1606138557.755,-26.367,-9.277,-37.598,-55.176,0.000
1606138557.759,29.785,-22.461,-42.969,182.617,0.000
1606138557.763,6.836,-12.207,-53.223,123.047,0.000
1606138557.766,-74.219,-17.090,-52.734,-185.059,0.000
1606138557.770,-97.656,-19.043,-54.688,-311.523,0.000
1606138557.774,-22.949,-13.184,-50.781,-105.469,0.000
1606138557.778,38.086,-11.230,-44.922,173.828,0.000
1606138557.782,4.883,-14.160,-51.270,158.691,0.000
1606138557.786,-65.430,-23.438,-50.781,-138.672,0.000
1606138557.790,-88.379,-2.930,-35.645,-292.969,0.000
1606138557.794,-38.574,-0.488,-38.574,-136.719,0.000
1606138557.798,34.180,-20.020,-43.945,149.414,0.000
1606138557.802,34.180,-24.414,-43.945,188.477,0.000
1606138557.806,-42.480,-33.203,-56.152,-78.613,0.000
1606138557.809,-78.613,-25.879,-55.176,-277.832,0.000
1606138557.813,-26.855,-19.531,-39.551,-153.809,0.000
1606138557.817,31.738,-20.996,-34.180,139.648,0.000
1606138557.821,40.039,-16.113,-31.250,211.426,0.000
1606138557.825,-18.555,-19.043,-32.715,-26.855,0.000
1606138557.829,-68.848,-34.180,-43.457,-264.160,0.000
1606138557.833,-36.133,-32.715,-44.922,-191.895,0.000
1606138557.837,33.203,-18.066,-32.227,122.559,0.000
1606138557.841,50.781,-21.973,-29.785,238.770,0.000
1606138557.845,-10.254,-39.551,-39.062,13.672,0.000
1606138557.848,-66.895,-25.391,-37.598,-245.605,0.000
1606138557.852,-44.922,-9.277,-44.922,-204.590,0.000
1606138557.856,28.320,-17.578,-48.828,90.332,0.000
1606138557.860,50.293,-22.949,-37.598,230.469,0.000
1606138557.864,2.441,-20.020,-29.297,56.152,0.000
1606138557.868,-64.453,-23.926,-28.320,-215.332,0.000
1606138557.872,-69.336,-36.133,-35.645,-236.816,0.000
1606138557.876,1.953,-29.297,-33.691,43.945,0.000
1606138557.880,36.133,-26.367,-30.273,237.793,0.000
1606138557.884,-11.230,-39.551,-23.926,93.750,0.000
1606138557.888,-76.172,-41.992,-26.855,-202.148,0.000
1606138557.891,-79.102,-31.738,-33.203,-259.766,0.000
1606138557.895,-10.254,-31.738,-29.297,-2.930,0.000
1606138557.899,41.504,-25.879,-29.297,223.633,0.000
1606138557.903,12.695,-17.578,-21.484,134.277,0.000
1606138557.907,-65.430,-25.879,-26.855,-157.715,0.000
1606138557.911,-86.914,-36.621,-38.086,-264.648,0.000
1606138557.915,-27.344,-36.133,-38.574,-44.922,0.000
1606138557.919,25.879,-26.855,-33.203,202.637,0.000
1606138557.923,10.254,-22.461,-31.250,148.926,0.000
1606138557.927,-61.523,-29.785,-35.156,-136.230,0.000
1606138557.931,-90.820,-19.043,-40.039,-263.672,0.000
1606138557.934,-39.062,-24.414,-41.016,-77.637,0.000
1606138557.938,19.043,-40.039,-35.156,179.688,0.000
1606138557.942,1.465,-41.504,-28.809,175.293,0.000
1606138557.946,-71.289,-36.621,-27.832,-104.980,0.000
1606138557.950,-103.516,-23.926,-30.762,-268.555,0.000
1606138557.954,-52.734,-26.367,-29.297,-114.258,0.000
1606138557.958,18.555,-29.785,-27.832,157.715,0.000
1606138557.962,13.672,-27.344,-22.949,189.941,0.000
1606138557.966,-57.617,-32.715,-19.531,-77.148,0.000
1606138557.970,-99.609,-38.086,-35.645,-278.809,0.000
1606138557.973,-58.105,-34.180,-41.016,-164.062,0.000
1606138557.977,20.020,-23.438,-24.902,143.066,0.000
1606138557.981,26.367,-30.762,-22.949,220.215,0.000
1606138557.985,-46.875,-51.758,-31.250,-32.715,0.000
1606138557.989,-84.473,-35.645,-33.691,-262.695,0.000
1606138557.993,-55.176,-15.625,-32.227,-188.965,0.000
1606138557.997,4.395,-21.973,-27.344,105.469,0.000
1606138558.001,24.414,-22.949,-28.809,216.309,0.000
1606138558.005,-40.039,-22.461,-32.715,7.324,0.000
1606138558.009,-96.680,-21.484,-29.785,-241.211,0.000
1606138558.013,-77.148,-24.414,-29.785,-214.844,0.000
1606138558.016,-11.719,-28.809,-38.574,62.012,0.000
1606138558.020,17.090,-29.785,-35.645,215.332,0.000
1606138558.024,-27.344,-33.691,-29.785,58.105,0.000
1606138558.028,-90.332,-27.344,-39.062,-220.215,0.000
1606138558.032,-76.172,-8.789,-40.039,-238.770,0.000
1606138558.036,-2.441,-16.113,-30.273,30.762,0.000
1606138558.040,28.320,-31.738,-27.832,202.637,0.000
1606138558.044,-18.555,-33.203,-24.414,62.012,0.000
1606138558.048,-84.961,-29.297,-27.344,-227.539,0.000
1606138558.052,-81.543,-23.438,-31.250,-274.902,0.000
1606138558.056,-13.184,-23.438,-23.438,-15.137,0.000
1606138558.059,35.645,-27.832,-20.020,208.984,0.000
1606138558.063,2.441,-42.480,-23.438,106.445,0.000
1606138558.067,-73.730,-45.410,-26.855,-182.129,0.000
1606138558.071,-86.914,-26.367,-26.855,-262.207,0.000
1606138558.075,-25.391,-29.297,-19.043,-52.246,0.000
1606138558.079,31.738,-28.809,-13.184,193.359,0.000
1606138558.083,9.766,-18.066,-22.949,143.555,0.000
1606138558.087,-69.824,-19.531,-27.344,-159.180,0.000
1606138558.091,-95.703,-26.367,-29.297,-286.621,0.000
1606138558.095,-44.434,-31.738,-28.320,-87.891,0.000
1606138558.098,9.766,-32.715,-25.879,169.922,0.000
1606138558.102,-0.977,-31.250,-21.484,164.062,0.000
1606138558.106,-70.312,-31.738,-21.484,-116.699,0.000
1606138558.110,-107.422,-35.645,-23.926,-284.180,0.000
1606138558.114,-53.711,-31.738,-19.531,-123.535,0.000
1606138558.118,23.926,-22.461,-15.625,169.434,0.000
1606138558.122,19.531,-28.320,-19.531,204.102,0.000
1606138558.126,-53.711,-36.621,-24.414,-78.125,0.000
1606138558.130,-89.844,-25.391,-31.250,-287.109,0.000
1606138558.134,-45.410,-22.461,-29.785,-165.039,0.000
1606138558.138,16.113,-30.762,-16.602,135.254,0.000
1606138558.141,19.043,-29.785,-20.508,209.473,0.000
1606138558.145,-45.898,-38.574,-28.320,-38.574,0.000
1606138558.149,-93.750,-41.992,-21.973,-261.230,0.000
1606138558.153,-57.129,-41.016,-20.996,-177.246,0.000
1606138558.157,12.695,-40.527,-28.320,108.887,0.000
1606138558.161,27.832,-35.645,-25.879,223.633,0.000
1606138558.165,-30.762,-44.434,-28.320,15.625,0.000
1606138558.169,-94.238,-37.109,-32.227,-249.023,0.000
1606138558.173,-75.684,-25.879,-28.809,-224.121,0.000
1606138558.177,2.930,-31.250,-27.832,65.918,0.000
1606138558.181,25.391,-29.785,-27.344,227.051,0.000
1606138558.184,-29.785,-30.762,-27.832,58.105,0.000
1606138558.188,-94.238,-30.273,-29.785,-219.238,0.000
1606138558.192,-85.938,-29.785,-27.344,-233.887,0.000
1606138558.196,-6.836,-23.438,-21.484,47.363,0.000
1606138558.200,29.785,-25.391,-21.973,229.492,0.000
1606138558.204,-20.508,-35.645,-19.531,87.891,0.000
1606138558.208,-93.262,-35.645,-25.879,-205.078,0.000
1606138558.212,-95.215,-30.273,-32.227,-263.672,0.000
1606138558.216,-25.879,-28.809,-26.367,-10.742,0.000
1606138558.220,21.973,-26.855,-23.926,203.613,0.000
1606138558.223,-7.324,-28.809,-18.555,106.934,0.000
1606138558.227,-80.078,-28.320,-29.297,-186.523,0.000
1606138558.231,-87.891,-18.555,-37.109,-276.855,0.000
1606138558.235,-14.160,-22.949,-22.949,-38.086,0.000
1606138558.239,38.086,-29.297,-16.602,198.242,0.000
1606138558.243,15.137,-25.391,-24.902,144.531,0.000
1606138558.247,-55.176,-31.250,-34.668,-141.113,0.000
1606138558.251,-79.102,-37.109,-34.668,-279.785,0.000
1606138558.255,-19.531,-30.762,-26.855,-83.008,0.000
1606138558.259,47.852,-16.602,-21.484,196.289,0.000
1606138558.263,36.621,-20.508,-21.484,184.570,0.000
1606138558.266,-52.246,-31.738,-29.297,-105.957,0.000
1606138558.270,-94.727,-24.902,-31.250,-273.926,0.000
1606138558.274,-46.387,-31.250,-25.879,-119.141,0.000
1606138558.278,10.742,-42.969,-26.367,161.133,0.000
1606138558.282,0.000,-36.621,-29.297,191.895,0.000
1606138558.286,-74.219,-37.598,-30.762,-78.125,0.000
1606138558.290,-114.258,-40.039,-42.480,-277.832,0.000
1606138558.294,-66.895,-30.762,-39.062,-155.273,0.000
1606138558.298,12.695,-25.391,-26.367,142.090,0.000
1606138558.302,21.484,-30.762,-26.367,218.262,0.000
1606138558.306,-42.969,-32.715,-28.320,-16.113,0.000
1606138558.309,-96.191,-14.648,-37.598,-247.070,0.000
1606138558.313,-70.801,-5.859,-40.527,-182.617,0.000
1606138558.317,10.742,-17.578,-30.273,115.723,0.000
1606138558.321,28.809,-23.438,-23.438,230.469,0.000
1606138558.325,-28.320,-26.367,-20.996,15.625,0.000
1606138558.329,-80.566,-31.250,-18.555,-237.793,0.000
1606138558.333,-71.289,-44.434,-28.320,-225.098,0.000
1606138558.337,-1.953,-41.992,-33.203,55.664,0.000
1606138558.341,29.297,-31.250,-28.320,209.961,0.000
1606138558.345,-19.531,-33.203,-28.320,36.133,0.000
1606138558.348,-75.195,-26.367,-27.832,-230.469,0.000
1606138558.352,-63.477,-24.902,-28.320,-248.047,0.000
1606138558.356,3.418,-30.762,-26.367,28.320,0.000
1606138558.360,36.133,-33.203,-22.461,211.914,0.000
1606138558.364,-17.578,-42.480,-32.715,68.848,0.000
1606138558.368,-88.379,-41.016,-36.133,-210.449,0.000
1606138558.372,-94.727,-43.945,-25.391,-265.625,0.000
1606138558.376,-31.250,-43.457,-27.832,-18.555,0.000
1606138558.380,12.207,-36.621,-32.227,202.148,0.000
1606138558.384,-28.809,-36.133,-28.320,111.328,0.000
1606138558.388,-101.562,-38.574,-35.645,-180.176,0.000
1606138558.391,-118.164,-42.480,-41.992,-283.203,0.000
1606138558.395,-54.688,-39.551,-31.738,-58.594,0.000
1606138558.399,5.859,-31.738,-21.973,193.848,0.000
1606138558.403,-18.066,-28.320,-23.438,143.066,0.000
1606138558.407,-89.844,-33.203,-34.668,-156.738,0.000
1606138558.411,-102.539,-32.227,-30.762,-289.551,0.000
1606138558.415,-44.434,-31.738,-26.855,-99.121,0.000
1606138558.419,18.555,-32.227,-32.227,170.410,0.000
1606138558.423,7.812,-34.180,-32.227,164.551,0.000
1606138558.427,-63.965,-32.227,-36.133,-125.977,0.000
1606138558.431,-93.750,-24.414,-39.551,-281.738,0.000
1606138558.434,-42.480,-24.414,-33.691,-122.070,0.000
1606138558.438,27.832,-29.785,-27.832,140.137,0.000
1606138558.442,26.367,-33.691,-33.691,180.176,0.000
1606138558.446,-38.086,-40.039,-30.762,-68.359,0.000
1606138558.450,-77.637,-31.738,-28.809,-279.297,0.000
1606138558.454,-49.805,-25.879,-31.250,-168.945,0.000
1606138558.458,20.996,-24.902,-21.973,134.766,0.000
1606138558.462,34.668,-19.531,-20.020,215.332,0.000
1606138558.466,-34.180,-27.832,-30.762,-28.320,0.000
1606138558.470,-88.379,-30.762,-32.227,-267.090,0.000
1606138558.473,-62.500,-30.273,-31.250,-192.871,0.000
1606138558.477,13.184,-30.762,-24.414,112.305,0.000
1606138558.481,25.879,-28.809,-28.809,214.844,0.000
1606138558.485,-42.480,-32.227,-38.574,1.953,0.000
1606138558.489,-94.238,-35.156,-36.621,-240.723,0.000
1606138558.493,-66.406,-27.344,-38.574,-203.125,0.000
1606138558.497,6.836,-21.973,-34.180,85.938,0.000
1606138558.501,23.438,-31.250,-21.973,226.562,0.000
1606138558.505,-50.293,-43.945,-17.578,42.480,0.000
1606138558.509,-100.586,-38.086,-28.320,-231.445,0.000
1606138558.513,-76.660,-35.156,-36.133,-247.559,0.000
1606138558.516,-20.508,-44.434,-22.461,25.879,0.000
1606138558.520,20.020,-42.969,-17.090,213.867,0.000
1606138558.524,-20.020,-35.156,-24.414,75.195,0.000
1606138558.528,-87.402,-38.574,-21.973,-204.590,0.000
1606138558.532,-80.078,-47.363,-28.809,-253.906,0.000
1606138558.536,-7.324,-44.922,-31.250,-1.465,0.000
1606138558.540,37.598,-31.738,-36.621,214.355,0.000
1606138558.544,4.883,-28.320,-37.109,110.840,0.000
1606138558.548,-62.500,-30.762,-23.926,-181.641,0.000
1606138558.552,-71.777,-26.367,-28.320,-270.508,0.000
1606138558.556,-9.277,-20.508,-23.438,-33.691,0.000
1606138558.559,40.527,-22.949,-19.531,205.566,0.000
1606138558.563,11.719,-26.855,-35.156,145.020,0.000
1606138558.567,-67.871,-32.715,-38.574,-155.762,0.000
1606138558.571,-93.262,-32.227,-34.180,-290.039,0.000
1606138558.575,-39.062,-32.227,-34.668,-87.402,0.000
1606138558.579,17.578,-32.715,-31.250,177.734,0.000
1606138558.583,1.953,-30.273,-33.691,164.062,0.000
1606138558.587,-68.848,-33.691,-37.109,-108.887,0.000
1606138558.591,-104.004,-45.898,-42.969,-281.250,0.000
1606138558.595,-52.734,-45.898,-32.715,-133.789,0.000
1606138558.598,20.996,-35.156,-14.648,167.480,0.000
1606138558.602,19.043,-30.273,-16.113,201.660,0.000
1606138558.606,-44.922,-32.227,-18.555,-72.754,0.000
1606138558.610,-88.867,-39.551,-22.949,-272.949,0.000
1606138558.614,-51.270,-35.156,-26.367,-160.645,0.000
1606138558.618,26.855,-33.203,-20.996,138.184,0.000
1606138558.622,40.527,-32.715,-23.926,221.680,0.000
1606138558.626,-32.227,-33.203,-35.645,-27.344,0.000
1606138558.630,-95.215,-41.992,-44.922,-265.625,0.000
1606138558.634,-68.359,-39.551,-42.480,-191.406,0.000
1606138558.638,0.488,-37.109,-35.156,93.262,0.000
1606138558.641,13.184,-35.645,-29.785,206.055,0.000
1606138558.645,-46.875,-33.691,-28.320,-1.465,0.000
1606138558.649,-100.586,-39.551,-31.738,-265.625,0.000
1606138558.653,-72.754,-31.738,-32.227,-226.074,0.000
1606138558.657,0.488,-20.996,-24.902,76.172,0.000
1606138558.661,24.902,-32.715,-24.414,221.191,0.000
1606138558.665,-19.043,-33.203,-31.250,48.340,0.000
1606138558.669,-79.590,-31.738,-39.551,-225.586,0.000
1606138558.673,-64.453,-37.598,-40.527,-238.770,0.000
1606138558.677,12.695,-30.762,-35.645,48.340,0.000
1606138558.681,50.781,-20.996,-26.855,243.652,0.000
1606138558.684,10.742,-17.090,-16.113,115.234,0.000
1606138558.688,-65.918,-26.855,-25.879,-188.965,0.000
1606138558.692,-82.031,-38.574,-39.062,-269.531,0.000
1606138558.696,-15.137,-32.227,-26.367,-4.883,0.000
1606138558.700,36.133,-20.996,-20.996,209.473,0.000
1606138558.704,6.348,-22.949,-25.879,110.352,0.000
1606138558.708,-64.453,-31.738,-24.902,-177.734,0.000
1606138558.712,-75.195,-33.691,-22.461,-267.578,0.000
1606138558.716,-15.137,-20.996,-25.391,-44.434,0.000
1606138558.720,31.250,-20.020,-23.926,185.059,0.000
1606138558.723,17.090,-20.996,-19.531,143.066,0.000
1606138558.727,-64.941,-27.344,-26.367,-142.578,0.000
1606138558.731,-102.539,-30.273,-26.855,-286.621,0.000
1606138558.735,-44.922,-18.066,-19.531,-90.332,0.000
1606138558.739,11.230,-14.648,-25.879,175.293,0.000
1606138558.743,-4.883,-15.625,-26.855,166.992,0.000
1606138558.747,-76.660,-20.996,-27.832,-115.234,0.000
1606138558.751,-100.586,-27.344,-36.621,-281.250,0.000
1606138558.755,-35.156,-29.785,-34.668,-119.629,0.000
1606138558.759,15.625,-27.832,-26.855,168.945,0.000
1606138558.763,-6.348,-31.250,-15.625,192.383,0.000
1606138558.766,-60.059,-40.527,-15.625,-84.961,0.000
1606138558.770,-91.309,-35.645,-18.555,-275.391,0.000
1606138558.774,-55.664,-26.855,-21.484,-142.578,0.000
1606138558.778,13.672,-28.320,-31.738,140.137,0.000
1606138558.782,28.809,-26.367,-28.809,204.590,0.000
1606138558.786,-31.250,-28.320,-30.273,-32.227,0.000
1606138558.790,-90.820,-42.969,-30.273,-258.789,0.000
1606138558.794,-57.129,-47.852,-28.809,-186.523,0.000
1606138558.798,23.438,-34.668,-20.996,111.816,0.000
1606138558.802,38.086,-31.738,-12.695,226.074,0.000
1606138558.806,-23.926,-35.645,-20.020,7.812,0.000
1606138558.809,-82.520,-30.273,-21.484,-251.465,0.000
1606138558.813,-68.848,-23.926,-11.230,-221.680,0.000
1606138558.817,4.395,-18.555,-11.719,67.383,0.000
1606138558.821,28.809,-23.926,-24.902,217.773,0.000
1606138558.825,-22.949,-30.273,-20.996,41.992,0.000
1606138558.829,-90.820,-38.086,-26.367,-238.281,0.000
1606138558.833,-83.496,-35.156,-31.738,-251.465,0.000
1606138558.837,-4.395,-20.996,-27.832,33.203,0.000
1606138558.841,31.738,-21.484,-26.367,221.680,0.000
1606138558.845,-12.207,-24.902,-19.043,86.914,0.000
1606138558.848,-71.777,-19.043,-18.066,-192.871,0.000
1606138558.852,-73.730,-23.438,-20.508,-243.164,0.000
1606138558.856,-1.953,-32.715,-15.625,15.137,0.000
1606138558.860,47.852,-25.879,-5.371,238.281,0.000
1606138558.864,15.625,-19.531,-9.277,135.254,0.000
1606138558.868,-53.223,-32.715,-27.344,-166.504,0.000
1606138558.872,-72.266,-37.598,-30.273,-265.625,0.000
1606138558.876,-1.953,-24.414,-26.367,-37.109,0.000
1606138558.880,61.035,-16.113,-12.695,213.867,0.000
1606138558.884,36.133,-19.043,-13.672,162.109,0.000
1606138558.888,-41.504,-23.438,-30.273,-133.301,0.000
1606138558.891,-66.895,-24.902,-31.738,-262.695,0.000
1606138558.895,-15.137,-23.438,-26.367,-71.289,0.000
1606138558.899,46.387,-22.949,-22.949,187.500,0.000
1606138558.903,30.273,-29.785,-21.484,180.664,0.000
1606138558.907,-49.805,-38.086,-25.879,-105.469,0.000
1606138558.911,-87.402,-36.621,-35.645,-289.062,0.000
1606138558.915,-36.621,-22.461,-32.715,-121.094,0.000
1606138558.919,28.809,-21.484,-25.879,160.156,0.000
1606138558.923,16.602,-31.738,-31.250,179.199,0.000
1606138558.927,-60.059,-42.969,-38.574,-95.215,0.000
1606138558.931,-103.516,-35.645,-48.340,-293.457,0.000
1606138558.934,-67.871,-29.785,-43.945,-170.410,0.000
1606138558.938,-2.441,-39.062,-32.715,111.328,0.000
1606138558.942,6.348,-30.273,-29.297,190.430,0.000
1606138558.946,-42.969,-33.691,-31.250,-40.039,0.000
1606138558.950,-94.238,-44.922,-33.691,-269.043,0.000
1606138558.954,-76.172,-32.227,-34.668,-197.266,0.000
1606138558.958,2.441,-15.625,-31.738,97.656,0.000
1606138558.962,27.344,-9.766,-25.391,222.168,0.000
1606138558.966,-29.297,-20.508,-27.344,14.160,0.000
1606138558.970,-87.402,-34.180,-36.133,-248.047,0.000
1606138558.973,-69.824,-32.715,-34.180,-218.750,0.000
1606138558.977,14.648,-20.996,-22.949,82.031,0.000
1606138558.981,48.340,-21.484,-16.113,236.328,0.000
1606138558.985,-11.230,-32.715,-20.508,54.199,0.000
1606138558.989,-75.195,-32.715,-33.203,-226.562,0.000
1606138558.993,-68.359,-27.344,-38.574,-239.258,0.000
1606138558.997,-11.719,-29.785,-34.180,31.738,0.000
1606138559.001,18.555,-28.809,-23.926,217.285,0.000
1606138559.005,-14.160,-28.320,-28.809,96.680,0.000
1606138559.009,-81.543,-26.855,-31.250,-193.848,0.000
1606138559.013,-82.520,-22.461,-24.902,-266.602,0.000
1606138559.016,-5.859,-25.391,-18.555,-7.324,0.000
1606138559.020,24.414,-29.785,-11.230,215.820,0.000
1606138559.024,-13.184,-28.809,-11.719,123.535,0.000
1606138559.028,-78.613,-29.785,-19.043,-174.316,0.000
1606138559.032,-94.238,-31.250,-29.297,-269.043,0.000
1606138559.036,-36.621,-30.762,-29.785,-47.363,0.000
1606138559.040,17.578,-26.855,-10.254,201.660,0.000
1606138559.044,-5.371,-24.414,-15.625,160.645,0.000
1606138559.048,-81.543,-32.227,-34.180,-157.227,0.000
1606138559.052,-96.680,-37.598,-30.762,-280.273,0.000
1606138559.056,-32.227,-34.668,-21.973,-63.965,0.000
1606138559.059,29.297,-34.180,-21.484,197.266,0.000
1606138559.063,13.184,-35.645,-23.438,178.711,0.000
1606138559.067,-57.129,-32.227,-21.484,-100.586,0.000
1606138559.071,-88.379,-27.832,-19.531,-264.160,0.000
1606138559.075,-40.527,-22.949,-21.484,-113.281,0.000
1606138559.079,24.414,-26.367,-20.996,164.062,0.000
1606138559.083,17.578,-34.180,-21.973,191.406,0.000
1606138559.087,-47.852,-36.133,-35.645,-77.148,0.000
1606138559.091,-84.473,-38.086,-41.504,-267.578,0.000
1606138559.095,-46.875,-45.410,-31.738,-147.461,0.000
1606138559.098,21.973,-38.574,-30.762,144.531,0.000
1606138559.102,26.855,-22.461,-30.273,207.031,0.000
1606138559.106,-46.875,-31.250,-31.738,-52.734,0.000
1606138559.110,-97.168,-32.715,-37.109,-276.855,0.000
1606138559.114,-65.430,-33.203,-32.227,-200.195,0.000
1606138559.118,13.672,-36.133,-27.344,103.027,0.000
1606138559.122,35.156,-27.344,-26.367,222.656,0.000
1606138559.126,-28.320,-30.762,-25.391,7.812,0.000
1606138559.130,-75.684,-39.062,-23.926,-243.164,0.000
1606138559.134,-51.270,-34.668,-26.855,-208.984,0.000
1606138559.138,3.418,-35.645,-29.297,72.754,0.000
1606138559.141,30.273,-37.109,-30.273,216.797,0.000
1606138559.145,-9.277,-29.297,-25.391,52.734,0.000
1606138559.149,-72.266,-23.438,-21.973,-205.566,0.000
1606138559.153,-73.242,-25.879,-35.156,-222.168,0.000
1606138559.157,-5.859,-29.297,-26.367,33.203,0.000
1606138559.161,28.320,-31.738,-23.926,205.078,0.000
1606138559.165,-17.090,-33.691,-37.598,73.242,0.000
1606138559.169,-82.031,-31.250,-34.668,-200.684,0.000
1606138559.173,-80.078,-32.715,-34.180,-252.441,0.000
1606138559.177,-6.348,-34.180,-34.668,-7.812,0.000
1606138559.181,43.457,-24.414,-26.367,213.379,0.000
1606138559.184,3.906,-24.414,-26.855,123.535,0.000
1606138559.188,-74.707,-36.133,-38.086,-181.641,0.000
1606138559.192,-83.984,-37.598,-31.250,-274.414,0.000
1606138559.196,-18.555,-25.391,-21.973,-38.086,0.000
1606138559.200,33.203,-17.090,-24.414,199.219,0.000
1606138559.204,9.277,-29.297,-26.855,143.555,0.000
1606138559.208,-58.105,-33.691,-29.297,-132.324,0.000
1606138559.212,-75.195,-17.090,-35.645,-255.859,0.000
1606138559.216,-33.203,-15.137,-44.434,-87.402,0.000
1606138559.220,21.973,-20.508,-36.621,162.598,0.000
1606138559.223,20.020,-17.578,-38.086,157.227,0.000
1606138559.227,-51.758,-7.812,-47.363,-123.535,0.000
1606138559.231,-79.102,-7.324,-44.922,-287.598,0.000
1606138559.235,-11.719,-3.906,-45.898,-122.559,0.000
1606138559.239,47.852,-2.930,-53.223,170.410,0.000
1606138559.243,37.598,-8.789,-50.781,210.449,0.000
1606138559.247,-15.625,-19.531,-44.434,-63.965,0.000
1606138559.251,-66.895,-23.438,-48.340,-272.949,0.000
1606138559.255,-40.527,-18.555,-41.504,-158.691,0.000
1606138559.259,44.434,-22.461,-33.203,146.973,0.000
1606138559.263,54.199,-20.996,-37.598,228.516,0.000
1606138559.266,-13.184,-18.555,-41.504,-16.113,0.000
1606138559.270,-66.406,-26.367,-44.434,-248.047,0.000
1606138559.274,-40.039,-28.320,-42.969,-180.664,0.000
1606138559.278,38.574,-14.160,-38.574,127.441,0.000
1606138559.282,61.035,-17.578,-36.133,254.883,0.000
1606138559.286,2.441,-22.461,-38.574,45.898,0.000
1606138559.290,-56.641,-20.508,-40.527,-211.914,0.000
1606138559.294,-43.457,-28.320,-41.016,-188.965,0.000
1606138559.298,28.320,-25.391,-31.738,90.332,0.000
1606138559.302,55.664,-22.461,-28.809,233.887,0.000
1606138559.306,-0.977,-35.645,-38.574,62.500,0.000
1606138559.309,-71.777,-44.434,-48.828,-219.238,0.000
1606138559.313,-70.801,-40.039,-47.852,-235.352,0.000
1606138559.317,0.000,-34.668,-31.250,48.828,0.000
1606138559.321,37.598,-27.832,-21.484,228.516,0.000
1606138559.325,-9.766,-26.855,-27.832,90.332,0.000
1606138559.329,-77.637,-39.551,-40.039,-195.312,0.000
1606138559.333,-85.938,-47.852,-47.363,-253.418,0.000
1606138559.337,-12.207,-34.180,-36.133,11.230,0.000
1606138559.341,52.734,-20.020,-24.414,218.750,0.000
1606138559.345,3.418,-29.297,-33.691,114.746,0.000
1606138559.348,-77.148,-31.250,-37.598,-174.805,0.000
1606138559.352,-76.172,-27.832,-34.668,-264.160,0.000
1606138559.356,-6.836,-33.203,-27.344,-32.715,0.000
1606138559.360,48.340,-27.832,-24.414,213.379,0.000
1606138559.364,19.531,-28.320,-30.762,158.691,0.000
1606138559.368,-52.246,-29.297,-31.738,-132.812,0.000
1606138559.372,-76.660,-24.902,-26.367,-262.695,0.000
1606138559.376,-22.949,-28.809,-31.250,-71.289,0.000
1606138559.380,36.621,-34.668,-37.598,187.012,0.000
1606138559.384,20.996,-25.879,-30.762,194.336,0.000
1606138559.388,-47.852,-16.602,-34.668,-91.309,0.000
1606138559.391,-79.102,-20.996,-35.645,-280.762,0.000
1606138559.395,-30.273,-25.391,-34.180,-120.605,0.000
1606138559.399,32.715,-20.020,-29.297,169.434,0.000
1606138559.403,24.902,-27.344,-27.344,207.031,0.000
1606138559.407,-50.781,-37.109,-37.598,-72.266,0.000
1606138559.411,-90.820,-30.273,-33.203,-274.414,0.000
1606138559.415,-46.875,-28.809,-26.367,-140.137,0.000
1606138559.419,21.484,-20.020,-30.273,153.320,0.000
1606138559.423,28.320,-19.043,-37.109,213.867,0.000
1606138559.427,-34.668,-37.598,-45.898,-26.855,0.000
1606138559.431,-85.449,-29.785,-44.434,-246.582,0.000
1606138559.434,-64.453,-20.996,-36.133,-171.875,0.000
1606138559.438,7.324,-28.320,-29.785,114.258,0.000
1606138559.442,26.855,-24.414,-26.367,214.355,0.000
1606138559.446,-31.738,-23.926,-27.832,8.301,0.000
1606138559.450,-87.891,-34.180,-35.645,-242.188,0.000
1606138559.454,-69.336,-37.109,-36.133,-218.750,0.000
1606138559.458,6.348,-25.879,-29.785,66.406,0.000
1606138559.462,37.109,-24.902,-30.762,231.445,0.000
1606138559.466,-14.160,-39.551,-33.691,58.105,0.000
1606138559.470,-80.078,-38.086,-30.762,-230.469,0.000
1606138559.473,-68.359,-29.297,-33.691,-241.699,0.000
1606138559.477,5.859,-27.344,-36.621,42.480,0.000
1606138559.481,22.461,-24.902,-31.250,221.680,0.000
1606138559.485,-28.809,-33.203,-27.344,76.172,0.000
1606138559.489,-92.285,-21.973,-35.645,-215.820,0.000
1606138559.493,-98.633,-15.137,-42.480,-267.578,0.000
1606138559.497,-30.273,-34.180,-27.344,-1.953,0.000
1606138559.501,21.973,-26.367,-19.531,214.844,0.000
1606138559.505,-11.719,-24.414,-24.902,113.770,0.000
1606138559.509,-90.332,-32.227,-31.738,-188.477,0.000
1606138559.513,-100.586,-33.691,-34.180,-288.574,0.000
1606138559.516,-33.203,-36.133,-29.297,-60.547,0.000
1606138559.520,26.855,-31.738,-23.926,199.707,0.000
1606138559.524,7.812,-32.715,-23.926,156.738,0.000
1606138559.528,-63.965,-26.367,-24.902,-150.879,0.000
1606138559.532,-90.332,-0.488,-34.180,-292.969,0.000
1606138559.536,-35.645,-14.160,-34.668,-93.262,0.000
1606138559.540,42.480,-28.809,-20.020,198.242,0.000
1606138559.544,34.668,-25.879,-22.461,191.406,0.000
1606138559.548,-59.570,-35.156,-30.273,-112.793,0.000
1606138559.552,-100.098,-42.480,-29.297,-286.621,0.000
1606138559.556,-52.734,-42.969,-26.855,-121.094,0.000
1606138559.559,12.695,-32.715,-19.043,164.062,0.000
1606138559.563,13.672,-27.344,-20.508,200.195,0.000
1606138559.567,-53.711,-32.227,-35.645,-68.848,0.000
1606138559.571,-99.121,-38.574,-41.992,-281.250,0.000
1606138559.575,-62.012,-45.410,-37.598,-159.668,0.000
1606138559.579,18.555,-38.574,-26.855,143.066,0.000
1606138559.583,29.297,-39.062,-19.043,208.008,0.000
1606138559.587,-45.898,-45.410,-28.320,-40.527,0.000
1606138559.591,-98.145,-38.574,-34.180,-266.602,0.000
1606138559.595,-61.035,-36.133,-24.414,-186.523,0.000
1606138559.598,12.207,-31.250,-15.625,110.840,0.000
1606138559.602,20.020,-30.762,-21.484,208.984,0.000
1606138559.606,-44.922,-39.551,-33.691,-10.742,0.000
1606138559.610,-95.703,-38.086,-37.109,-261.719,0.000
1606138559.614,-67.383,-32.715,-29.785,-229.004,0.000
1606138559.618,15.137,-29.297,-25.391,80.566,0.000
1606138559.622,47.363,-33.691,-22.949,245.605,0.000
1606138559.626,-9.766,-42.969,-26.855,54.199,0.000
1606138559.630,-83.496,-26.367,-43.457,-242.676,0.000
1606138559.634,-78.613,-11.230,-43.945,-251.465,0.000
1606138559.638,-5.859,-37.109,-33.691,35.645,0.000
1606138559.641,24.414,-44.922,-38.086,220.703,0.000
1606138559.645,-12.207,-43.457,-38.086,78.125,0.000
1606138559.649,-74.219,-44.434,-32.227,-205.078,0.000
1606138559.653,-81.055,-34.180,-27.344,-246.094,0.000
1606138559.657,-13.184,-31.738,-26.367,0.000,0.000
1606138559.661,28.320,-30.273,-30.762,205.566,0.000
1606138559.665,-7.324,-32.715,-32.227,124.512,0.000
1606138559.669,-84.961,-28.320,-31.738,-180.664,0.000
1606138559.673,-97.168,-21.484,-31.250,-279.785,0.000
1606138559.677,-26.367,-32.715,-29.785,-42.969,0.000
1606138559.681,29.785,-35.156,-26.855,196.777,0.000
1606138559.684,2.930,-37.598,-32.715,138.672,0.000
1606138559.688,-74.219,-43.457,-36.621,-156.738,0.000
1606138559.692,-101.074,-43.945,-37.109,-288.086,0.000
1606138559.696,-40.527,-37.109,-28.320,-83.496,0.000
1606138559.700,23.438,-32.227,-20.508,190.430,0.000
1606138559.704,4.883,-36.133,-23.926,183.105,0.000
1606138559.708,-68.359,-31.738,-34.180,-108.887,0.000
1606138559.712,-91.797,-21.484,-39.062,-269.043,0.000
1606138559.716,-44.434,-36.621,-33.691,-106.934,0.000
1606138559.720,14.648,-33.203,-25.391,168.457,0.000
1606138559.723,11.719,-28.320,-28.320,194.336,0.000
1606138559.727,-62.500,-30.273,-31.738,-77.148,0.000
1606138559.731,-98.633,-25.879,-32.715,-271.484,0.000
1606138559.735,-53.223,-30.273,-40.527,-156.738,0.000
1606138559.739,20.508,-26.855,-29.785,144.531,0.000
1606138559.743,35.156,-21.484,-23.438,227.539,0.000
1606138559.747,-31.250,-25.879,-36.133,-35.645,0.000
1606138559.751,-83.496,-19.531,-33.691,-273.438,0.000
1606138559.755,-44.434,-27.832,-31.738,-187.500,0.000
1606138559.759,32.227,-34.180,-38.574,105.469,0.000
1606138559.763,45.410,-30.273,-33.691,201.660,0.000
1606138559.766,-18.066,-29.785,-34.668,-13.672,0.000
1606138559.770,-81.543,-22.461,-39.062,-266.602,0.000
1606138559.774,-66.406,-23.438,-29.297,-217.773,0.000
1606138559.778,4.883,-28.320,-19.043,72.754,0.000
1606138559.782,31.738,-20.996,-16.113,209.473,0.000
1606138559.786,-19.531,-23.926,-20.020,40.527,0.000
1606138559.790,-87.402,-1.953,-30.762,-228.027,0.000
1606138559.794,-84.473,-3.906,-24.902,-245.117,0.000
1606138559.798,-14.160,-28.809,-14.648,35.645,0.000
1606138559.802,15.625,-21.484,-24.414,220.703,0.000
1606138559.806,-40.039,-34.668,-27.344,71.289,0.000
1606138559.809,-117.188,-23.438,-30.762,-220.215,0.000
1606138559.813,-129.395,-1.953,-39.062,-291.992,0.000
1606138559.817,-63.965,-26.367,-31.250,-48.340,0.000
1606138559.821,-6.348,-32.227,-21.973,188.965,0.000
1606138559.825,-35.156,-28.320,-20.996,97.656,0.000
1606138559.829,-123.047,-34.180,-27.832,-214.844,0.000
1606138559.833,-132.324,-33.203,-34.668,-312.988,0.000
1606138559.837,-54.688,-27.832,-18.555,-71.777,0.000
1606138559.841,6.348,-18.555,-0.488,184.082,0.000
1606138559.845,-18.066,-27.344,-13.672,126.953,0.000
1606138559.848,-91.797,-26.367,-33.203,-166.016,0.000
1606138559.852,-109.863,-20.508,-35.645,-290.039,0.000
1606138559.856,-51.758,-37.109,-33.691,-100.098,0.000
1606138559.860,20.508,-34.668,-17.090,171.875,0.000
1606138559.864,15.137,-33.691,-9.277,160.156,0.000
1606138559.868,-51.270,-30.762,-28.809,-127.441,0.000
1606138559.872,-75.684,-26.367,-37.598,-281.250,0.000
1606138559.876,-21.484,-25.391,-30.762,-113.770,0.000
1606138559.880,51.270,-23.438,-20.020,176.270,0.000
1606138559.884,51.758,-28.320,-12.695,211.426,0.000
1606138559.888,-23.926,-30.273,-23.926,-60.059,0.000
1606138559.891,-64.941,-33.203,-33.691,-258.301,0.000
1606138559.895,-24.414,-40.527,-29.297,-138.184,0.000
1606138559.899,49.805,-31.250,-18.555,166.992,0.000
1606138559.903,61.035,-21.973,-15.625,242.676,0.000
1606138559.907,-11.719,-31.250,-21.484,-15.625,0.000
1606138559.911,-68.848,-32.227,-30.762,-251.465,0.000
1606138559.915,-43.457,-31.738,-35.156,-165.039,0.000
1606138559.919,22.461,-37.598,-23.438,139.648,0.000
1606138559.923,32.227,-38.086,-14.160,243.652,0.000
1606138559.927,-32.227,-38.086,-26.367,25.879,0.000
1606138559.931,-94.727,-32.227,-34.668,-231.445,0.000
1606138559.934,-75.684,-33.203,-35.156,-190.918,0.000
1606138559.938,3.906,-34.668,-27.832,108.887,0.000
1606138559.942,44.434,-26.855,-19.531,259.277,0.000
1606138559.946,3.418,-28.320,-23.926,91.797,0.000
1606138559.950,-62.012,-30.273,-27.832,-192.871,0.000
1606138559.954,-55.176,-33.691,-26.855,-214.844,0.000
1606138559.958,27.344,-33.691,-20.020,63.477,0.000
1606138559.962,64.453,-33.203,-17.090,242.676,0.000
1606138559.966,17.578,-35.156,-16.602,105.957,0.000
1606138559.970,-53.223,-30.273,-22.949,-180.176,0.000
1606138559.973,-62.500,-21.973,-26.367,-235.840,0.000
1606138559.977,8.789,-20.508,-18.555,9.766,0.000
1606138559.981,52.246,-19.531,-20.508,217.773,0.000
1606138559.985,11.719,-20.020,-24.414,125.488,0.000
1606138559.989,-62.012,-11.719,-31.250,-164.551,0.000
1606138559.993,-79.590,-13.184,-30.762,-256.348,0.000
1606138559.997,-22.949,-29.785,-26.855,-34.180,0.000
1606138560.001,31.250,-25.391,-23.926,198.730,0.000
1606138560.005,12.695,-31.250,-19.531,136.230,0.000
1606138560.009,-70.801,-30.273,-23.438,-156.250,0.000
1606138560.013,-104.004,-27.832,-36.621,-279.785,0.000
1606138560.016,-46.387,-34.180,-36.133,-89.355,0.000
1606138560.020,8.789,-30.273,-27.344,170.898,0.000
1606138560.024,-11.230,-40.039,-29.297,158.691,0.000
1606138560.028,-82.031,-39.551,-26.855,-113.770,0.000
1606138560.032,-112.793,-22.949,-24.414,-268.555,0.000
1606138560.036,-70.801,-15.625,-31.250,-109.375,0.000
1606138560.040,-2.441,-27.832,-20.996,171.875,0.000
1606138560.044,-8.301,-42.480,-14.160,207.031,0.000
1606138560.048,-77.148,-38.574,-17.090,-54.688,0.000
1606138560.052,-113.770,-31.738,-30.273,-268.066,0.000
1606138560.056,-71.289,-36.621,-28.809,-149.414,0.000
1606138560.059,5.371,-39.062,-14.648,152.344,0.000
1606138560.063,10.742,-38.086,-19.043,220.215,0.000
1606138560.067,-57.617,-37.109,-19.531,-29.297,0.000
1606138560.071,-97.168,-32.715,-20.020,-253.906,0.000
1606138560.075,-68.848,-33.203,-27.832,-182.617,0.000
1606138560.079,3.418,-34.668,-32.227,109.375,0.000
1606138560.083,30.762,-30.762,-28.320,240.723,0.000
1606138560.087,-34.180,-26.367,-29.785,24.902,0.000
1606138560.091,-93.262,-15.625,-34.668,-252.930,0.000
1606138560.095,-74.219,-11.719,-25.879,-227.051,0.000
1606138560.098,-3.906,-32.227,-26.367,56.152,0.000
1606138560.102,28.320,-40.039,-26.367,205.566,0.000
1606138560.106,-24.414,-40.039,-24.414,30.273,0.000
1606138560.110,-92.773,-42.480,-30.762,-242.676,0.000
1606138560.114,-77.148,-37.109,-25.879,-254.883,0.000
1606138560.118,6.348,-29.297,-25.879,27.344,0.000
1606138560.122,44.922,-24.414,-20.508,219.727,0.000
1606138560.126,4.883,-22.949,-16.602,87.402,0.000
1606138560.130,-53.223,-20.508,-35.156,-196.289,0.000
1606138560.134,-58.105,-26.855,-30.273,-233.398,0.000
1606138560.138,-2.930,-30.762,-9.277,22.949,0.000
1606138560.141,41.992,-36.133,-6.348,220.215,0.000
1606138560.145,13.184,-38.086,-14.648,121.094,0.000
1606138560.149,-60.059,-27.344,-23.438,-170.898,0.000
1606138560.153,-82.520,-35.156,-25.391,-269.043,0.000
1606138560.157,-16.113,-40.527,-13.672,-37.109,0.000
1606138560.161,46.387,-35.156,-2.441,221.680,0.000
1606138560.165,13.184,-40.527,-10.742,161.133,0.000
1606138560.169,-61.523,-36.621,-18.555,-128.418,0.000
1606138560.173,-77.148,-35.156,-19.531,-250.977,0.000
1606138560.177,-26.367,-37.598,-20.020,-66.406,0.000
1606138560.181,47.852,-23.438,-19.531,208.008,0.000
1606138560.184,36.133,-30.762,-25.391,193.359,0.000
1606138560.188,-58.105,-31.738,-22.949,-107.422,0.000
1606138560.192,-87.402,-16.602,-19.043,-269.043,0.000
1606138560.196,-30.762,-34.668,-33.203,-105.957,0.000
1606138560.200,36.621,-38.086,-35.156,175.781,0.000
1606138560.204,41.016,-33.691,-18.066,208.496,0.000
1606138560.208,-26.855,-32.227,-21.484,-66.895,0.000
1606138560.212,-68.848,-31.738,-22.949,-255.859,0.000
1606138560.216,-28.320,-40.039,-21.484,-132.324,0.000
1606138560.220,40.527,-30.762,-22.949,145.508,0.000
1606138560.223,46.875,-26.855,-23.438,226.074,0.000
1606138560.227,-20.996,-25.879,-30.762,-9.766,0.000
1606138560.231,-67.871,-9.766,-34.180,-246.094,0.000
1606138560.235,-41.016,-26.367,-28.320,-166.992,0.000
1606138560.239,29.785,-41.504,-26.855,129.883,0.000
1606138560.243,49.805,-31.738,-25.879,245.605,0.000
1606138560.247,-16.113,-35.645,-24.414,34.180,0.000
1606138560.251,-75.684,-37.109,-25.879,-227.051,0.000
1606138560.255,-61.523,-43.945,-22.461,-201.172,0.000
1606138560.259,11.719,-43.457,-19.043,104.980,0.000
1606138560.263,34.180,-37.109,-16.113,253.906,0.000
1606138560.266,-14.160,-33.691,-11.719,62.988,0.000
1606138560.270,-75.195,-36.133,-27.344,-197.754,0.000
1606138560.274,-83.008,-40.527,-35.156,-218.750,0.000
1606138560.278,-10.742,-32.715,-23.438,51.270,0.000
1606138560.282,17.578,-31.738,-23.926,224.121,0.000
1606138560.286,-26.367,-41.992,-26.855,62.012,0.000
1606138560.290,-85.938,-16.602,-19.531,-213.379,0.000
1606138560.294,-89.844,5.371,-30.762,-264.648,0.000
1606138560.298,-20.996,-22.461,-36.133,-12.695,0.000
1606138560.302,29.297,-35.645,-19.043,204.102,0.000
1606138560.306,2.441,-41.504,-15.625,115.723,0.000
1606138560.309,-56.641,-36.621,-21.484,-167.969,0.000
1606138560.313,-61.523,-20.996,-37.109,-263.672,0.000
1606138560.317,2.930,-12.695,-38.574,-31.250,0.000
1606138560.321,52.246,-11.230,-38.574,210.449,0.000
1606138560.325,20.508,-20.508,-49.316,148.926,0.000
1606138560.329,-55.664,-0.488,-56.152,-154.297,0.000
1606138560.333,-75.195,12.695,-62.500,-304.199,0.000
1606138560.337,-16.113,-9.766,-55.664,-99.609,0.000
1606138560.341,35.156,-0.488,-45.410,172.852,0.000
1606138560.345,18.066,-5.371,-62.988,155.762,0.000
1606138560.348,-49.316,-10.742,-75.684,-126.953,0.000
1606138560.352,-66.895,-2.930,-66.895,-280.762,0.000
1606138560.356,-13.184,-6.348,-68.359,-110.352,0.000
1606138560.360,50.293,-6.836,-66.406,163.086,0.000
1606138560.364,50.293,-12.695,-58.105,199.219,0.000
1606138560.368,-16.113,-2.441,-58.594,-64.453,0.000
1606138560.372,-62.012,20.508,-59.570,-274.414,0.000
1606138560.376,-23.438,0.000,-47.852,-153.320,0.000
1606138560.380,61.523,-16.113,-48.828,137.695,0.000
1606138560.384,68.359,-10.742,-55.176,209.473,0.000
1606138560.388,-2.930,-11.230,-46.387,-20.996,0.000
1606138560.391,-48.828,-20.020,-44.922,-239.258,0.000
1606138560.395,-17.090,-23.438,-44.434,-169.434,0.000
1606138560.399,59.570,-10.742,-36.621,132.324,0.000
1606138560.403,69.824,-11.719,-36.621,254.395,0.000
1606138560.407,9.766,-18.555,-40.527,31.250,0.000
1606138560.411,-37.598,-20.020,-35.645,-217.285,0.000
1606138560.415,-30.273,-20.996,-40.039,-173.828,0.000
1606138560.419,34.668,-24.414,-42.480,116.211,0.000
1606138560.423,63.965,-26.855,-41.016,257.812,0.000
1606138560.427,6.348,-28.809,-43.457,73.730,0.000
1606138560.431,-51.270,-20.020,-32.715,-189.453,0.000
1606138560.434,-49.316,-17.090,-34.180,-198.730,0.000
1606138560.438,8.301,-26.367,-45.898,75.684,0.000
1606138560.442,46.875,-26.367,-41.504,256.836,0.000
1606138560.446,6.836,-27.344,-38.086,104.980,0.000
1606138560.450,-60.059,-26.855,-47.852,-182.617,0.000
1606138560.454,-66.406,-26.367,-47.363,-250.000,0.000
1606138560.458,2.930,-27.344,-43.945,14.648,0.000
1606138560.462,53.223,-20.020,-37.109,248.047,0.000
1606138560.466,19.531,-24.902,-25.879,149.902,0.000
1606138560.470,-56.641,-14.160,-44.434,-158.691,0.000
1606138560.473,-59.082,-1.465,-50.781,-266.113,0.000
1606138560.477,-1.953,-26.367,-41.504,-23.438,0.000
1606138560.481,37.109,-30.762,-47.852,212.402,0.000
1606138560.485,18.555,-25.879,-41.504,148.438,0.000
1606138560.489,-54.688,-29.785,-40.039,-148.926,0.000
1606138560.493,-77.148,-30.762,-48.828,-279.785,0.000
1606138560.497,-21.973,-27.832,-45.898,-81.055,0.000
1606138560.501,35.645,-21.484,-41.504,179.199,0.000
1606138560.505,27.344,-18.066,-32.715,177.246,0.000
1606138560.509,-42.969,-4.883,-33.691,-99.609,0.000
1606138560.513,-86.914,-2.441,-48.340,-279.297,0.000
1606138560.516,-37.598,-22.461,-41.504,-115.723,0.000
1606138560.520,36.133,-26.367,-35.645,161.133,0.000
1606138560.524,31.250,-24.414,-28.320,190.918,0.000
1606138560.528,-39.551,-27.832,-30.762,-72.266,0.000
1606138560.532,-86.914,-33.203,-47.363,-281.738,0.000
1606138560.536,-51.270,-39.062,-44.922,-155.273,0.000
1606138560.540,31.250,-30.762,-33.691,161.133,0.000
1606138560.544,48.828,-20.020,-25.391,231.445,0.000
1606138560.548,-36.133,-22.949,-35.645,-39.062,0.000
1606138560.552,-91.309,-27.832,-46.387,-271.973,0.000
1606138560.556,-44.922,-36.133,-35.645,-164.062,0.000
1606138560.559,40.527,-34.180,-24.414,144.043,0.000
1606138560.563,45.898,-25.391,-20.996,234.375,0.000
1606138560.567,-35.156,-28.809,-27.344,7.812,0.000
1606138560.571,-92.285,2.441,-49.316,-255.371,0.000
1606138560.575,-63.965,9.766,-43.457,-215.332,0.000
1606138560.579,14.648,-20.020,-25.879,76.172,0.000
1606138560.583,41.016,-27.832,-38.086,220.215,0.000
1606138560.587,-19.043,-37.109,-42.969,40.527,0.000
1606138560.591,-83.008,-34.180,-37.109,-230.957,0.000
1606138560.595,-70.801,-34.668,-32.227,-239.258,0.000
1606138560.598,0.977,-30.762,-17.578,43.945,0.000
1606138560.602,40.039,-25.879,-10.254,240.234,0.000
1606138560.606,-11.230,-40.039,-20.996,79.102,0.000
1606138560.610,-77.148,-20.996,-33.691,-222.656,0.000
1606138560.614,-70.312,-21.484,-32.227,-258.789,0.000
1606138560.618,-5.859,-43.945,-33.691,4.883,0.000
1606138560.622,38.574,-32.227,-36.133,228.027,0.000
1606138560.626,6.836,-35.156,-34.668,124.023,0.000
1606138560.630,-74.707,-44.922,-32.715,-179.688,0.000
1606138560.634,-87.891,-40.527,-33.203,-256.836,0.000
1606138560.638,-15.625,-32.227,-22.949,-21.973,0.000
1606138560.641,33.691,-27.344,-13.184,210.938,0.000
1606138560.645,3.418,-37.598,-28.320,152.832,0.000
1606138560.649,-70.801,-6.348,-38.086,-144.043,0.000
1606138560.653,-100.586,19.043,-34.668,-273.926,0.000
1606138560.657,-49.805,-24.902,-32.715,-83.984,0.000
1606138560.661,18.066,-41.992,-30.762,167.480,0.000
1606138560.665,4.395,-40.039,-30.273,163.086,0.000
1606138560.669,-80.078,-41.016,-41.504,-120.605,0.000
1606138560.673,-108.887,-44.434,-38.574,-293.945,0.000
1606138560.677,-55.664,-41.504,-24.414,-130.859,0.000
1606138560.681,15.137,-34.180,-21.484,167.969,0.000
1606138560.684,16.602,-27.832,-21.484,203.613,0.000
1606138560.688,-51.758,-27.832,-27.344,-74.707,0.000
1606138560.692,-96.191,-33.203,-33.691,-273.438,0.000
1606138560.696,-55.176,-34.180,-28.809,-144.531,0.000
1606138560.700,22.949,-27.832,-22.949,142.090,0.000
1606138560.704,28.320,-30.273,-22.461,205.078,0.000
1606138560.708,-57.617,-30.273,-33.691,-48.340,0.000
1606138560.712,-109.863,-25.391,-35.645,-281.250,0.000
1606138560.716,-74.219,-37.598,-31.738,-194.336,0.000
1606138560.720,3.906,-38.574,-25.391,103.027,0.000
1606138560.723,18.555,-39.062,-21.973,204.590,0.000
1606138560.727,-46.387,-37.598,-27.832,-2.930,0.000
1606138560.731,-86.914,-33.691,-32.227,-244.629,0.000
1606138560.735,-64.941,-37.109,-33.691,-212.891,0.000
1606138560.739,-3.906,-29.785,-31.738,79.102,0.000
1606138560.743,30.273,-21.973,-19.043,242.676,0.000
1606138560.747,-21.484,-31.250,-12.207,64.941,0.000
1606138560.751,-95.703,-19.043,-28.809,-229.004,0.000
1606138560.755,-89.355,-17.578,-34.180,-250.000,0.000
1606138560.759,-15.137,-36.133,-22.949,33.691,0.000
1606138560.763,21.973,-28.320,-20.020,224.121,0.000
1606138560.766,-17.578,-24.414,-19.531,84.961,0.000
1606138560.770,-88.379,-26.855,-20.996,-201.172,0.000
1606138560.774,-84.961,-28.320,-27.344,-248.535,0.000
1606138560.778,-17.578,-35.156,-28.809,8.301,0.000
1606138560.782,18.066,-34.668,-27.344,209.961,0.000
1606138560.786,-16.113,-37.598,-30.762,107.910,0.000
1606138560.790,-76.172,-29.785,-34.180,-183.105,0.000
1606138560.794,-91.309,-28.320,-30.762,-281.738,0.000
1606138560.798,-29.297,-39.062,-23.438,-37.598,0.000
1606138560.802,33.691,-36.621,-24.414,206.055,0.000
1606138560.806,9.277,-40.039,-23.926,150.391,0.000
1606138560.809,-59.570,-46.875,-20.020,-146.973,0.000
1606138560.813,-83.984,-49.805,-27.832,-288.574,0.000
1606138560.817,-27.344,-34.668,-20.508,-75.684,0.000
1606138560.821,30.273,-22.949,-14.160,195.312,0.000
1606138560.825,7.324,-29.785,-22.461,169.922,0.000
1606138560.829,-69.336,-32.227,-25.391,-122.070,0.000
1606138560.833,-104.980,-32.715,-32.715,-280.273,0.000
1606138560.837,-46.387,-33.203,-26.855,-102.539,0.000
1606138560.841,18.555,-35.156,-19.531,174.316,0.000
1606138560.845,6.348,-45.898,-22.461,184.082,0.000
1606138560.848,-64.453,-45.898,-24.902,-91.309,0.000
1606138560.852,-112.793,-28.809,-30.273,-289.062,0.000
1606138560.856,-58.594,-29.785,-22.949,-153.320,0.000
1606138560.860,14.648,-38.086,-19.043,151.855,0.000
1606138560.864,4.883,-40.039,-26.367,205.078,0.000
1606138560.868,-51.758,-42.480,-17.090,-40.527,0.000
1606138560.872,-100.586,-40.039,-24.902,-262.207,0.000
1606138560.876,-77.148,-37.109,-37.109,-191.406,0.000
1606138560.880,0.488,-25.879,-21.973,111.816,0.000
1606138560.884,21.973,-18.555,-11.230,223.145,0.000
1606138560.888,-43.457,-22.461,-21.973,0.488,0.000
1606138560.891,-106.934,-19.531,-36.133,-262.207,0.000
1606138560.895,-84.473,-31.738,-39.062,-221.680,0.000
1606138560.899,-10.742,-35.645,-31.250,76.172,0.000
1606138560.903,18.066,-28.320,-20.020,213.867,0.000
1606138560.907,-37.598,-32.715,-19.531,22.949,0.000
1606138560.911,-100.586,-36.133,-29.785,-244.629,0.000
1606138560.915,-80.566,-30.273,-29.297,-233.398,0.000
1606138560.919,-10.742,-31.738,-26.855,38.086,0.000
1606138560.923,20.996,-35.156,-31.250,210.449,0.000
1606138560.927,-19.531,-37.109,-31.250,62.500,0.000
1606138560.931,-83.496,-16.602,-21.973,-214.355,0.000
1606138560.934,-80.078,-10.742,-18.066,-253.906,0.000
1606138560.938,-7.812,-38.086,-26.367,-8.789,0.000
1606138560.942,31.738,-40.039,-24.902,201.660,0.000
1606138560.946,-8.301,-38.086,-23.438,105.957,0.000
1606138560.950,-81.055,-41.992,-28.320,-185.547,0.000
1606138560.954,-94.238,-42.969,-27.832,-274.902,0.000
1606138560.958,-23.926,-35.156,-16.113,-38.086,0.000
1606138560.962,33.203,-25.879,-10.742,208.984,0.000
1606138560.966,11.719,-27.832,-15.625,151.855,0.000
1606138560.970,-64.453,-32.715,-22.461,-149.902,0.000
1606138560.973,-88.379,-29.297,-25.391,-266.602,0.000
1606138560.977,-23.926,-23.926,-20.996,-53.711,0.000
1606138560.981,26.367,-29.297,-20.996,193.359,0.000
1606138560.985,5.859,-38.574,-26.855,166.504,0.000
1606138560.989,-67.871,-29.785,-27.832,-118.652,0.000
1606138560.993,-102.539,-22.949,-35.156,-285.645,0.000
1606138560.997,-44.434,-27.344,-33.691,-120.605,0.000
1606138561.001,28.809,-24.414,-20.020,167.480,0.000
1606138561.005,20.996,-24.414,-20.996,193.848,0.000
1606138561.009,-51.270,-31.250,-31.250,-80.566,0.000
1606138561.013,-91.309,-36.621,-30.762,-280.762,0.000
1606138561.016,-47.852,-29.785,-27.344,-150.879,0.000
1606138561.020,24.902,-19.043,-21.484,139.160,0.000
1606138561.024,32.715,-21.973,-23.926,203.613,0.000
1606138561.028,-41.016,-24.902,-38.574,-50.781,0.000
1606138561.032,-91.309,3.418,-40.039,-275.879,0.000
1606138561.036,-52.734,-6.836,-28.320,-179.199,0.000
1606138561.040,20.996,-29.297,-23.438,114.746,0.000
1606138561.044,35.645,-26.855,-27.832,221.680,0.000
1606138561.048,-23.926,-33.203,-27.832,5.859,0.000
1606138561.052,-79.102,-33.203,-28.809,-236.816,0.000
1606138561.056,-60.547,-31.250,-35.156,-196.289,0.000
1606138561.059,7.324,-33.691,-35.645,76.660,0.000
1606138561.063,33.203,-29.785,-25.391,224.609,0.000
1606138561.067,-20.996,-29.785,-29.297,43.945,0.000
1606138561.071,-91.309,-22.461,-38.574,-235.352,0.000
1606138561.075,-78.613,-21.973,-24.902,-234.375,0.000
1606138561.079,0.000,-28.320,-9.277,57.129,0.000
1606138561.083,29.297,-30.762,-19.531,225.098,0.000
1606138561.087,-14.160,-32.227,-30.762,78.125,0.000
1606138561.091,-79.590,-33.691,-33.203,-195.801,0.000
1606138561.095,-81.055,-33.203,-32.715,-246.094,0.000
1606138561.098,-11.230,-31.250,-26.855,10.254,0.000
1606138561.102,45.410,-26.367,-25.879,216.797,0.000
1606138561.106,12.207,-20.996,-21.484,107.910,0.000
1606138561.110,-71.289,-31.738,-26.855,-186.035,0.000
1606138561.114,-80.566,-36.133,-31.250,-276.367,0.000
1606138561.118,-7.324,-27.832,-19.531,-23.926,0.000
1606138561.122,37.598,-26.855,-25.391,210.938,0.000
1606138561.126,-0.488,-37.109,-36.621,132.812,0.000
1606138561.130,-72.266,-34.668,-35.645,-160.156,0.000
1606138561.134,-93.262,-24.902,-42.969,-283.691,0.000
1606138561.138,-34.180,-32.715,-41.016,-70.801,0.000
1606138561.141,24.414,-30.762,-27.344,185.547,0.000
1606138561.145,0.000,-28.809,-30.273,155.762,0.000
1606138561.149,-67.383,-34.180,-34.668,-115.234,0.000
1606138561.153,-91.797,-35.645,-28.809,-271.973,0.000
1606138561.157,-43.945,-34.668,-30.762,-107.910,0.000
1606138561.161,32.715,-29.297,-24.902,187.988,0.000
1606138561.165,29.785,-30.762,-15.137,222.168,0.000
1606138561.169,-48.828,-26.367,-21.484,-62.012,0.000
1606138561.173,-88.867,-28.809,-33.691,-261.230,0.000
1606138561.177,-45.898,-37.598,-34.180,-134.277,0.000
1606138561.181,28.809,-27.832,-23.926,162.109,0.000
1606138561.184,32.227,-28.320,-17.578,226.562,0.000
1606138561.188,-41.504,-41.016,-20.020,-20.996,0.000
1606138561.192,-96.680,-48.828,-24.902,-251.953,0.000
1606138561.196,-61.523,-41.016,-19.043,-175.293,0.000
1606138561.200,19.043,-33.203,-23.926,127.930,0.000
1606138561.204,35.156,-29.297,-20.508,229.004,0.000
1606138561.208,-31.250,-32.227,-23.926,8.301,0.000
1606138561.212,-90.332,-31.738,-36.621,-234.375,0.000
1606138561.216,-67.871,-34.668,-26.855,-190.430,0.000
1606138561.220,0.488,-34.668,-23.438,89.844,0.000
1606138561.223,16.602,-31.250,-25.391,217.773,0.000
1606138561.227,-37.598,-27.344,-30.273,38.086,0.000
1606138561.231,-100.098,-27.832,-30.273,-227.051,0.000
1606138561.235,-83.008,-32.715,-25.391,-229.492,0.000
1606138561.239,-6.836,-33.203,-24.414,58.105,0.000
1606138561.243,30.273,-30.762,-21.484,232.910,0.000
1606138561.247,-2.441,-22.949,-31.250,85.449,0.000
1606138561.251,-62.500,-31.250,-36.133,-187.012,0.000
1606138561.255,-65.918,-42.480,-25.391,-226.074,0.000
1606138561.259,-29.785,-41.016,-18.555,11.719,0.000
1606138561.263,-17.090,-42.969,-6.836,185.059,0.000
1606138561.266,-62.500,-46.387,1.465,73.730,0.000
1606138561.270,-145.996,-29.785,-0.488,-226.074,0.000
1606138561.274,-171.387,-34.180,9.766,-325.684,0.000
1606138561.278,-115.723,-54.199,22.949,-97.656,0.000
1606138561.282,-74.219,-52.246,28.809,133.301,0.000
1606138561.286,-126.465,-60.059,30.273,50.781,0.000
1606138561.290,-210.938,-64.941,27.832,-238.281,0.000
1606138561.294,-237.793,-66.406,31.250,-371.582,0.000
1606138561.298,-188.477,-69.336,33.691,-185.547,0.000
1606138561.302,-121.094,-62.988,43.945,96.191,0.000
1606138561.306,-135.254,-59.570,52.734,94.238,0.000
1606138561.309,-208.008,-60.547,40.039,-192.871,0.000
1606138561.313,-227.539,-61.035,30.762,-351.074,0.000
1606138561.317,-169.434,-68.359,29.297,-183.105,0.000
1606138561.321,-91.797,-66.406,31.250,104.004,0.000
1606138561.325,-79.102,-59.082,35.645,148.926,0.000
1606138561.329,-136.719,-59.570,21.484,-109.863,0.000
1606138561.333,-167.480,-64.941,14.160,-308.594,0.000
1606138561.337,-113.281,-63.965,16.113,-174.316,0.000
1606138561.341,-31.250,-60.059,3.418,125.000,0.000
1606138561.345,-10.742,-63.965,4.883,193.359,0.000
1606138561.348,-58.105,-39.062,-4.395,-34.180,0.000
1606138561.352,-102.051,-26.367,-29.297,-256.348,0.000
1606138561.356,-61.035,-48.828,-23.926,-181.641,0.000
1606138561.360,29.785,-42.480,-10.254,133.301,0.000
1606138561.364,50.781,-43.457,-4.883,242.188,0.000
1606138561.368,-9.766,-37.109,-12.695,28.320,0.000
1606138561.372,-59.082,-32.715,-11.719,-208.496,0.000
1606138561.376,-39.551,-46.387,-12.695,-166.016,0.000
1606138561.380,27.344,-44.922,-23.926,124.023,0.000
1606138561.384,49.316,-40.527,-12.695,267.578,0.000
1606138561.388,-4.395,-43.945,-16.113,83.008,0.000
1606138561.391,-63.477,-48.340,-27.832,-188.965,0.000
1606138561.395,-56.641,-50.781,-22.949,-190.918,0.000
1606138561.399,21.484,-45.898,-17.090,106.445,0.000
1606138561.403,58.105,-44.922,-17.090,282.227,0.000
1606138561.407,2.930,-51.270,-12.695,111.328,0.000
1606138561.411,-65.918,-23.926,-16.113,-182.129,0.000
1606138561.415,-60.547,-16.113,-16.113,-208.496,0.000
1606138561.419,10.742,-41.504,-11.230,55.664,0.000
1606138561.423,43.945,-39.551,-19.531,238.770,0.000
1606138561.427,0.000,-42.480,-23.438,129.395,0.000
1606138561.431,-66.895,-42.969,-24.902,-153.320,0.000
1606138561.434,-77.148,-42.480,-28.809,-233.398,0.000
1606138561.438,-15.625,-41.504,-31.250,-3.906,0.000
1606138561.442,38.574,-36.133,-25.391,229.492,0.000
1606138561.446,20.996,-33.203,-13.672,178.223,0.000
1606138561.450,-52.246,-17.578,-22.461,-125.488,0.000
1606138561.454,-74.707,-20.508,-30.273,-262.207,0.000
1606138561.458,-17.090,-37.598,-12.695,-62.012,0.000
1606138561.462,38.574,-28.809,-9.277,197.754,0.000
1606138561.466,20.508,-29.785,-27.344,171.387,0.000
1606138561.470,-60.059,-40.039,-38.086,-140.625,0.000
1606138561.473,-86.426,-40.039,-37.109,-300.781,0.000
1606138561.477,-36.133,-36.133,-30.273,-123.535,0.000
1606138561.481,26.367,-30.273,-22.949,164.062,0.000
1606138561.485,23.438,-32.227,-21.484,191.406,0.000
1606138561.489,-43.457,-22.949,-25.879,-77.637,0.000
1606138561.493,-76.172,-23.926,-23.926,-255.371,0.000
1606138561.497,-40.039,-40.527,-22.949,-131.348,0.000
1606138561.501,30.762,-31.250,-18.066,155.273,0.000
1606138561.505,36.133,-41.992,-25.391,219.238,0.000
1606138561.509,-33.691,-32.227,-38.086,-26.367,0.000
1606138561.513,-81.543,-15.137,-39.551,-244.629,0.000
1606138561.516,-57.129,-49.805,-41.016,-170.410,0.000
1606138561.520,18.555,-44.922,-30.273,128.418,0.000
1606138561.524,34.180,-39.062,-27.344,236.328,0.000
1606138561.528,-31.250,-35.156,-32.715,9.766,0.000
1606138561.532,-86.426,-24.414,-30.273,-242.188,0.000
1606138561.536,-62.012,-36.621,-22.461,-198.242,0.000
1606138561.540,24.414,-28.320,-11.719,108.887,0.000
1606138561.544,52.734,-26.367,-19.531,242.188,0.000
1606138561.548,-16.113,-31.738,-38.574,35.156,0.000
1606138561.552,-85.449,-21.973,-45.898,-236.328,0.000
1606138561.556,-62.988,-28.809,-46.875,-225.586,0.000
1606138561.559,14.648,-33.691,-40.527,64.941,0.000
1606138561.563,47.852,-30.273,-30.762,236.816,0.000
1606138561.567,9.766,-38.086,-31.250,92.773,0.000
1606138561.571,-45.898,-40.039,-45.410,-172.852,0.000
1606138561.575,-55.176,-32.715,-46.875,-234.863,0.000
1606138561.579,2.930,-18.555,-37.598,-5.371,0.000
1606138561.583,55.176,-7.812,-44.922,207.520,0.000
1606138561.587,21.484,-15.137,-50.293,124.023,0.000
1606138561.591,-60.059,-21.484,-47.363,-173.340,0.000
1606138561.595,-69.336,-27.344,-47.363,-265.625,0.000
1606138561.598,6.348,-32.715,-44.434,-22.949,0.000
1606138561.602,62.988,-24.414,-30.273,227.051,0.000
1606138561.606,38.086,-28.320,-22.949,170.898,0.000
1606138561.610,-36.621,-30.762,-37.109,-132.324,0.000
1606138561.614,-66.406,-27.344,-39.551,-257.324,0.000
1606138561.618,-2.930,-28.809,-24.902,-37.598,0.000
1606138561.622,67.871,-23.438,-22.949,229.004,0.000
1606138561.626,39.062,-27.832,-27.832,197.754,0.000
1606138561.630,-41.504,-29.785,-27.832,-91.309,0.000
1606138561.634,-73.242,-33.203,-29.785,-250.977,0.000
1606138561.638,-26.367,-39.551,-31.250,-88.379,0.000
1606138561.641,31.738,-37.598,-23.438,197.754,0.000
1606138561.645,20.020,-35.156,-19.531,213.867,0.000
1606138561.649,-51.758,-13.672,-21.973,-69.336,0.000
1606138561.653,-85.938,-12.207,-23.926,-258.301,0.000
1606138561.657,-37.598,-34.668,-22.949,-125.488,0.000
1606138561.661,24.414,-31.738,-17.578,168.945,0.000
1606138561.665,28.809,-24.414,-12.207,234.863,0.000
1606138561.669,-35.156,-31.250,-18.066,-19.531,0.000
1606138561.673,-88.379,-43.457,-36.621,-250.488,0.000
1606138561.677,-50.781,-40.039,-35.645,-160.645,0.000
1606138561.681,32.715,-27.832,-27.832,144.531,0.000
1606138561.684,48.828,-26.367,-23.926,252.441,0.000
1606138561.688,-15.625,-18.555,-20.020,20.508,0.000
1606138561.692,-72.266,8.789,-22.949,-245.605,0.000
1606138561.696,-51.270,-4.395,-29.785,-203.125,0.000
1606138561.700,23.926,-35.645,-24.414,88.867,0.000
1606138561.704,56.152,-39.551,-15.137,240.234,0.000
1606138561.708,2.441,-36.621,-19.531,56.641,0.000
1606138561.712,-61.523,-34.668,-19.531,-223.633,0.000
1606138561.716,-50.781,-37.109,-17.090,-215.332,0.000
1606138561.720,20.020,-36.133,-25.879,69.824,0.000
1606138561.723,56.641,-33.203,-22.949,247.559,0.000
1606138561.727,3.906,-33.203,-25.391,96.680,0.000
1606138561.731,-69.336,-22.461,-31.250,-194.824,0.000
1606138561.735,-70.801,-36.621,-19.531,-238.770,0.000
1606138561.739,-15.137,-59.082,-10.742,26.855,0.000
1606138561.743,24.414,-50.781,-11.230,239.258,0.000
1606138561.747,-10.742,-40.527,-15.137,125.488,0.000
1606138561.751,-84.473,-40.039,-19.531,-172.852,0.000
1606138561.755,-93.262,-41.016,-25.391,-254.395,0.000
1606138561.759,-26.855,-40.039,-32.715,-12.695,0.000
1606138561.763,26.855,-33.691,-16.602,228.027,0.000
1606138561.766,-2.441,-33.203,-13.672,152.344,0.000
1606138561.770,-75.684,-35.156,-30.273,-149.902,0.000
1606138561.774,-86.426,-30.762,-31.250,-260.254,0.000
1606138561.778,-23.926,-30.762,-25.391,-57.617,0.000
1606138561.782,38.574,-28.320,-21.484,192.383,0.000
1606138561.786,23.926,-26.855,-21.484,166.016,0.000
1606138561.790,-47.363,-18.066,-29.297,-125.000,0.000
1606138561.794,-73.242,-17.090,-31.738,-279.785,0.000
1606138561.798,-16.113,-26.855,-24.902,-103.027,0.000
1606138561.802,50.293,-18.066,-21.484,176.270,0.000
1606138561.806,40.039,-12.207,-25.391,189.453,0.000
1606138561.809,-33.203,-24.902,-34.180,-95.215,0.000
1606138561.813,-81.055,-33.203,-33.691,-287.598,0.000
1606138561.817,-41.992,-22.949,-32.715,-153.320,0.000
1606138561.821,31.738,-15.137,-28.809,129.883,0.000
1606138561.825,28.320,-21.484,-29.297,172.852,0.000
1606138561.829,-43.945,-19.531,-37.109,-79.590,0.000
1606138561.833,-95.215,-16.602,-42.969,-290.527,0.000
1606138561.837,-66.406,-33.691,-34.180,-192.383,0.000
1606138561.841,8.301,-29.785,-20.996,108.887,0.000
1606138561.845,6.348,-33.203,-20.020,205.078,0.000
1606138561.848,-63.477,-39.551,-28.320,-21.484,0.000
1606138561.852,-112.305,-35.156,-34.180,-269.043,0.000
1606138561.856,-86.914,-36.133,-38.574,-210.449,0.000
1606138561.860,-9.766,-27.832,-33.203,95.703,0.000
1606138561.864,14.648,-26.855,-25.391,236.816,0.000
1606138561.868,-41.504,-36.621,-30.762,50.293,0.000
1606138561.872,-105.469,-20.996,-32.227,-227.051,0.000
1606138561.876,-90.820,-21.484,-19.043,-227.051,0.000
1606138561.880,-7.812,-36.133,-16.113,67.871,0.000
1606138561.884,30.762,-32.715,-21.484,238.770,0.000
1606138561.888,-12.207,-30.273,-15.137,82.520,0.000
1606138561.891,-74.707,-35.156,-12.695,-196.289,0.000
1606138561.895,-65.430,-40.527,-17.578,-234.863,0.000
1606138561.899,6.836,-32.715,-24.902,17.090,0.000
1606138561.903,34.180,-23.926,-31.250,216.797,0.000
1606138561.907,-7.812,-31.250,-38.086,108.398,0.000
1606138561.911,-74.707,-36.133,-40.039,-193.848,0.000
1606138561.915,-80.566,-29.297,-39.062,-275.879,0.000
1606138561.919,-15.625,-22.949,-37.109,-35.645,0.000
1606138561.923,35.156,-22.949,-19.531,200.195,0.000
1606138561.927,2.930,-33.691,-11.719,126.465,0.000
1606138561.931,-70.801,-24.414,-33.203,-174.805,0.000
1606138561.934,-91.309,-25.879,-42.480,-291.992,0.000
1606138561.938,-36.133,-35.645,-33.691,-85.449,0.000
1606138561.942,16.602,-29.785,-30.762,168.945,0.000
1606138561.946,-0.977,-23.438,-27.832,152.344,0.000
1606138561.950,-74.707,-26.367,-29.297,-125.977,0.000
1606138561.954,-111.816,-37.598,-34.180,-286.621,0.000
1606138561.958,-61.035,-29.297,-28.320,-107.422,0.000
1606138561.962,12.207,-19.043,-19.531,193.848,0.000
1606138561.966,1.953,-32.227,-20.996,207.031,0.000
1606138561.970,-75.684,-23.438,-28.809,-80.566,0.000
1606138561.973,-113.770,-3.418,-33.691,-260.254,0.000
1606138561.977,-70.801,-20.020,-28.320,-123.047,0.000
1606138561.981,-2.441,-30.762,-28.320,160.645,0.000
1606138561.985,-3.906,-36.133,-35.645,218.262,0.000
1606138561.989,-60.059,-37.598,-33.203,-42.969,0.000
1606138561.993,-102.051,-36.133,-29.785,-260.254,0.000
1606138561.997,-75.195,-36.133,-25.391,-165.527,0.000
1606138562.001,7.812,-27.832,-25.879,122.559,0.000
1606138562.005,34.180,-22.461,-30.762,224.121,0.000
1606138562.009,-20.996,-21.973,-35.645,-1.465,0.000
1606138562.013,-75.684,-27.832,-37.598,-257.812,0.000
1606138562.016,-49.805,-33.203,-22.949,-202.637,0.000
1606138562.020,27.832,-28.320,-17.578,93.750,0.000
1606138562.024,50.293,-25.879,-23.926,222.656,0.000
1606138562.028,-7.812,-21.973,-28.809,27.344,0.000
1606138562.032,-73.730,-23.926,-36.133,-244.141,0.000
1606138562.036,-69.824,-30.273,-44.434,-252.930,0.000
1606138562.040,-1.953,-28.320,-44.922,20.020,0.000
1606138562.044,26.855,-24.902,-40.039,190.918,0.000
1606138562.048,-19.043,-27.344,-38.086,28.320,0.000
1606138562.052,-82.031,-30.762,-36.621,-252.930,0.000
1606138562.056,-87.402,-27.832,-26.855,-264.648,0.000
1606138562.059,-24.414,-23.926,-25.391,-5.371,0.000
1606138562.063,15.137,-25.879,-31.250,186.523,0.000
1606138562.067,-26.855,-33.691,-31.738,84.473,0.000
1606138562.071,-100.586,1.953,-33.203,-207.031,0.000
1606138562.075,-111.328,5.859,-37.109,-285.645,0.000
1606138562.079,-47.852,-36.621,-27.344,-38.086,0.000
1606138562.083,9.277,-39.551,-20.996,203.125,0.000
1606138562.087,-12.207,-41.992,-22.461,141.602,0.000
1606138562.091,-78.125,-41.016,-24.414,-145.020,0.000
1606138562.095,-92.773,-40.039,-20.020,-257.324,0.000
1606138562.098,-25.879,-34.668,-12.207,-48.340,0.000
1606138562.102,38.086,-28.809,-25.391,200.195,0.000
1606138562.106,18.555,-32.715,-20.996,161.621,0.000
1606138562.110,-54.199,-10.742,-17.578,-131.348,0.000
1606138562.114,-83.496,-14.160,-23.438,-281.250,0.000
1606138562.118,-32.227,-30.273,-20.996,-100.098,0.000
1606138562.122,32.715,-23.438,-21.484,174.316,0.000
1606138562.126,24.414,-27.344,-14.648,185.547,0.000
1606138562.130,-49.805,-28.809,-15.625,-94.238,0.000
1606138562.134,-87.891,-30.762,-20.996,-285.645,0.000
1606138562.138,-49.805,-37.598,-24.414,-154.297,0.000
1606138562.141,15.137,-36.621,-27.832,129.883,0.000
1606138562.145,21.484,-33.203,-22.949,187.012,0.000
1606138562.149,-54.688,-18.555,-20.996,-56.152,0.000
1606138562.153,-108.398,-3.418,-32.227,-275.879,0.000
1606138562.157,-71.289,-26.367,-37.598,-195.312,0.000
1606138562.161,0.000,-39.062,-30.273,97.656,0.000
1606138562.165,14.648,-30.762,-28.320,203.613,0.000
1606138562.169,-42.480,-23.926,-25.879,-18.555,0.000
1606138562.173,-101.562,-21.973,-19.043,-268.555,0.000
1606138562.177,-89.355,-29.785,-24.902,-227.539,0.000
1606138562.181,-19.531,-29.785,-29.297,71.289,0.000
1606138562.184,4.395,-26.367,-21.973,207.520,0.000
1606138562.188,-50.781,-22.949,-16.602,12.207,0.000
1606138562.192,-115.723,-17.578,-13.672,-241.211,0.000
1606138562.196,-106.934,-18.066,-18.555,-229.492,0.000
1606138562.200,-42.480,-22.949,-26.367,42.480,0.000
1606138562.204,-8.301,-33.691,-31.738,211.426,0.000
1606138562.208,-41.992,-21.484,-22.461,65.430,0.000
1606138562.212,-105.469,-1.465,-29.785,-208.008,0.000
1606138562.216,-99.609,-23.438,-40.527,-245.605,0.000
1606138562.220,-21.484,-32.715,-31.738,16.602,0.000
1606138562.223,31.738,-22.949,-29.785,224.609,0.000
1606138562.227,-0.977,-24.902,-26.367,117.188,0.000
1606138562.231,-73.730,-29.297,-21.973,-188.477,0.000
1606138562.235,-80.078,-32.227,-24.414,-272.461,0.000
1606138562.239,-16.113,-27.832,-27.832,-27.344,0.000
1606138562.243,31.250,-23.926,-23.438,204.102,0.000
1606138562.247,3.418,-35.156,-20.020,131.836,0.000
1606138562.251,-76.172,5.371,-29.297,-176.270,0.000
1606138562.255,-104.492,11.230,-33.203,-301.270,0.000
1606138562.259,-45.410,-38.086,-31.250,-81.055,0.000
1606138562.263,13.672,-35.645,-25.391,181.641,0.000
1606138562.266,-3.906,-40.039,-25.879,158.203,0.000
1606138562.270,-60.059,-47.363,-28.320,-120.605,0.000
1606138562.274,-90.820,-44.434,-28.320,-278.809,0.000
1606138562.278,-77.148,-41.504,-29.785,-141.602,0.000
1606138562.282,-23.926,-41.504,-30.273,124.023,0.000
1606138562.286,-30.762,-44.922,-20.996,145.508,0.000
1606138562.290,-109.863,-38.086,-25.391,-136.719,0.000
1606138562.294,-141.602,-44.434,-27.344,-319.336,0.000
1606138562.298,-96.680,-49.316,-17.090,-173.340,0.000
1606138562.302,-26.367,-34.668,-9.766,121.582,0.000
1606138562.306,-19.531,-33.203,-14.648,183.105,0.000
1606138562.309,-85.449,-39.062,-28.809,-70.801,0.000
1606138562.313,-120.605,-45.898,-28.320,-287.109,0.000
1606138562.317,-77.637,-43.457,-25.879,-186.523,0.000
1606138562.321,6.348,-31.738,-20.996,121.094,0.000
1606138562.325,28.809,-25.879,-11.230,226.562,0.000
1606138562.329,-40.039,-31.738,-18.066,-6.836,0.000
1606138562.333,-96.191,-35.645,-29.785,-258.789,0.000
1606138562.337,-62.988,-35.156,-27.344,-203.125,0.000
1606138562.341,12.695,-30.273,-28.320,98.145,0.000
1606138562.345,30.762,-36.133,-29.785,222.656,0.000
1606138562.348,-29.785,-32.227,-25.879,24.414,0.000
1606138562.352,-91.797,0.488,-26.855,-235.840,0.000
1606138562.356,-72.754,-20.996,-26.367,-229.492,0.000
1606138562.360,5.371,-40.527,-22.949,52.246,0.000
1606138562.364,33.691,-30.762,-20.996,215.820,0.000
1606138562.368,-12.695,-32.715,-17.578,75.195,0.000
1606138562.372,-76.172,-37.109,-18.066,-208.984,0.000
1606138562.376,-82.520,-41.504,-26.855,-267.090,0.000
1606138562.380,-9.766,-34.180,-26.367,9.766,0.000
1606138562.384,43.945,-29.297,-21.484,238.770,0.000
1606138562.388,1.465,-32.227,-31.250,111.816,0.000
1606138562.391,-81.543,-27.344,-38.086,-208.008,0.000
1606138562.395,-85.449,-30.762,-32.715,-281.738,0.000
1606138562.399,-9.277,-31.738,-31.738,-30.762,0.000
1606138562.403,41.504,-27.344,-25.879,208.008,0.000
1606138562.407,2.930,-34.180,-23.926,135.742,0.000
1606138562.411,-74.219,-39.062,-33.691,-168.457,0.000
1606138562.415,-87.891,-39.551,-32.227,-285.645,0.000
1606138562.419,-25.391,-34.180,-21.973,-64.453,0.000
1606138562.423,32.227,-24.414,-25.879,196.777,0.000
1606138562.427,11.230,-30.762,-29.785,163.574,0.000
1606138562.431,-58.594,-18.066,-31.250,-129.883,0.000
1606138562.434,-93.262,-7.324,-34.180,-294.922,0.000
1606138562.438,-43.945,-26.367,-32.227,-125.000,0.000
1606138562.442,31.738,-23.926,-25.879,166.992,0.000
1606138562.446,26.367,-22.461,-21.973,187.988,0.000
1606138562.450,-49.805,-32.227,-30.762,-101.074,0.000
1606138562.454,-89.844,-31.250,-35.645,-295.898,0.000
1606138562.458,-43.945,-31.738,-28.809,-153.809,0.000
1606138562.462,28.809,-25.879,-26.367,145.020,0.000
1606138562.466,29.785,-23.926,-28.320,202.148,0.000
1606138562.470,-47.363,-33.203,-32.715,-62.500,0.000
1606138562.473,-99.121,-30.273,-35.645,-287.598,0.000
1606138562.477,-57.129,-29.785,-33.691,-190.918,0.000
1606138562.481,31.250,-30.273,-27.344,117.676,0.000
1606138562.485,40.039,-26.367,-20.996,205.566,0.000
1606138562.489,-54.688,-29.785,-22.949,-56.152,0.000
1606138562.493,-123.535,-35.156,-32.227,-317.383,0.000
1606138562.497,-89.355,-36.621,-29.785,-243.652,0.000
1606138562.501,-16.113,-32.227,-21.973,67.871,0.000
1606138562.505,11.719,-33.203,-22.949,188.965,0.000
1606138562.509,-39.062,-28.809,-31.250,-11.230,0.000
1606138562.513,-117.676,-29.297,-39.062,-283.691,0.000
1606138562.516,-102.539,-40.527,-37.598,-276.855,0.000
1606138562.520,-18.066,-35.645,-34.180,17.090,0.000
1606138562.524,23.926,-32.715,-28.320,204.102,0.000
1606138562.528,-19.531,-30.273,-24.414,50.293,0.000
1606138562.532,-95.215,-16.113,-31.250,-253.418,0.000
1606138562.536,-91.797,-26.855,-39.062,-289.551,0.000
1606138562.540,-14.648,-39.062,-32.227,-0.488,0.000
1606138562.544,29.297,-30.762,-20.508,211.914,0.000
1606138562.548,-12.207,-41.016,-22.949,86.914,0.000
1606138562.552,-83.496,-51.270,-35.156,-213.867,0.000
1606138562.556,-80.078,-43.945,-34.668,-267.090,0.000
1606138562.559,-16.113,-41.504,-25.879,-12.695,0.000
1606138562.563,33.691,-35.645,-18.555,221.191,0.000
1606138562.567,12.207,-29.785,-18.555,156.250,0.000
1606138562.571,-73.242,-20.996,-24.414,-151.367,0.000
1606138562.575,-97.168,-31.250,-18.066,-272.949,0.000
1606138562.579,-30.762,-45.898,-14.648,-51.758,0.000
1606138562.583,25.879,-37.598,-13.184,212.402,0.000
1606138562.587,3.906,-34.180,-8.301,186.035,0.000
1606138562.591,-74.219,-41.992,-20.020,-117.676,0.000
1606138562.595,-102.051,-41.504,-26.367,-270.996,0.000
1606138562.598,-42.969,-35.645,-22.949,-92.285,0.000
1606138562.602,25.879,-28.809,-20.508,189.453,0.000
1606138562.606,20.996,-25.391,-13.672,208.496,0.000
1606138562.610,-47.852,-27.832,-13.184,-76.660,0.000
1606138562.614,-85.449,-32.227,-17.578,-264.160,0.000
1606138562.618,-49.316,-34.668,-18.066,-118.164,0.000
1606138562.622,16.113,-26.855,-20.996,177.734,0.000
1606138562.626,17.578,-33.691,-22.461,223.633,0.000
1606138562.630,-50.781,-25.879,-24.414,-54.199,0.000
1606138562.634,-94.727,-3.906,-29.297,-283.203,0.000
1606138562.638,-63.477,-20.020,-31.738,-176.270,0.000
1606138562.641,19.043,-26.855,-15.137,136.230,0.000
1606138562.645,40.527,-28.320,-16.602,224.121,0.000
1606138562.649,-32.227,-34.668,-40.527,-22.949,0.000
1606138562.653,-92.773,-31.250,-48.340,-274.902,0.000
1606138562.657,-66.406,-28.320,-47.363,-220.703,0.000
1606138562.661,7.812,-23.926,-33.203,91.797,0.000
1606138562.665,28.320,-31.738,-29.785,237.305,0.000
1606138562.669,-33.203,-29.785,-37.109,23.926,0.000
1606138562.673,-101.562,-18.066,-41.992,-255.859,0.000
1606138562.677,-87.891,-35.645,-39.551,-248.047,0.000
1606138562.681,-8.301,-33.203,-35.156,53.223,0.000
1606138562.684,30.762,-25.391,-28.320,234.375,0.000
1606138562.688,-20.508,-31.738,-31.738,59.570,0.000
1606138562.692,-92.285,-32.227,-40.527,-232.910,0.000
1606138562.696,-88.379,-33.691,-34.668,-260.254,0.000
1606138562.700,-11.719,-33.203,-30.762,16.113,0.000
1606138562.704,39.551,-29.297,-18.066,229.492,0.000
1606138562.708,0.000,-24.414,-16.602,107.910,0.000
1606138562.712,-69.824,-14.648,-25.879,-188.965,0.000
1606138562.716,-82.031,-24.902,-25.879,-271.484,0.000
1606138562.720,-18.066,-30.762,-26.367,-28.320,0.000
1606138562.723,38.574,-26.367,-20.508,209.961,0.000
1606138562.727,10.254,-29.785,-26.855,128.906,0.000
1606138562.731,-66.895,-28.809,-38.086,-176.270,0.000
1606138562.735,-87.402,-33.203,-38.574,-293.945,0.000
1606138562.739,-20.020,-31.250,-32.227,-62.012,0.000
1606138562.743,49.805,-20.020,-19.043,218.750,0.000
1606138562.747,30.273,-20.508,-17.090,182.617,0.000
1606138562.751,-49.805,-25.879,-25.879,-129.395,0.000
1606138562.755,-75.684,-32.227,-29.785,-279.297,0.000
1606138562.759,-17.578,-22.461,-27.344,-85.449,0.000
1606138562.763,48.340,-15.137,-21.973,187.988,0.000
1606138562.766,35.156,-30.273,-21.484,189.453,0.000
1606138562.770,-42.969,-20.508,-23.926,-93.750,0.000
1606138562.774,-83.496,-21.484,-33.691,-278.320,0.000
1606138562.778,-33.691,-33.691,-28.320,-130.371,0.000
1606138562.782,37.109,-20.996,-15.137,165.039,0.000
1606138562.786,29.785,-22.949,-24.414,205.566,0.000
1606138562.790,-41.992,-24.902,-29.297,-56.641,0.000
1606138562.794,-84.961,-27.832,-27.832,-263.672,0.000
1606138562.798,-46.387,-33.691,-20.996,-154.297,0.000
1606138562.802,19.531,-27.832,-14.648,136.230,0.000
1606138562.806,24.414,-29.785,-21.484,215.332,0.000
1606138562.809,-38.086,-27.832,-17.578,-12.695,0.000
1606138562.813,-89.844,-12.695,-19.531,-257.812,0.000
1606138562.817,-67.383,-18.066,-27.344,-211.914,0.000
1606138562.821,2.930,-24.414,-29.297,90.820,0.000
1606138562.825,24.414,-29.297,-25.879,224.609,0.000
1606138562.829,-35.156,-33.203,-31.250,17.090,0.000
1606138562.833,-98.145,-34.180,-34.668,-247.559,0.000
1606138562.837,-77.148,-26.367,-20.508,-222.656,0.000
1606138562.841,-5.371,-20.020,-14.648,70.801,0.000
1606138562.845,16.602,-30.762,-24.414,234.863,0.000
1606138562.848,-33.203,-25.391,-32.227,67.383,0.000
1606138562.852,-92.773,-17.578,-33.691,-222.168,0.000
1606138562.856,-84.961,-29.785,-23.438,-250.977,0.000
1606138562.860,-15.137,-25.391,-21.484,15.137,0.000
1606138562.864,26.855,-23.926,-30.762,196.777,0.000
1606138562.868,-16.602,-24.414,-35.645,73.730,0.000
1606138562.872,-83.984,-28.809,-40.039,-218.750,0.000
1606138562.876,-85.938,-38.574,-34.180,-288.574,0.000
1606138562.880,-21.484,-37.598,-34.668,-40.527,0.000
1606138562.884,28.809,-30.762,-31.738,193.359,0.000
1606138562.888,-3.418,-31.250,-40.039,117.676,0.000
1606138562.891,-73.730,-32.715,-42.969,-168.945,0.000
1606138562.895,-88.867,-27.832,-38.574,-273.438,0.000
1606138562.899,-31.738,-21.973,-33.691,-52.246,0.000
1606138562.903,24.902,-22.461,-22.461,201.660,0.000
1606138562.907,0.488,-27.832,-26.855,154.297,0.000
1606138562.911,-76.172,-3.906,-27.832,-138.672,0.000
1606138562.915,-97.168,6.836,-23.438,-274.414,0.000
1606138562.919,-37.598,-20.508,-23.926,-85.449,0.000
1606138562.923,32.227,-24.414,-24.902,187.012,0.000
1606138562.927,19.043,-22.949,-16.113,191.895,0.000
1606138562.931,-57.617,-20.508,-20.996,-85.938,0.000
1606138562.934,-95.215,-23.926,-33.203,-277.344,0.000
1606138562.938,-57.617,-35.645,-28.809,-145.508,0.000
1606138562.942,9.766,-27.344,-22.949,147.949,0.000
1606138562.946,5.859,-28.809,-26.367,201.660,0.000
1606138562.950,-58.105,-13.184,-24.902,-55.664,0.000
1606138562.954,-92.285,-2.930,-27.344,-275.391,0.000
1606138562.958,-62.988,-23.438,-34.180,-191.406,0.000
1606138562.962,11.719,-14.160,-35.156,104.492,0.000
1606138562.966,39.062,-6.836,-38.086,201.660,0.000
1606138562.970,-24.414,-15.137,-36.621,-28.809,0.000
1606138562.973,-89.355,-25.391,-29.297,-266.113,0.000
1606138562.977,-66.895,-24.414,-25.879,-211.426,0.000
1606138562.981,9.277,-21.484,-23.926,82.031,0.000
1606138562.985,28.809,-26.367,-23.926,212.891,0.000
1606138562.989,-35.156,-17.090,-35.645,-0.977,0.000
1606138562.993,-96.191,-15.625,-38.086,-274.902,0.000
1606138562.997,-83.008,-32.715,-34.180,-263.184,0.000
1606138563.001,-12.695,-33.203,-35.156,30.273,0.000
1606138563.005,25.391,-34.668,-29.785,205.078,0.000
1606138563.009,-18.066,-22.949,-37.109,43.457,0.000
1606138563.013,-85.938,-9.277,-42.480,-232.910,0.000
1606138563.016,-81.055,-25.879,-29.297,-260.742,0.000
1606138563.020,-5.371,-29.785,-24.902,20.020,0.000
1606138563.024,40.527,-16.113,-20.508,236.816,0.000
1606138563.028,2.441,-16.113,-18.066,111.328,0.000
1606138563.032,-73.730,-22.949,-33.203,-190.918,0.000
1606138563.036,-81.543,-27.832,-42.969,-265.137,0.000
1606138563.040,-12.207,-30.762,-32.715,-12.207,0.000
1606138563.044,35.156,-37.598,-21.484,222.168,0.000
1606138563.048,-0.488,-34.668,-27.344,135.254,0.000
1606138563.052,-78.125,-14.160,-32.227,-175.781,0.000
1606138563.056,-94.727,-27.832,-24.902,-284.668,0.000
1606138563.059,-37.109,-49.316,-23.926,-65.430,0.000
1606138563.063,19.043,-39.062,-20.020,191.895,0.000
1606138563.067,-0.488,-32.227,-21.484,157.715,0.000
1606138563.071,-68.359,-31.738,-28.809,-140.625,0.000
1606138563.075,-89.355,-29.785,-32.227,-292.480,0.000
1606138563.079,-37.598,-34.180,-37.109,-103.027,0.000
1606138563.083,32.715,-29.785,-29.297,190.918,0.000
1606138563.087,28.809,-25.879,-27.832,199.219,0.000
1606138563.091,-47.363,-28.809,-33.203,-98.633,0.000
1606138563.095,-86.426,-32.227,-33.203,-293.457,0.000
1606138563.098,-39.062,-34.668,-29.785,-151.367,0.000
1606138563.102,35.156,-29.297,-27.344,145.020,0.000
1606138563.106,38.574,-30.762,-28.809,196.289,0.000
1606138563.110,-38.086,-19.043,-41.016,-84.961,0.000
1606138563.114,-86.914,-4.883,-38.574,-308.105,0.000
1606138563.118,-44.922,-16.602,-32.715,-189.941,0.000
1606138563.122,35.645,-20.508,-34.668,124.512,0.000
1606138563.126,45.410,-24.414,-35.156,210.938,0.000
1606138563.130,-31.250,-25.391,-39.551,-34.668,0.000
1606138563.134,-81.543,-25.391,-33.203,-272.461,0.000
1606138563.138,-53.223,-30.762,-31.250,-216.797,0.000
1606138563.141,22.461,-25.879,-28.320,90.820,0.000
1606138563.145,45.898,-27.832,-17.578,228.516,0.000
1606138563.149,-19.043,-19.531,-22.949,24.902,0.000
1606138563.153,-83.984,-17.578,-24.902,-237.305,0.000
1606138563.157,-75.195,-35.156,-16.113,-225.586,0.000
1606138563.161,-7.812,-35.156,-17.090,60.059,0.000
1606138563.165,22.949,-29.297,-20.508,222.656,0.000
1606138563.169,-22.461,-26.855,-19.043,60.547,0.000
1606138563.173,-84.473,-39.062,-23.438,-218.262,0.000
1606138563.177,-78.613,-35.156,-24.414,-239.258,0.000
1606138563.181,-4.883,-20.508,-11.230,50.781,0.000
1606138563.184,32.227,-29.785,-14.648,240.234,0.000
1606138563.188,-13.672,-29.297,-30.273,95.703,0.000
1606138563.192,-86.426,0.977,-37.109,-201.172,0.000
1606138563.196,-88.379,-12.695,-23.926,-260.742,0.000
1606138563.200,-18.555,-38.086,-17.090,-11.230,0.000
1606138563.204,29.785,-36.621,-29.297,202.148,0.000
1606138563.208,4.395,-39.062,-28.320,117.188,0.000
1606138563.212,-66.406,-37.109,-31.250,-178.223,0.000
1606138563.216,-84.961,-40.039,-40.527,-289.062,0.000
1606138563.220,-27.344,-38.574,-41.016,-69.824,0.000
1606138563.223,26.367,-35.156,-32.227,186.035,0.000
1606138563.227,8.789,-36.621,-30.762,152.832,0.000
1606138563.231,-67.383,-21.484,-37.598,-152.344,0.000
1606138563.235,-98.145,-25.879,-38.086,-296.875,0.000
1606138563.239,-45.410,-39.062,-36.133,-106.934,0.000
1606138563.243,23.438,-30.273,-30.273,172.363,0.000
1606138563.247,18.555,-25.391,-18.066,190.918,0.000
1606138563.251,-62.012,-35.645,-17.090,-96.680,0.000
1606138563.255,-110.352,-42.969,-28.809,-287.598,0.000
1606138563.259,-65.918,-35.156,-26.855,-138.672,0.000
1606138563.263,6.348,-26.855,-24.902,152.832,0.000
1606138563.266,7.324,-22.949,-24.902,205.078,0.000
1606138563.270,-64.453,-23.438,-25.391,-51.758,0.000
1606138563.274,-105.957,-28.320,-27.832,-270.020,0.000
1606138563.278,-65.430,-39.551,-29.297,-169.434,0.000
1606138563.282,8.789,-35.156,-21.484,125.977,0.000
1606138563.286,22.949,-32.715,-12.695,212.402,0.000
1606138563.290,-43.945,-10.742,-18.555,-24.414,0.000
1606138563.294,-95.703,1.953,-21.484,-265.137,0.000
1606138563.298,-65.918,-40.527,-27.344,-205.566,0.000
1606138563.302,9.277,-37.598,-34.180,97.656,0.000
1606138563.306,25.879,-29.785,-30.273,222.656,0.000
1606138563.309,-33.691,-40.527,-30.762,15.625,0.000
1606138563.313,-83.984,-40.039,-31.250,-252.930,0.000
1606138563.317,-62.012,-37.598,-25.879,-237.305,0.000
1606138563.321,10.254,-36.133,-23.926,70.801,0.000
1606138563.325,37.598,-42.480,-21.484,235.352,0.000
1606138563.329,-11.719,-27.832,-22.949,58.105,0.000
1606138563.333,-78.125,-20.020,-26.855,-231.934,0.000
1606138563.337,-77.637,-40.039,-23.926,-253.418,0.000
1606138563.341,-2.930,-39.551,-28.320,31.738,0.000
1606138563.345,39.062,-37.109,-35.156,224.609,0.000
1606138563.348,-9.766,-36.621,-20.508,92.773,0.000
1606138563.352,-81.055,-36.133,-16.602,-197.754,0.000
1606138563.356,-86.914,-41.016,-27.344,-260.254,0.000
1606138563.360,-14.160,-35.645,-15.137,4.395,0.000
1606138563.364,34.668,-31.250,-9.766,235.840,0.000
1606138563.368,-4.395,-22.949,-18.066,147.949,0.000
1606138563.372,-87.891,4.395,-32.715,-158.691,0.000
1606138563.376,-104.492,-12.695,-38.574,-274.902,0.000
1606138563.380,-34.180,-34.180,-29.785,-52.734,0.000
1606138563.384,20.508,-27.344,-22.949,205.566,0.000
1606138563.388,-5.859,-31.738,-22.949,161.621,0.000
1606138563.391,-84.961,-37.109,-29.297,-150.879,0.000
1606138563.395,-110.840,-41.992,-30.273,-301.270,0.000
1606138563.399,-45.410,-33.203,-26.367,-111.328,0.000
1606138563.403,18.555,-31.738,-22.949,168.945,0.000
1606138563.407,4.883,-29.297,-23.926,172.852,0.000
1606138563.411,-58.594,-26.855,-31.250,-104.004,0.000
1606138563.415,-85.449,-37.598,-29.297,-274.414,0.000
1606138563.419,-46.875,-36.133,-36.621,-139.160,0.000
1606138563.423,16.602,-27.344,-41.016,142.578,0.000
1606138563.427,24.414,-27.344,-35.156,188.477,0.000
1606138563.431,-44.434,-13.672,-34.668,-72.754,0.000
1606138563.434,-92.285,-15.137,-34.668,-292.480,0.000
1606138563.438,-48.828,-26.367,-32.227,-178.223,0.000
1606138563.442,24.902,-16.602,-29.785,130.371,0.000
1606138563.446,30.273,-13.672,-30.273,207.520,0.000
1606138563.450,-41.016,-20.508,-31.738,-33.691,0.000
1606138563.454,-104.004,-27.832,-36.621,-284.668,0.000
1606138563.458,-73.730,-28.809,-36.133,-222.168,0.000
1606138563.462,6.348,-23.926,-26.855,101.562,0.000
1606138563.466,22.949,-38.574,-26.855,217.773,0.000
1606138563.470,-47.363,-15.625,-38.086,-10.742,0.000
1606138563.473,-100.098,18.555,-33.691,-264.160,0.000
1606138563.477,-72.754,-21.973,-28.320,-237.305,0.000
1606138563.481,-16.113,-39.062,-26.855,52.734,0.000
1606138563.485,12.207,-32.715,-32.227,211.914,0.000
1606138563.489,-37.109,-38.574,-35.645,38.574,0.000
1606138563.493,-113.770,-42.969,-33.691,-244.629,0.000
1606138563.497,-107.910,-43.945,-37.109,-273.926,0.000
1606138563.501,-28.320,-38.574,-29.785,16.602,0.000
1606138563.505,19.531,-43.457,-20.508,231.445,0.000
1606138563.509,-22.461,-30.762,-18.555,100.586,0.000
1606138563.513,-105.957,-13.672,-28.809,-220.215,0.000
1606138563.516,-112.305,-33.691,-38.574,-314.453,0.000
1606138563.520,-34.180,-39.062,-35.645,-48.340,0.000
1606138563.524,26.855,-33.203,-24.902,204.102,0.000
1606138563.528,-1.465,-35.156,-26.367,114.258,0.000
1606138563.532,-81.055,-39.551,-39.062,-203.613,0.000
1606138563.536,-94.238,-35.645,-37.109,-312.500,0.000
1606138563.540,-26.855,-31.250,-31.250,-84.473,0.000
1606138563.544,39.551,-33.203,-26.367,190.918,0.000
1606138563.548,17.578,-29.785,-28.809,159.668,0.000
1606138563.552,-65.430,-25.879,-26.367,-155.273,0.000
1606138563.556,-92.285,-29.785,-26.855,-296.387,0.000
1606138563.559,-35.156,-30.273,-35.645,-102.539,0.000
1606138563.563,28.320,-29.785,-37.109,166.504,0.000
1606138563.567,15.137,-38.086,-34.180,166.992,0.000
1606138563.571,-58.594,0.488,-27.344,-119.629,0.000
1606138563.575,-103.027,2.441,-34.180,-306.152,0.000
1606138563.579,-54.199,-38.086,-35.156,-145.020,0.000
1606138563.583,23.926,-37.109,-25.391,167.969,0.000
1606138563.587,23.926,-36.621,-26.855,221.191,0.000
1606138563.591,-49.805,-37.598,-26.855,-52.246,0.000
1606138563.595,-93.750,-37.598,-26.855,-261.230,0.000
1606138563.598,-51.758,-31.738,-27.832,-138.672,0.000
1606138563.602,17.578,-25.879,-14.160,160.645,0.000
1606138563.606,19.043,-35.156,-8.301,233.398,0.000
1606138563.610,-51.758,-32.715,-20.996,-16.113,0.000
1606138563.614,-107.422,-33.203,-20.996,-260.254,0.000
1606138563.618,-76.660,-53.711,-18.066,-204.102,0.000
1606138563.622,3.906,-46.387,-22.461,104.980,0.000
1606138563.626,21.484,-29.297,-21.973,228.027,0.000
1606138563.630,-31.250,-32.715,-23.438,0.977,0.000
1606138563.634,-86.426,-35.645,-26.367,-245.117,0.000
1606138563.638,-72.754,-33.203,-24.414,-208.008,0.000
1606138563.641,0.488,-31.250,-22.461,77.148,0.000
1606138563.645,31.250,-38.574,-23.438,224.609,0.000
1606138563.649,-14.160,-17.578,-26.855,54.688,0.000
1606138563.653,-78.125,7.324,-31.738,-223.633,0.000
1606138563.657,-74.219,-22.461,-28.320,-252.930,0.000
1606138563.661,0.000,-36.133,-29.297,14.160,0.000
1606138563.665,38.574,-26.367,-27.344,213.379,0.000
1606138563.669,0.000,-28.320,-22.461,93.262,0.000
1606138563.673,-69.336,-34.668,-34.668,-212.402,0.000
1606138563.677,-72.754,-31.250,-25.391,-278.809,0.000
1606138563.681,0.488,-20.996,-24.902,-12.207,0.000
1606138563.684,43.945,-20.508,-38.086,205.566,0.000
1606138563.688,9.277,-30.273,-22.949,124.023,0.000
1606138563.692,-52.246,-36.133,-20.996,-148.926,0.000
1606138563.696,-55.664,-28.320,-33.203,-245.117,0.000
1606138563.700,2.930,-17.090,-35.645,-25.879,0.000
1606138563.704,44.434,-17.578,-28.809,216.309,0.000
1606138563.708,11.719,-16.113,-30.273,159.668,0.000
1606138563.712,-64.453,-11.230,-34.180,-143.555,0.000
1606138563.716,-80.566,-15.625,-37.598,-281.738,0.000
1606138563.720,-23.926,-19.043,-50.293,-97.656,0.000
1606138563.723,32.227,-9.766,-52.734,161.133,0.000
1606138563.727,18.555,-3.418,-50.781,161.621,0.000
1606138563.731,-42.480,-2.930,-58.105,-131.836,0.000
1606138563.735,-74.707,-4.395,-64.941,-313.965,0.000
1606138563.739,-44.434,-3.906,-68.848,-148.438,0.000
1606138563.743,23.438,0.488,-66.895,140.625,0.000
1606138563.747,30.762,-2.441,-63.965,179.199,0.000
1606138563.751,-35.156,16.113,-60.059,-90.332,0.000
1606138563.755,-82.520,15.137,-60.547,-310.059,0.000
1606138563.759,-39.062,-13.672,-62.500,-182.129,0.000
1606138563.763,40.039,-13.184,-54.199,125.977,0.000
1606138563.766,49.316,-14.160,-49.805,208.496,0.000
1606138563.770,-11.719,-17.090,-53.711,-28.809,0.000
1606138563.774,-71.777,-26.367,-66.406,-259.277,0.000
1606138563.778,-43.457,-27.344,-68.848,-181.152,0.000
1606138563.782,45.410,-22.949,-62.500,110.840,0.000
1606138563.786,58.105,-22.461,-53.711,237.793,0.000
1606138563.790,-8.789,-0.488,-48.828,41.504,0.000
1606138563.794,-80.078,-4.395,-54.199,-230.957,0.000
1606138563.798,-66.406,-33.203,-49.316,-214.355,0.000
1606138563.802,24.414,-26.367,-40.527,85.449,0.000
1606138563.806,62.988,-19.043,-30.273,253.418,0.000
1606138563.809,10.254,-25.391,-25.391,78.613,0.000
1606138563.813,-60.547,-33.203,-41.992,-214.355,0.000
1606138563.817,-52.246,-31.738,-42.480,-238.770,0.000
1606138563.821,27.344,-23.438,-33.203,46.387,0.000
1606138563.825,56.641,-24.902,-36.133,232.910,0.000
1606138563.829,3.418,-24.902,-45.898,90.332,0.000
1606138563.833,-68.359,-26.367,-45.410,-202.148,0.000
1606138563.837,-74.219,-39.551,-45.898,-261.230,0.000
1606138563.841,-4.395,-32.227,-43.457,1.953,0.000
1606138563.845,47.363,-24.902,-36.621,217.773,0.000
1606138563.848,20.996,-16.113,-28.809,117.188,0.000
1606138563.852,-57.129,12.207,-38.574,-190.918,0.000
1606138563.856,-74.219,-11.230,-46.875,-291.016,0.000
1606138563.860,-15.625,-33.691,-40.039,-56.152,0.000
1606138563.864,30.762,-27.832,-40.527,181.641,0.000
1606138563.868,9.277,-30.273,-37.598,135.742,0.000
1606138563.872,-53.711,-29.297,-42.480,-161.133,0.000
1606138563.876,-84.961,-34.180,-40.527,-307.129,0.000
1606138563.880,-38.086,-36.621,-27.344,-103.027,0.000
1606138563.884,36.621,-32.715,-29.297,175.781,0.000
1606138563.888,25.879,-30.273,-33.691,161.621,0.000
1606138563.891,-53.711,-17.578,-34.180,-132.324,0.000
1606138563.895,-83.008,-13.184,-38.086,-310.059,0.000
1606138563.899,-26.367,-20.508,-33.691,-139.160,0.000
1606138563.903,45.410,-20.996,-33.203,164.551,0.000
1606138563.907,39.062,-23.926,-23.438,210.938,0.000
1606138563.911,-39.062,-32.715,-22.461,-58.105,0.000
1606138563.915,-81.543,-37.109,-33.203,-275.391,0.000
1606138563.919,-44.922,-34.668,-36.133,-162.598,0.000
1606138563.923,23.438,-34.180,-31.250,137.695,0.000
1606138563.927,38.086,-30.273,-19.531,226.074,0.000
1606138563.931,-27.344,-17.578,-19.043,-9.277,0.000
1606138563.934,-87.402,-25.391,-22.949,-250.488,0.000
1606138563.938,-59.082,-41.016,-23.926,-189.453,0.000
1606138563.942,21.484,-27.344,-22.461,109.863,0.000
1606138563.946,42.969,-21.973,-19.043,238.770,0.000
1606138563.950,-16.113,-27.344,-21.973,23.438,0.000
1606138563.954,-74.707,-29.297,-25.391,-245.605,0.000
1606138563.958,-61.523,-37.109,-37.598,-229.004,0.000
1606138563.962,22.949,-39.062,-24.902,75.195,0.000
1606138563.966,62.500,-28.809,-16.113,237.305,0.000
1606138563.970,3.906,-25.879,-31.738,45.898,0.000
1606138563.973,-63.965,-33.691,-29.297,-222.168,0.000
1606138563.977,-53.223,-26.367,-26.367,-218.262,0.000
1606138563.981,19.531,-21.484,-24.414,42.969,0.000
1606138563.985,53.711,-31.738,-12.695,220.703,0.000
1606138563.989,2.930,-28.320,-19.531,84.961,0.000
1606138563.993,-71.289,-28.809,-37.109,-212.402,0.000
1606138563.997,-69.336,-34.180,-32.715,-268.555,0.000
1606138564.001,8.789,-31.738,-27.832,1.465,0.000
1606138564.005,49.316,-34.668,-29.297,215.332,0.000
1606138564.009,5.371,-31.250,-29.785,112.793,0.000
1606138564.013,-68.359,-35.156,-34.668,-173.828,0.000
1606138564.016,-78.125,-40.039,-32.715,-266.113,0.000
1606138564.020,-11.230,-28.809,-25.879,-35.156,0.000
1606138564.024,43.457,-29.297,-28.320,206.543,0.000
1606138564.028,17.578,-27.344,-37.109,143.066,0.000
1606138564.032,-49.805,8.301,-39.551,-151.855,0.000
1606138564.036,-63.965,-1.953,-37.109,-276.855,0.000
1606138564.040,-20.996,-36.621,-34.180,-84.961,0.000
1606138564.044,33.691,-33.203,-31.250,176.758,0.000
1606138564.048,23.438,-31.250,-28.809,167.480,0.000
1606138564.052,-49.805,-39.062,-21.484,-116.699,0.000
1606138564.056,-74.219,-44.434,-22.949,-279.785,0.000
1606138564.059,-21.484,-35.156,-25.879,-106.934,0.000
1606138564.063,43.945,-28.320,-22.949,180.176,0.000
1606138564.067,37.109,-27.344,-24.414,213.867,0.000
1606138564.071,-40.527,-16.602,-29.785,-53.223,0.000
1606138564.075,-83.984,-21.973,-28.320,-256.836,0.000
1606138564.079,-45.898,-38.086,-35.156,-145.508,0.000
1606138564.083,26.855,-35.645,-25.879,148.438,0.000
1606138564.087,44.922,-25.879,-15.137,234.863,0.000
1606138564.091,-15.625,-23.438,-24.414,0.000,0.000
1606138564.095,-78.613,-35.645,-32.227,-234.863,0.000
1606138564.098,-57.129,-42.480,-31.250,-166.016,0.000
1606138564.102,20.508,-35.156,-21.973,130.859,0.000
1606138564.106,36.621,-37.109,-26.367,230.469,0.000
1606138564.110,-31.250,-40.527,-27.832,12.207,0.000
1606138564.114,-88.867,-35.156,-22.461,-236.328,0.000
1606138564.118,-67.871,-35.156,-35.645,-201.172,0.000
1606138564.122,3.418,-31.738,-42.969,79.590,0.000
1606138564.126,33.203,-24.414,-29.785,225.586,0.000
1606138564.130,-21.973,-23.926,-15.625,62.500,0.000
1606138564.134,-80.078,-28.809,-23.438,-210.449,0.000
1606138564.138,-66.406,-31.250,-35.156,-232.422,0.000
1606138564.141,6.348,-30.273,-31.250,46.387,0.000
1606138564.145,45.898,-24.414,-29.297,230.469,0.000
1606138564.149,10.742,-18.555,-25.879,95.215,0.000
1606138564.153,-54.688,-22.949,-28.320,-194.336,0.000
1606138564.157,-63.965,-30.273,-24.902,-257.324,0.000
1606138564.161,4.395,-20.508,-19.531,10.254,0.000
1606138564.165,51.758,-17.090,-21.484,240.234,0.000
1606138564.169,13.672,-22.461,-18.555,138.184,0.000
1606138564.173,-71.289,-28.809,-26.855,-172.852,0.000
1606138564.177,-89.355,-39.551,-36.133,-276.367,0.000
1606138564.181,-18.066,-33.203,-31.250,-39.062,0.000
1606138564.184,41.992,-23.438,-19.531,211.914,0.000
1606138564.188,17.090,-22.461,-20.508,156.738,0.000
1606138564.192,-61.523,-28.320,-30.762,-147.461,0.000
1606138564.196,-86.426,-25.391,-23.438,-274.902,0.000
1606138564.200,-30.762,-21.484,-15.625,-70.312,0.000
1606138564.204,25.879,-33.203,-18.555,188.965,0.000
1606138564.208,13.672,-27.344,-10.254,184.082,0.000
1606138564.212,-62.988,-10.742,-12.695,-93.262,0.000
1606138564.216,-100.586,-23.438,-22.461,-269.043,0.000
1606138564.220,-58.594,-36.133,-25.391,-131.348,0.000
1606138564.223,6.348,-34.668,-25.879,146.484,0.000
1606138564.227,5.859,-31.738,-22.461,185.059,0.000
1606138564.231,-74.707,-25.879,-27.344,-92.285,0.000
1606138564.235,-119.629,-28.809,-31.250,-296.387,0.000
1606138564.239,-70.312,-34.668,-25.391,-167.480,0.000
1606138564.243,5.371,-35.156,-29.297,137.207,0.000
1606138564.247,5.859,-39.062,-28.809,210.938,0.000
1606138564.251,-59.570,-43.457,-24.414,-40.527,0.000
1606138564.255,-96.191,-41.016,-21.973,-271.973,0.000
1606138564.259,-66.406,-33.691,-21.484,-194.336,0.000
1606138564.263,10.742,-27.832,-26.367,106.445,0.000
1606138564.266,44.434,-24.414,-29.785,223.145,0.000
1606138564.270,-16.602,-14.160,-38.086,1.465,0.000
1606138564.274,-79.590,-19.531,-34.668,-253.906,0.000
1606138564.278,-58.105,-33.691,-28.809,-213.867,0.000
1606138564.282,16.602,-29.785,-26.367,83.008,0.000
1606138564.286,47.363,-31.250,-15.625,229.492,0.000
1606138564.290,-2.930,-32.227,-15.625,44.434,0.000
1606138564.294,-73.730,-26.367,-31.738,-228.516,0.000
1606138564.298,-62.988,-20.020,-31.250,-239.258,0.000
1606138564.302,13.672,-14.160,-22.949,45.410,0.000
1606138564.306,47.363,-20.020,-19.043,239.746,0.000
1606138564.309,2.441,-12.207,-21.973,90.820,0.000
1606138564.313,-76.172,-0.977,-32.227,-210.938,0.000
1606138564.317,-80.566,-23.926,-29.297,-260.742,0.000
1606138564.321,-5.859,-32.715,-20.020,-0.488,0.000
1606138564.325,37.109,-28.320,-21.973,213.379,0.000
1606138564.329,-1.953,-30.273,-27.344,108.887,0.000
1606138564.333,-84.473,-35.645,-30.273,-194.336,0.000
1606138564.337,-95.703,-40.039,-29.297,-277.344,0.000
1606138564.341,-31.738,-38.574,-34.668,-44.922,0.000
1606138564.345,20.508,-38.086,-32.715,190.430,0.000
1606138564.348,3.906,-24.902,-20.996,146.973,0.000
1606138564.352,-77.148,-19.531,-24.902,-143.066,0.000
1606138564.356,-104.004,-34.180,-32.227,-285.156,0.000
1606138564.360,-44.434,-36.621,-29.785,-86.914,0.000
1606138564.364,18.066,-34.180,-26.367,181.152,0.000
1606138564.368,7.324,-31.250,-30.762,177.246,0.000
1606138564.372,-66.406,-40.039,-38.086,-113.281,0.000
1606138564.376,-97.168,-45.898,-30.762,-272.461,0.000
1606138564.380,-49.316,-39.551,-26.855,-99.121,0.000
1606138564.384,24.902,-31.250,-25.391,175.293,0.000
1606138564.388,30.762,-28.809,-19.043,211.426,0.000
1606138564.391,-39.551,-32.715,-24.902,-56.152,0.000
1606138564.395,-76.172,-39.551,-30.273,-259.766,0.000
1606138564.399,-33.691,-32.227,-30.273,-133.789,0.000
1606138564.403,37.109,-25.879,-35.156,153.809,0.000
1606138564.407,44.434,-33.691,-28.809,217.773,0.000
1606138564.411,-26.855,-9.766,-34.180,-37.598,0.000
1606138564.415,-80.078,-1.953,-37.598,-269.043,0.000
1606138564.419,-44.434,-29.297,-27.344,-181.641,0.000
1606138564.423,34.180,-23.438,-22.949,118.164,0.000
1606138564.427,42.969,-23.438,-20.508,221.191,0.000
1606138564.431,-21.484,-34.668,-19.531,1.465,0.000
1606138564.434,-75.684,-28.320,-18.066,-245.117,0.000
1606138564.438,-64.453,-27.832,-22.949,-215.820,0.000
1606138564.442,3.418,-35.156,-28.809,76.172,0.000
1606138564.446,25.391,-31.250,-32.715,230.469,0.000
1606138564.450,-36.133,-27.832,-32.227,36.133,0.000
1606138564.454,-103.516,-35.645,-32.715,-245.605,0.000
1606138564.458,-95.215,-43.457,-32.227,-251.465,0.000
1606138564.462,-14.160,-34.180,-22.461,37.109,0.000
1606138564.466,27.832,-24.902,-10.742,227.539,0.000
1606138564.470,-22.949,-25.391,-20.020,77.148,0.000
1606138564.473,-95.215,-34.180,-40.039,-217.285,0.000
1606138564.477,-92.285,-33.691,-34.668,-258.301,0.000
1606138564.481,-17.090,-26.855,-22.949,6.836,0.000
1606138564.485,32.227,-39.062,-22.949,214.355,0.000
1606138564.489,1.953,-23.926,-21.484,121.094,0.000
1606138564.493,-64.453,-9.277,-27.344,-166.504,0.000
1606138564.497,-80.078,-37.598,-33.691,-259.766,0.000
1606138564.501,-13.672,-44.922,-28.320,-26.367,0.000
1606138564.505,36.133,-34.668,-24.902,211.426,0.000
1606138564.509,-1.953,-26.855,-30.762,143.066,0.000
1606138564.513,-73.730,-29.785,-36.133,-162.598,0.000
1606138564.516,-82.031,-34.180,-29.785,-276.855,0.000
1606138564.520,-20.996,-34.668,-25.879,-78.613,0.000
1606138564.524,36.133,-30.273,-25.391,181.152,0.000
1606138564.528,19.043,-31.250,-32.227,173.340,0.000
1606138564.532,-55.664,-39.551,-30.273,-118.652,0.000
1606138564.536,-84.473,-41.016,-23.926,-282.227,0.000
1606138564.540,-31.738,-39.551,-30.273,-109.375,0.000
1606138564.544,36.621,-33.203,-30.273,165.527,0.000
1606138564.548,31.738,-30.762,-28.809,187.988,0.000
1606138564.552,-45.898,-31.738,-34.180,-92.773,0.000
1606138564.556,-86.914,-27.832,-33.691,-290.039,0.000
1606138564.559,-39.551,-30.273,-33.691,-162.109,0.000
1606138564.563,37.598,-29.297,-30.273,141.602,0.000
1606138564.567,34.668,-26.855,-22.949,212.402,0.000
1606138564.571,-43.945,-26.367,-27.832,-48.340,0.000
1606138564.575,-95.703,-35.645,-38.574,-278.809,0.000
1606138564.579,-70.312,-43.457,-41.016,-207.031,0.000
1606138564.583,3.906,-37.598,-34.668,105.957,0.000
1606138564.587,28.809,-27.344,-28.320,240.234,0.000
1606138564.591,-29.785,-15.137,-25.879,10.254,0.000
1606138564.595,-99.121,-11.230,-30.762,-278.320,0.000
1606138564.598,-80.566,-29.785,-31.738,-248.047,0.000
1606138564.602,6.348,-30.273,-29.297,68.359,0.000
1606138564.606,39.062,-20.996,-28.320,231.445,0.000
1606138564.610,-19.531,-25.391,-29.785,45.410,0.000
1606138564.614,-92.285,-36.133,-40.039,-254.883,0.000
1606138564.618,-82.520,-33.203,-33.691,-265.625,0.000
1606138564.622,-2.441,-23.926,-25.391,45.898,0.000
1606138564.626,38.574,-28.320,-29.785,242.676,0.000
1606138564.630,-16.113,-28.809,-34.668,74.219,0.000
1606138564.634,-99.609,-30.762,-38.086,-227.051,0.000
1606138564.638,-103.027,-31.250,-32.715,-281.250,0.000
1606138564.641,-29.785,-25.391,-25.391,-8.789,0.000
1606138564.645,22.949,-32.227,-20.508,227.051,0.000
1606138564.649,-8.789,-16.113,-24.414,123.535,0.000
1606138564.653,-82.520,-7.324,-27.344,-183.594,0.000
1606138564.657,-93.750,-35.156,-29.297,-288.574,0.000
1606138564.661,-20.020,-32.715,-28.809,-53.223,0.000
1606138564.665,54.688,-20.020,-29.297,225.586,0.000
1606138564.669,20.996,-28.809,-29.785,172.852,0.000
1606138564.673,-78.125,-41.992,-24.902,-137.207,0.000
1606138564.677,-106.445,-43.945,-20.996,-273.438,0.000
1606138564.681,-44.434,-41.016,-10.254,-70.312,0.000
1606138564.684,19.043,-42.969,-2.441,208.008,0.000
1606138564.688,-13.184,-46.387,-8.301,172.363,0.000
1606138564.692,-102.051,-24.414,-4.395,-136.230,0.000
1606138564.696,-114.746,-35.645,-1.465,-279.785,0.000
1606138564.700,-71.289,-61.035,0.977,-115.723,0.000
1606138564.704,-12.695,-50.781,10.254,174.316,0.000
1606138564.708,-3.418,-58.105,12.695,196.777,0.000
1606138564.712,-70.801,-67.383,10.742,-105.957,0.000
1606138564.716,-104.980,-62.988,17.090,-284.180,0.000
1606138564.720,-56.152,-62.012,18.066,-140.625,0.000
1606138564.723,20.996,-54.688,14.160,150.391,0.000
