timestamps,TP9,AF7,AF8,TP10,Right AUX
1606132542.311,0.000,0.000,0.000,0.000,0.000
1606132542.315,-0.977,-0.488,0.000,-1.953,0.000
1606132542.319,-7.324,-1.953,-1.953,-18.066,0.000
1606132542.323,29.297,4.395,4.395,70.312,0.000
1606132542.327,-127.441,-20.996,-20.996,-298.828,0.000
1606132542.330,-135.254,-41.016,-42.969,-334.961,0.000
1606132542.334,246.094,-3.906,-13.184,588.867,0.000
1606132542.338,251.465,-1.953,-9.766,686.523,0.000
1606132542.342,-139.160,-41.992,-36.621,-208.008,0.000
1606132542.346,-361.816,-54.199,-48.828,-824.707,0.000
1606132542.350,-159.180,-33.691,-34.180,-407.715,0.000
1606132542.354,206.055,-10.742,-17.578,497.070,0.000
1606132542.358,265.137,-9.277,-19.043,709.961,0.000
1606132542.362,-84.473,-28.320,-34.180,-94.727,0.000
1606132542.366,-352.051,-43.945,-47.852,-795.898,0.000
1606132542.370,-200.195,-33.691,-44.922,-505.859,0.000
1606132542.373,175.781,-7.812,-21.484,417.480,0.000
1606132542.377,290.039,-5.859,-7.812,755.371,0.000
1606132542.381,-20.020,-24.414,-29.297,36.621,0.000
1606132542.385,-330.566,-44.922,-45.410,-740.723,0.000
1606132542.389,-239.746,-47.852,-36.133,-596.680,0.000
1606132542.393,151.367,-16.602,-17.090,325.195,0.000
1606132542.397,303.711,3.418,-5.859,770.020,0.000
1606132542.401,16.113,-19.043,-27.344,148.926,0.000
1606132542.405,-319.824,-44.434,-42.969,-690.430,0.000
1606132542.409,-287.109,-39.062,-36.133,-679.688,0.000
1606132542.412,100.098,-12.207,-13.672,221.191,0.000
1606132542.416,310.547,-1.465,1.953,771.484,0.000
1606132542.420,55.664,-21.973,-14.160,261.230,0.000
1606132542.424,-297.852,-41.016,-36.621,-618.652,0.000
1606132542.428,-294.922,-45.898,-34.668,-716.309,0.000
1606132542.432,48.340,-32.715,-25.391,122.070,0.000
1606132542.436,276.367,-13.184,-21.973,728.516,0.000
1606132542.440,89.355,-19.043,-32.227,336.426,0.000
1606132542.444,-295.410,-44.922,-47.363,-565.430,0.000
1606132542.448,-365.234,-52.734,-48.340,-810.059,0.000
1606132542.452,-12.695,-24.902,-34.668,-19.043,0.000
1606132542.455,266.602,-3.418,-15.625,716.309,0.000
1606132542.459,130.371,-11.719,-21.973,457.520,0.000
1606132542.463,-243.164,-40.527,-47.852,-468.750,0.000
1606132542.467,-362.305,-55.664,-56.152,-842.285,0.000
1606132542.471,-39.062,-27.344,-31.250,-132.812,0.000
1606132542.475,278.809,-2.441,-14.648,683.105,0.000
1606132542.479,184.570,-22.461,-28.320,551.270,0.000
1606132542.483,-200.684,-45.898,-41.504,-366.699,0.000
1606132542.487,-373.047,-54.688,-48.340,-842.285,0.000
1606132542.491,-93.262,-33.691,-37.109,-254.395,0.000
1606132542.495,258.789,-7.324,-14.160,609.863,0.000
1606132542.498,244.141,-10.742,-17.578,641.113,0.000
1606132542.502,-138.672,-31.738,-37.598,-257.324,0.000
1606132542.506,-364.746,-42.969,-47.363,-851.074,0.000
1606132542.510,-142.090,-32.227,-38.086,-385.254,0.000
1606132542.514,220.703,-13.672,-16.602,511.719,0.000
1606132542.518,258.789,-10.742,-14.648,684.570,0.000
1606132542.522,-96.191,-29.785,-38.574,-136.230,0.000
1606132542.526,-353.516,-49.316,-56.641,-800.781,0.000
1606132542.530,-178.223,-33.691,-37.109,-459.473,0.000
1606132542.534,199.707,-6.836,-18.555,445.801,0.000
1606132542.537,290.527,-11.230,-20.508,734.375,0.000
1606132542.541,-35.645,-35.645,-32.227,-15.137,0.000
1606132542.545,-347.656,-58.594,-50.293,-773.438,0.000
1606132542.549,-236.328,-51.270,-40.039,-569.824,0.000
1606132542.553,153.320,-23.438,-13.672,358.398,0.000
1606132542.557,281.250,-18.066,-9.277,757.812,0.000
1606132542.561,-22.949,-37.109,-27.832,91.797,0.000
1606132542.565,-342.285,-51.758,-40.527,-722.656,0.000
1606132542.569,-282.715,-45.898,-36.621,-650.879,0.000
1606132542.573,92.285,-26.855,-19.043,246.582,0.000
1606132542.577,280.273,-17.578,-6.836,753.418,0.000
1606132542.580,30.273,-32.227,-15.137,211.914,0.000
1606132542.584,-325.195,-52.734,-38.574,-659.180,0.000
1606132542.588,-319.824,-53.223,-40.039,-734.863,0.000
1606132542.592,61.523,-29.297,-17.578,142.578,0.000
1606132542.596,283.203,-18.555,-9.766,755.859,0.000
1606132542.600,72.266,-34.180,-20.996,326.660,0.000
1606132542.604,-287.109,-48.340,-39.062,-572.754,0.000
1606132542.608,-336.914,-47.852,-39.062,-781.250,0.000
1606132542.612,15.625,-25.879,-24.414,40.527,0.000
1606132542.616,277.832,-7.324,-15.137,739.746,0.000
1606132542.620,111.816,-19.043,-26.855,417.480,0.000
1606132542.623,-267.090,-43.945,-38.574,-500.488,0.000
1606132542.627,-366.699,-55.664,-35.156,-815.918,0.000
1606132542.631,-33.691,-24.414,-17.578,-74.707,0.000
1606132542.635,274.902,3.906,0.977,695.801,0.000
1606132542.639,173.828,-17.090,-10.254,523.926,0.000
1606132542.643,-218.750,-47.363,-39.551,-401.367,0.000
1606132542.647,-367.676,-52.734,-48.828,-840.820,0.000
1606132542.651,-66.895,-32.227,-32.227,-209.473,0.000
1606132542.655,263.184,-10.254,-18.555,621.094,0.000
1606132542.659,211.426,-9.766,-20.996,593.750,0.000
1606132542.662,-166.504,-34.180,-39.551,-306.641,0.000
1606132542.666,-361.816,-49.316,-48.340,-851.562,0.000
1606132542.670,-128.418,-33.691,-35.156,-335.938,0.000
1606132542.674,222.656,-10.742,-16.113,534.668,0.000
1606132542.678,250.977,-8.301,-5.859,653.320,0.000
1606132542.682,-119.629,-35.645,-31.738,-202.148,0.000
1606132542.686,-360.840,-46.875,-52.734,-849.121,0.000
1606132542.690,-160.645,-30.762,-43.945,-451.172,0.000
1606132542.694,214.844,-6.836,-25.879,466.797,0.000
1606132542.698,285.156,6.836,-18.555,705.566,0.000
1606132542.702,-63.477,-16.113,-31.738,-85.938,0.000
1606132542.705,-344.727,-38.086,-50.293,-802.734,0.000
1606132542.709,-199.707,-28.320,-42.969,-532.227,0.000
1606132542.713,187.988,-4.395,-13.672,401.367,0.000
1606132542.717,301.270,-5.371,0.000,768.066,0.000
1606132542.721,-26.367,-28.809,-21.973,68.359,0.000
1606132542.725,-344.727,-47.363,-41.016,-723.145,0.000
1606132542.729,-255.371,-40.039,-32.227,-596.680,0.000
1606132542.733,125.488,-12.695,-14.160,317.871,0.000
1606132542.737,287.109,-14.648,-7.324,789.062,0.000
1606132542.741,12.207,-38.086,-21.973,190.918,0.000
1606132542.745,-327.148,-51.270,-35.156,-664.551,0.000
1606132542.748,-299.316,-48.340,-39.062,-679.688,0.000
1606132542.752,76.660,-18.555,-25.391,209.961,0.000
1606132542.756,291.992,-2.441,-6.348,788.086,0.000
1606132542.760,62.988,-29.297,-14.160,294.434,0.000
1606132542.764,-298.340,-54.199,-38.086,-599.121,0.000
1606132542.768,-326.172,-48.828,-43.945,-753.906,0.000
1606132542.772,35.156,-21.973,-21.973,73.242,0.000
1606132542.776,279.785,-13.184,-9.277,733.398,0.000
1606132542.780,94.727,-31.738,-23.926,373.047,0.000
1606132542.784,-277.832,-50.781,-41.992,-546.387,0.000
1606132542.787,-357.422,-51.270,-43.457,-825.684,0.000
1606132542.791,-19.043,-32.227,-30.273,-57.129,0.000
1606132542.795,272.949,-17.090,-14.160,694.824,0.000
1606132542.799,146.973,-24.414,-20.020,467.285,0.000
1606132542.803,-236.816,-46.875,-43.945,-454.590,0.000
1606132542.807,-364.258,-50.293,-49.805,-843.750,0.000
1606132542.811,-65.918,-35.156,-37.598,-177.734,0.000
1606132542.815,250.977,-20.508,-28.809,630.371,0.000
1606132542.819,186.035,-21.973,-29.785,548.828,0.000
1606132542.823,-192.383,-50.781,-42.480,-361.328,0.000
1606132542.827,-364.258,-61.523,-51.758,-863.281,0.000
1606132542.830,-98.145,-44.922,-37.109,-293.457,0.000
1606132542.834,248.047,-22.461,-17.578,582.520,0.000
1606132542.838,240.234,-28.320,-15.625,641.113,0.000
1606132542.842,-131.348,-45.898,-33.691,-238.281,0.000
1606132542.846,-357.910,-49.316,-46.387,-832.520,0.000
1606132542.850,-142.578,-37.598,-36.133,-375.000,0.000
1606132542.854,219.727,-16.113,-22.461,520.508,0.000
1606132542.858,259.277,-8.301,-23.926,706.055,0.000
1606132542.862,-98.633,-31.250,-36.621,-111.328,0.000
1606132542.866,-359.863,-49.316,-44.434,-798.828,0.000
1606132542.870,-187.012,-30.762,-35.156,-468.750,0.000
1606132542.873,196.289,-8.301,-13.672,454.590,0.000
1606132542.877,293.945,-6.348,-6.836,761.719,0.000
1606132542.881,-31.250,-23.438,-24.414,28.320,0.000
1606132542.885,-332.031,-41.016,-36.621,-731.445,0.000
1606132542.889,-218.750,-32.715,-32.715,-554.199,0.000
1606132542.893,168.945,-7.812,-16.602,357.910,0.000
1606132542.897,309.570,15.137,-12.695,785.645,0.000
1606132542.901,19.043,-0.488,-29.297,142.090,0.000
1606132542.905,-307.129,-38.574,-40.527,-694.336,0.000
1606132542.909,-255.371,-38.574,-32.227,-655.762,0.000
1606132542.912,121.094,-17.090,-14.160,244.141,0.000
1606132542.916,311.523,-5.371,-14.648,775.879,0.000
1606132542.920,60.547,-23.438,-32.227,240.234,0.000
1606132542.924,-291.504,-50.293,-49.805,-632.324,0.000
1606132542.928,-286.621,-42.480,-48.828,-722.168,0.000
1606132542.932,88.867,-9.766,-21.973,139.160,0.000
1606132542.936,320.312,1.465,-9.277,757.812,0.000
1606132542.940,112.305,-13.672,-21.484,345.703,0.000
1606132542.944,-260.254,-36.621,-35.645,-554.688,0.000
1606132542.948,-325.195,-48.340,-40.527,-788.086,0.000
1606132542.952,19.043,-28.809,-24.902,6.348,0.000
1606132542.955,286.133,-9.277,-12.695,716.309,0.000
1606132542.959,136.230,-17.578,-20.508,442.871,0.000
1606132542.963,-247.559,-43.457,-38.086,-476.074,0.000
1606132542.967,-370.605,-56.641,-51.270,-826.172,0.000
1606132542.971,-53.711,-35.156,-33.691,-107.910,0.000
1606132542.975,257.812,-7.324,-8.301,677.246,0.000
1606132542.979,162.109,-13.672,-15.137,527.344,0.000
1606132542.983,-223.145,-41.992,-42.969,-388.184,0.000
1606132542.987,-380.859,-50.293,-46.875,-837.891,0.000
1606132542.991,-109.863,-36.133,-19.043,-227.539,0.000
1606132542.995,230.469,-14.648,3.906,615.234,0.000
1606132542.998,208.496,-4.883,-11.230,610.352,0.000
1606132543.002,-172.363,-37.598,-35.645,-285.156,0.000
1606132543.006,-378.418,-58.594,-41.016,-846.680,0.000
1606132543.010,-137.695,-37.598,-24.902,-343.750,0.000
1606132543.014,223.633,-12.207,-5.371,545.410,0.000
1606132543.018,247.070,-4.395,-7.812,673.828,0.000
1606132543.022,-109.375,-25.879,-22.461,-165.039,0.000
1606132543.026,-349.609,-43.457,-43.457,-808.594,0.000
1606132543.030,-153.320,-27.344,-41.992,-428.711,0.000
1606132543.034,234.375,0.977,-14.160,494.629,0.000
1606132543.037,309.570,8.301,-13.184,750.488,0.000
1606132543.041,-33.691,-16.113,-34.668,-29.785,0.000
1606132543.045,-312.988,-38.086,-41.016,-755.371,0.000
1606132543.049,-181.152,-31.250,-27.344,-518.555,0.000
1606132543.053,194.824,-14.160,-11.230,399.414,0.000
1606132543.057,315.430,-6.348,-9.766,783.203,0.000
1606132543.061,6.836,-26.367,-22.949,105.957,0.000
1606132543.065,-308.105,-44.434,-37.598,-693.359,0.000
1606132543.069,-226.074,-32.227,-33.203,-594.727,0.000
1606132543.073,157.227,-10.742,-18.066,311.035,0.000
1606132543.077,318.848,-5.371,-15.137,797.363,0.000
1606132543.080,46.875,-19.043,-31.738,216.797,0.000
1606132543.084,-294.922,-35.156,-49.316,-646.484,0.000
1606132543.088,-271.973,-29.785,-37.109,-676.270,0.000
1606132543.092,105.469,-11.230,-15.137,209.473,0.000
1606132543.096,325.195,5.371,-4.883,792.969,0.000
1606132543.100,107.422,-0.488,-16.602,330.078,0.000
1606132543.104,-263.184,-33.691,-35.645,-565.918,0.000
1606132543.108,-310.059,-45.410,-38.086,-747.070,0.000
1606132543.112,48.340,-26.855,-29.297,74.707,0.000
1606132543.116,306.152,-9.766,-19.043,749.023,0.000
1606132543.120,130.859,-17.578,-21.973,408.691,0.000
1606132543.123,-251.465,-45.898,-39.062,-511.719,0.000
1606132543.127,-342.773,-50.293,-41.016,-812.988,0.000
1606132543.131,-7.812,-22.949,-21.973,-62.500,0.000
1606132543.135,286.621,0.000,-13.184,687.500,0.000
1606132543.139,166.992,-8.789,-22.949,484.863,0.000
1606132543.143,-234.375,-46.875,-40.039,-441.406,0.000
1606132543.147,-377.930,-52.734,-40.527,-850.586,0.000
1606132543.151,-74.219,-32.227,-29.297,-190.918,0.000
1606132543.155,248.047,-12.207,-17.578,625.977,0.000
1606132543.159,188.477,-14.160,-18.066,569.824,0.000
1606132543.162,-194.824,-41.016,-37.109,-329.590,0.000
1606132543.166,-385.254,-51.758,-44.434,-851.074,0.000
1606132543.170,-129.883,-36.133,-20.996,-307.129,0.000
1606132543.174,224.609,-10.742,-3.418,571.289,0.000
1606132543.178,224.121,-6.348,-8.301,660.156,0.000
1606132543.182,-146.484,-35.645,-29.785,-207.031,0.000
1606132543.186,-370.117,-50.293,-38.574,-825.195,0.000
1606132543.190,-151.855,-25.879,-16.602,-395.508,0.000
1606132543.194,223.145,-3.418,-7.324,510.742,0.000
1606132543.198,278.320,-6.836,-5.371,720.703,0.000
1606132543.202,-75.684,-33.203,-20.508,-85.449,0.000
1606132543.205,-343.262,-48.828,-39.062,-780.762,0.000
1606132543.209,-184.570,-35.156,-24.902,-482.422,0.000
1606132543.213,195.312,-13.184,-2.441,432.129,0.000
1606132543.217,295.898,-10.254,-1.465,754.883,0.000
1606132543.221,-34.180,-38.574,-15.625,31.738,0.000
1606132543.225,-335.938,-50.781,-29.785,-739.258,0.000
1606132543.229,-230.469,-43.457,-30.273,-588.867,0.000
1606132543.233,157.227,-24.414,-13.672,328.125,0.000
1606132543.237,315.430,2.930,-11.230,772.461,0.000
1606132543.241,35.645,-10.742,-20.508,151.367,0.000
1606132543.245,-298.828,-43.457,-36.621,-682.617,0.000
1606132543.248,-252.930,-41.504,-43.457,-665.039,0.000
1606132543.252,131.348,-17.578,-26.367,232.910,0.000
1606132543.256,327.637,-5.859,-13.672,782.227,0.000
1606132543.260,80.566,-22.461,-32.227,270.020,0.000
1606132543.264,-278.809,-44.922,-48.828,-602.051,0.000
1606132543.268,-291.016,-42.480,-43.457,-709.961,0.000
1606132543.272,77.148,-15.625,-21.973,140.625,0.000
1606132543.276,313.965,6.348,-7.324,774.902,0.000
1606132543.280,117.188,-12.207,-17.090,383.301,0.000
1606132543.284,-260.742,-55.664,-36.621,-521.484,0.000
1606132543.287,-326.660,-57.617,-45.410,-759.766,0.000
1606132543.291,17.578,-22.461,-32.715,21.484,0.000
1606132543.295,281.738,-1.953,-23.438,719.727,0.000
1606132543.299,144.531,-10.742,-30.273,456.543,0.000
1606132543.303,-233.887,-39.551,-47.852,-449.707,0.000
1606132543.307,-355.469,-46.387,-49.805,-809.570,0.000
1606132543.311,-46.387,-27.344,-32.227,-119.141,0.000
1606132543.315,264.648,-1.953,-20.508,665.527,0.000
1606132543.319,183.105,-0.977,-24.902,544.922,0.000
1606132543.323,-207.520,-40.527,-50.781,-373.535,0.000
1606132543.327,-378.418,-58.594,-59.570,-855.469,0.000
1606132543.330,-105.957,-41.016,-46.387,-265.625,0.000
1606132543.334,239.258,-9.766,-27.832,590.820,0.000
1606132543.338,213.379,-11.719,-28.809,614.746,0.000
1606132543.342,-161.621,-40.527,-54.688,-276.855,0.000
1606132543.346,-362.793,-45.898,-68.359,-852.539,0.000
1606132543.350,-130.371,-32.227,-49.316,-367.676,0.000
1606132543.354,228.516,-8.789,-23.926,528.809,0.000
1606132543.358,262.207,-4.395,-20.508,686.523,0.000
1606132543.362,-96.680,-33.203,-39.062,-145.996,0.000
1606132543.366,-350.098,-48.340,-57.617,-812.012,0.000
1606132543.370,-174.316,-31.738,-45.898,-466.797,0.000
1606132543.373,203.613,-13.672,-22.949,448.730,0.000
1606132543.377,290.527,3.906,-16.113,729.492,0.000
1606132543.381,-43.457,-11.719,-26.855,-24.414,0.000
1606132543.385,-339.844,-53.711,-41.504,-765.137,0.000
1606132543.389,-232.422,-51.758,-43.457,-561.035,0.000
1606132543.393,154.297,-23.926,-20.508,359.863,0.000
1606132543.397,293.945,-10.742,-10.742,756.836,0.000
1606132543.401,-11.719,-27.832,-32.715,86.426,0.000
1606132543.405,-348.145,-55.664,-52.246,-727.539,0.000
1606132543.409,-291.504,-58.594,-47.852,-647.949,0.000
1606132543.412,96.191,-38.086,-27.344,268.066,0.000
1606132543.416,275.391,-10.254,-17.578,770.996,0.000
1606132543.420,11.719,-27.344,-30.762,204.102,0.000
1606132543.424,-336.914,-68.359,-49.316,-665.039,0.000
1606132543.428,-326.660,-64.941,-37.598,-720.215,0.000
1606132543.432,53.711,-44.434,-10.254,164.062,0.000
1606132543.436,280.762,-33.691,-7.812,765.625,0.000
1606132543.440,71.777,-43.945,-27.344,326.172,0.000
1606132543.444,-285.645,-70.801,-49.805,-569.824,0.000
1606132543.448,-333.496,-73.730,-52.734,-773.926,0.000
1606132543.452,11.230,-49.316,-31.250,41.016,0.000
1606132543.455,275.879,-23.926,-20.020,731.445,0.000
1606132543.459,124.512,-27.832,-32.227,416.016,0.000
1606132543.463,-258.301,-61.035,-53.711,-509.766,0.000
1606132543.467,-365.234,-69.336,-53.711,-838.867,0.000
1606132543.471,-38.086,-48.828,-33.691,-102.051,0.000
1606132543.475,266.113,-12.207,-19.043,673.828,0.000
1606132543.479,168.945,-5.859,-12.695,514.648,0.000
1606132543.483,-207.520,-45.410,-34.668,-387.695,0.000
1606132543.487,-357.422,-63.477,-56.152,-820.312,0.000
1606132543.491,-62.500,-45.898,-29.785,-183.105,0.000
1606132543.495,269.531,-21.484,-7.812,647.949,0.000
1606132543.498,222.168,-19.043,-9.277,618.652,0.000
1606132543.502,-162.109,-48.828,-30.762,-275.879,0.000
1606132543.506,-357.422,-62.988,-45.898,-809.082,0.000
1606132543.510,-108.887,-43.457,-30.762,-290.039,0.000
1606132543.514,239.746,-11.719,-9.766,575.684,0.000
1606132543.518,244.629,5.859,-12.207,683.105,0.000
1606132543.522,-125.977,-30.762,-33.691,-173.828,0.000
1606132543.526,-363.281,-58.105,-49.316,-808.105,0.000
1606132543.530,-167.969,-40.039,-42.969,-414.062,0.000
1606132543.534,202.637,-12.207,-19.531,485.352,0.000
1606132543.537,264.648,-14.160,-17.578,714.355,0.000
1606132543.541,-83.008,-41.504,-39.551,-85.449,0.000
1606132543.545,-354.004,-50.781,-50.293,-799.805,0.000
1606132543.549,-210.938,-39.551,-43.945,-531.250,0.000
1606132543.553,171.875,-12.207,-27.344,394.043,0.000
1606132543.557,292.480,16.602,-17.578,749.512,0.000
1606132543.561,-32.227,-9.277,-39.551,24.902,0.000
1606132543.565,-345.215,-62.500,-61.523,-767.578,0.000
1606132543.569,-249.023,-56.641,-51.270,-629.883,0.000
1606132543.573,141.113,-27.832,-26.855,287.598,0.000
1606132543.577,295.410,-19.043,-20.996,746.094,0.000
1606132543.580,13.672,-29.297,-33.203,135.742,0.000
1606132543.584,-316.895,-42.969,-45.898,-697.266,0.000
1606132543.588,-282.227,-39.062,-46.387,-701.172,0.000
1606132543.592,105.469,-12.207,-20.020,189.941,0.000
1606132543.596,310.547,-3.418,-7.324,753.906,0.000
1606132543.600,66.406,-29.297,-32.227,259.277,0.000
1606132543.604,-297.363,-54.199,-59.082,-628.906,0.000
1606132543.608,-322.266,-53.711,-67.871,-780.762,0.000
1606132543.612,49.316,-30.762,-40.527,57.129,0.000
1606132543.616,308.105,-2.930,-14.160,723.633,0.000
1606132543.620,123.535,-13.672,-30.273,368.164,0.000
1606132543.623,-256.836,-41.016,-46.875,-542.480,0.000
1606132543.627,-332.031,-43.457,-42.480,-803.223,0.000
1606132543.631,14.648,-26.855,-13.672,-13.672,0.000
1606132543.635,301.270,-8.301,3.418,722.656,0.000
1606132543.639,161.133,-20.508,-17.578,477.051,0.000
1606132543.643,-228.027,-47.852,-38.574,-431.152,0.000
1606132543.647,-351.074,-63.965,-42.969,-808.105,0.000
1606132543.651,-41.016,-46.387,-30.762,-129.395,0.000
1606132543.655,279.785,-12.695,-10.742,676.758,0.000
1606132543.659,206.055,-7.812,-14.648,582.031,0.000
1606132543.662,-179.199,-33.203,-33.203,-328.613,0.000
1606132543.666,-353.516,-45.410,-37.109,-823.242,0.000
1606132543.670,-93.262,-33.203,-27.344,-252.930,0.000
1606132543.674,251.465,-13.184,-9.766,601.562,0.000
1606132543.678,234.863,-14.160,-7.812,639.648,0.000
1606132543.682,-143.555,-36.133,-35.645,-243.652,0.000
1606132543.686,-360.352,-51.270,-50.293,-841.797,0.000
1606132543.690,-138.184,-32.715,-34.180,-380.859,0.000
1606132543.694,231.934,-4.883,-13.672,525.879,0.000
1606132543.698,274.414,2.930,-6.348,708.496,0.000
1606132543.702,-81.543,-15.625,-31.250,-118.164,0.000
1606132543.705,-350.098,-39.062,-59.570,-822.266,0.000
1606132543.709,-184.570,-29.297,-50.293,-499.512,0.000
1606132543.713,189.941,-7.324,-17.578,426.758,0.000
1606132543.717,272.461,-5.859,-14.160,726.074,0.000
1606132543.721,-51.270,-29.785,-34.668,-27.344,0.000
1606132543.725,-346.680,-47.852,-53.711,-783.203,0.000
1606132543.729,-233.398,-39.062,-47.363,-582.520,0.000
1606132543.733,159.180,-11.719,-18.066,347.656,0.000
1606132543.737,298.340,-3.418,-13.184,765.137,0.000
1606132543.741,3.418,-27.344,-34.668,110.352,0.000
1606132543.745,-325.684,-51.270,-54.688,-715.820,0.000
1606132543.748,-274.414,-47.363,-49.805,-665.039,0.000
1606132543.752,109.863,-25.391,-26.367,235.352,0.000
1606132543.756,300.781,-1.953,-25.391,759.277,0.000
1606132543.760,50.781,-2.441,-39.551,226.562,0.000
1606132543.764,-300.293,-40.527,-47.852,-638.672,0.000
1606132543.768,-295.410,-47.363,-42.969,-711.914,0.000
1606132543.772,74.707,-19.531,-25.879,150.879,0.000
1606132543.776,295.410,-8.301,-19.531,759.277,0.000
1606132543.780,85.938,-30.273,-29.785,339.355,0.000
1606132543.784,-286.621,-54.199,-51.758,-565.430,0.000
1606132543.787,-337.891,-47.363,-48.340,-775.391,0.000
1606132543.791,12.207,-30.762,-27.344,32.227,0.000
1606132543.795,285.645,-7.812,-22.949,731.934,0.000
1606132543.799,133.789,-11.230,-27.832,437.012,0.000
1606132543.803,-250.977,-44.434,-46.387,-483.887,0.000
1606132543.807,-351.562,-46.875,-51.758,-822.754,0.000
1606132543.811,-31.738,-28.809,-34.180,-104.980,0.000
1606132543.815,270.508,-13.672,-11.230,670.410,0.000
1606132543.819,172.363,-18.066,-15.625,516.113,0.000
1606132543.823,-217.285,-46.875,-44.922,-400.391,0.000
1606132543.827,-371.582,-56.641,-55.176,-851.562,0.000
1606132543.830,-86.914,-34.668,-38.086,-220.215,0.000
1606132543.834,251.953,-7.812,-17.090,640.625,0.000
1606132543.838,221.680,4.883,-28.320,621.094,0.000
1606132543.842,-158.203,-25.391,-50.781,-288.086,0.000
1606132543.846,-362.793,-55.176,-56.152,-840.332,0.000
1606132543.850,-125.000,-49.316,-38.086,-328.125,0.000
1606132543.854,235.840,-28.320,-18.066,555.176,0.000
1606132543.858,252.441,-19.531,-22.949,673.340,0.000
1606132543.862,-121.094,-40.527,-37.109,-176.270,0.000
1606132543.866,-365.723,-54.688,-47.852,-815.430,0.000
1606132543.870,-175.781,-41.992,-39.551,-427.246,0.000
1606132543.873,195.312,-18.555,-11.719,484.375,0.000
1606132543.877,262.695,-10.742,-6.348,726.562,0.000
1606132543.881,-84.961,-31.250,-32.227,-59.082,0.000
1606132543.885,-370.117,-52.734,-43.457,-780.762,0.000
1606132543.889,-230.957,-43.945,-33.203,-535.156,0.000
1606132543.893,155.273,-20.020,-19.531,381.836,0.000
1606132543.897,271.484,-13.184,-11.230,750.000,0.000
1606132543.901,-46.387,-34.180,-27.832,53.711,0.000
1606132543.905,-371.094,-62.012,-45.898,-752.441,0.000
1606132543.909,-289.062,-51.270,-34.668,-642.090,0.000
1606132543.912,109.375,-17.578,-11.719,272.949,0.000
1606132543.916,272.949,-13.672,-14.648,733.398,0.000
1606132543.920,0.488,-29.297,-32.715,146.484,0.000
1606132543.924,-329.102,-41.016,-44.922,-689.453,0.000
1606132543.928,-306.152,-39.551,-45.410,-715.332,0.000
1606132543.932,77.148,-26.367,-28.320,164.062,0.000
1606132543.936,298.340,-11.230,-20.996,743.164,0.000
1606132543.940,70.312,-17.090,-35.645,274.414,0.000
1606132543.944,-284.668,-34.180,-45.898,-605.469,0.000
1606132543.948,-314.941,-38.086,-43.457,-769.043,0.000
1606132543.952,41.016,-20.020,-22.461,64.453,0.000
1606132543.955,294.922,-12.207,-13.184,745.117,0.000
1606132543.959,124.023,-21.973,-27.344,401.367,0.000
1606132543.963,-253.418,-37.598,-50.293,-519.043,0.000
1606132543.967,-341.309,-44.434,-58.105,-802.734,0.000
1606132543.971,-5.859,-26.855,-34.180,-40.527,0.000
1606132543.975,277.344,-5.371,-13.672,714.355,0.000
1606132543.979,150.879,-22.949,-22.461,506.836,0.000
1606132543.983,-229.492,-54.199,-37.598,-414.062,0.000
1606132543.987,-359.863,-56.152,-37.109,-813.965,0.000
1606132543.991,-57.129,-37.598,-20.508,-149.414,0.000
1606132543.995,264.160,-15.137,-12.207,661.133,0.000
1606132543.998,188.965,-25.879,-22.949,577.148,0.000
1606132544.002,-198.242,-51.758,-47.852,-326.172,0.000
1606132544.006,-380.371,-63.477,-59.082,-825.684,0.000
1606132544.010,-121.582,-43.945,-37.598,-269.043,0.000
1606132544.014,227.051,-17.090,-15.137,586.426,0.000
1606132544.018,226.562,-18.555,-15.137,644.531,0.000
1606132544.022,-137.207,-37.598,-34.668,-215.820,0.000
1606132544.026,-361.816,-51.270,-45.410,-814.453,0.000
1606132544.030,-147.949,-34.668,-39.551,-382.812,0.000
1606132544.034,215.820,-17.090,-28.809,499.023,0.000
1606132544.037,269.043,-1.465,-19.531,696.777,0.000
1606132544.041,-77.637,-21.484,-36.621,-112.305,0.000
1606132544.045,-347.168,-53.711,-55.176,-814.941,0.000
1606132544.049,-187.012,-41.504,-44.922,-508.301,0.000
1606132544.053,195.312,-17.090,-26.855,406.738,0.000
1606132544.057,294.922,-14.160,-20.508,726.562,0.000
1606132544.061,-29.785,-35.156,-37.598,-5.371,0.000
1606132544.065,-329.590,-50.293,-52.734,-772.461,0.000
1606132544.069,-223.633,-45.898,-46.875,-598.633,0.000
1606132544.073,160.156,-23.438,-32.715,318.359,0.000
1606132544.077,306.641,9.766,-19.531,752.441,0.000
1606132544.080,26.367,-1.465,-24.414,124.023,0.000
1606132544.084,-305.664,-46.875,-45.898,-702.148,0.000
1606132544.088,-268.555,-47.363,-52.734,-666.504,0.000
1606132544.092,114.258,-19.043,-21.973,242.188,0.000
1606132544.096,306.152,-6.348,-3.418,770.020,0.000
1606132544.100,56.641,-27.832,-22.949,239.258,0.000
1606132544.104,-297.363,-51.270,-40.039,-629.883,0.000
1606132544.108,-312.012,-54.199,-41.992,-736.816,0.000
1606132544.112,53.711,-34.180,-19.531,120.605,0.000
1606132544.116,296.387,-4.883,-2.930,768.555,0.000
1606132544.120,100.586,-7.324,-19.043,373.047,0.000
1606132544.123,-270.020,-45.410,-37.598,-541.504,0.000
1606132544.127,-325.684,-51.270,-45.898,-771.973,0.000
1606132544.131,19.043,-30.273,-26.367,27.832,0.000
1606132544.135,278.320,-17.090,-3.418,733.398,0.000
1606132544.139,123.047,-26.855,-11.230,452.637,0.000
1606132544.143,-252.441,-51.758,-27.832,-458.008,0.000
1606132544.147,-358.887,-58.105,-33.691,-808.594,0.000
1606132544.151,-48.340,-40.527,-22.949,-114.258,0.000
1606132544.155,261.230,-18.555,-5.371,665.039,0.000
1606132544.159,178.223,-17.578,-10.742,537.109,0.000
1606132544.162,-194.824,-47.852,-34.180,-367.676,0.000
1606132544.166,-349.121,-62.988,-36.621,-832.031,0.000
1606132544.170,-70.801,-40.039,-26.367,-243.652,0.000
1606132544.174,266.602,-16.602,-24.414,589.844,0.000
1606132544.178,235.840,-12.695,-17.578,609.863,0.000
1606132544.182,-145.020,-44.922,-31.250,-271.973,0.000
1606132544.186,-352.539,-59.082,-44.434,-836.426,0.000
1606132544.190,-115.234,-35.156,-34.180,-343.262,0.000
1606132544.194,251.953,-15.137,-13.184,548.828,0.000
1606132544.198,273.926,-16.113,-9.277,690.918,0.000
1606132544.202,-92.773,-41.992,-34.668,-149.902,0.000
1606132544.205,-334.961,-49.805,-48.340,-800.781,0.000
1606132544.209,-157.227,-29.785,-33.203,-439.453,0.000
1606132544.213,209.961,-14.160,-9.277,473.145,0.000
1606132544.217,290.039,-6.348,-3.418,749.023,0.000
1606132544.221,-53.711,-27.344,-25.391,-21.973,0.000
1606132544.225,-343.262,-51.270,-46.875,-765.137,0.000
1606132544.229,-208.008,-43.457,-40.527,-538.574,0.000
1606132544.233,168.457,-28.809,-16.113,375.488,0.000
1606132544.237,291.992,-19.043,-6.348,764.648,0.000
1606132544.241,-3.418,-26.855,-21.484,92.285,0.000
1606132544.245,-321.289,-52.734,-40.527,-717.773,0.000
1606132544.248,-262.695,-56.641,-41.016,-632.324,0.000
1606132544.252,117.188,-26.855,-17.090,278.320,0.000
1606132544.256,305.664,2.930,-1.953,778.809,0.000
1606132544.260,41.016,-17.090,-24.902,205.078,0.000
1606132544.264,-306.152,-48.828,-45.898,-655.273,0.000
1606132544.268,-291.016,-44.922,-37.598,-704.102,0.000
1606132544.272,79.590,-25.879,-20.996,164.551,0.000
1606132544.276,301.758,-8.301,-13.184,761.230,0.000
1606132544.280,80.566,-24.902,-20.020,312.500,0.000
1606132544.284,-282.227,-52.734,-37.109,-586.426,0.000
1606132544.287,-314.453,-48.340,-34.180,-771.973,0.000
1606132544.291,43.457,-24.414,-15.137,53.223,0.000
1606132544.295,301.270,-8.301,-12.695,736.328,0.000
1606132544.299,129.883,-19.043,-25.391,404.785,0.000
1606132544.303,-242.676,-41.992,-40.527,-504.395,0.000
1606132544.307,-332.520,-47.852,-42.969,-807.129,0.000
1606132544.311,0.977,-29.297,-21.973,-60.059,0.000
1606132544.315,302.734,-5.859,-4.395,703.125,0.000
1606132544.319,193.359,0.000,-7.324,515.625,0.000
1606132544.323,-192.871,-31.250,-28.809,-400.391,0.000
1606132544.327,-339.844,-46.875,-41.504,-831.055,0.000
1606132544.330,-46.387,-28.320,-26.855,-186.523,0.000
1606132544.334,282.227,-9.277,-11.719,643.066,0.000
1606132544.338,225.098,-10.742,-15.625,596.680,0.000
1606132544.342,-161.133,-33.203,-35.645,-301.758,0.000
1606132544.346,-350.098,-43.945,-46.875,-827.637,0.000
1606132544.350,-99.121,-24.902,-26.367,-280.762,0.000
1606132544.354,250.977,-4.395,-7.324,591.309,0.000
1606132544.358,251.465,-9.277,-19.043,666.504,0.000
1606132544.362,-126.465,-41.504,-34.180,-199.707,0.000
1606132544.366,-357.910,-53.711,-35.156,-808.594,0.000
1606132544.370,-150.391,-30.273,-17.578,-388.184,0.000
1606132544.373,223.633,-4.883,3.418,505.859,0.000
1606132544.377,273.926,-5.371,-7.812,709.473,0.000
1606132544.381,-89.844,-33.203,-39.551,-98.145,0.000
1606132544.385,-365.234,-51.270,-46.387,-793.945,0.000
1606132544.389,-212.891,-40.527,-28.809,-503.418,0.000
1606132544.393,177.246,-16.113,-11.719,416.504,0.000
1606132544.397,285.645,6.836,-13.672,749.023,0.000
1606132544.401,-37.598,-5.371,-20.996,27.344,0.000
1606132544.405,-346.680,-41.992,-38.574,-760.254,0.000
1606132544.409,-261.230,-42.969,-41.992,-625.488,0.000
1606132544.412,123.535,-19.043,-20.508,288.086,0.000
1606132544.416,282.715,-6.348,-10.742,737.793,0.000
1606132544.420,5.859,-23.438,-17.578,125.488,0.000
1606132544.424,-332.031,-44.922,-40.527,-715.332,0.000
1606132544.428,-306.152,-40.527,-47.363,-712.891,0.000
1606132544.432,75.195,-16.113,-26.367,180.664,0.000
1606132544.436,274.414,-2.441,-10.742,724.609,0.000
1606132544.440,32.715,-18.555,-20.996,213.379,0.000
1606132544.444,-333.984,-47.363,-42.480,-669.922,0.000
1606132544.448,-354.004,-54.199,-41.504,-801.270,0.000
1606132544.452,23.438,-35.156,-18.555,53.711,0.000
1606132544.455,259.766,-15.625,-4.883,693.848,0.000
1606132544.459,59.082,-23.926,-11.719,310.059,0.000
1606132544.463,-308.105,-45.898,-20.508,-585.449,0.000
1606132544.467,-375.977,-44.922,-30.762,-834.961,0.000
1606132544.471,-33.691,-28.809,-20.508,-58.105,0.000
1606132544.475,259.766,-13.672,5.371,675.293,0.000
1606132544.479,133.789,-14.648,-6.348,436.523,0.000
1606132544.483,-243.164,-42.480,-29.785,-470.703,0.000
1606132544.487,-359.375,-57.129,-33.203,-818.848,0.000
1606132544.491,-48.828,-31.250,-25.879,-121.094,0.000
1606132544.495,268.066,-12.695,-12.695,669.922,0.000
1606132544.498,198.730,-23.926,-9.766,571.777,0.000
1606132544.502,-181.641,-50.781,-25.391,-328.125,0.000
1606132544.506,-350.098,-64.941,-34.668,-812.012,0.000
1606132544.510,-69.824,-46.875,-24.414,-221.191,0.000
1606132544.514,276.367,-30.762,-10.742,636.230,0.000
1606132544.518,253.418,-35.645,-12.695,658.691,0.000
1606132544.522,-124.512,-52.734,-37.109,-224.609,0.000
1606132544.526,-338.867,-54.688,-50.293,-795.898,0.000
1606132544.530,-116.211,-37.598,-40.527,-322.754,0.000
1606132544.534,259.277,-18.066,-19.531,574.707,0.000
1606132544.537,305.664,-1.465,-10.254,746.094,0.000
1606132544.541,-60.059,-30.273,-29.297,-75.195,0.000
1606132544.545,-322.266,-60.059,-51.270,-753.418,0.000
1606132544.549,-143.066,-41.504,-39.551,-421.875,0.000
1606132544.553,248.535,-12.695,-11.230,500.977,0.000
1606132544.557,342.773,-11.719,-17.578,785.156,0.000
1606132544.561,5.371,-35.645,-40.527,24.902,0.000
1606132544.565,-291.016,-50.293,-41.504,-724.121,0.000
1606132544.569,-171.387,-37.598,-33.203,-517.578,0.000
1606132544.573,208.984,-17.090,-26.367,395.020,0.000
1606132544.577,346.191,-5.371,-23.926,795.898,0.000
1606132544.580,53.223,-21.484,-32.227,144.531,0.000
1606132544.584,-278.809,-42.969,-45.898,-672.363,0.000
1606132544.588,-223.633,-37.598,-48.828,-607.910,0.000
1606132544.592,154.785,-27.344,-27.832,291.504,0.000
1606132544.596,336.426,-7.812,-18.066,798.340,0.000
1606132544.600,83.008,-1.465,-31.738,257.812,0.000
1606132544.604,-273.438,-41.504,-41.504,-601.074,0.000
1606132544.608,-276.855,-55.664,-41.504,-678.711,0.000
1606132544.612,94.238,-29.297,-28.809,182.129,0.000
1606132544.616,320.312,-9.766,-16.602,800.293,0.000
1606132544.620,111.816,-22.461,-30.762,375.000,0.000
1606132544.623,-260.254,-55.176,-46.387,-536.621,0.000
1606132544.627,-316.895,-55.176,-46.387,-736.328,0.000
1606132544.631,36.621,-32.715,-33.203,81.543,0.000
1606132544.635,299.805,-18.555,-20.020,769.043,0.000
1606132544.639,137.695,-26.367,-20.508,459.961,0.000
1606132544.643,-252.930,-56.152,-38.574,-463.867,0.000
1606132544.647,-351.074,-65.430,-49.316,-787.598,0.000
1606132544.651,-15.137,-46.387,-28.809,-45.898,0.000
1606132544.655,285.156,-23.438,-10.742,718.262,0.000
1606132544.659,178.223,-27.344,-20.996,537.109,0.000
1606132544.662,-211.914,-53.711,-48.340,-379.883,0.000
1606132544.666,-367.188,-62.012,-47.852,-819.336,0.000
1606132544.670,-78.125,-41.016,-28.809,-187.988,0.000
1606132544.674,262.207,-18.555,-11.719,649.414,0.000
1606132544.678,217.773,-21.484,-10.742,617.188,0.000
1606132544.682,-166.504,-45.898,-46.387,-284.668,0.000
1606132544.686,-361.328,-59.570,-55.664,-826.660,0.000
1606132544.690,-114.258,-45.410,-33.203,-309.082,0.000
1606132544.694,246.094,-18.555,-19.043,567.871,0.000
1606132544.698,255.859,-17.578,-22.461,672.852,0.000
1606132544.702,-119.141,-43.945,-43.457,-184.082,0.000
1606132544.705,-358.398,-61.523,-51.270,-823.730,0.000
1606132544.709,-158.691,-47.852,-36.621,-426.270,0.000
1606132544.713,217.773,-14.160,-11.230,486.816,0.000
1606132544.717,282.227,-11.719,-4.883,723.633,0.000
1606132544.721,-67.383,-40.039,-34.180,-69.336,0.000
1606132544.725,-347.656,-51.270,-49.805,-785.645,0.000
1606132544.729,-212.402,-40.527,-34.180,-520.996,0.000
1606132544.733,163.574,-18.066,-15.625,401.855,0.000
1606132544.737,278.809,-6.348,-14.648,761.719,0.000
1606132544.741,-38.086,-30.762,-33.691,52.734,0.000
1606132544.745,-353.027,-57.617,-49.316,-741.699,0.000
1606132544.748,-264.648,-46.875,-40.039,-611.816,0.000
1606132544.752,123.047,-17.090,-14.160,306.641,0.000
1606132544.756,285.645,-8.301,0.488,772.949,0.000
1606132544.760,8.789,-29.297,-13.672,183.594,0.000
1606132544.764,-332.520,-54.688,-44.922,-661.621,0.000
1606132544.768,-304.688,-55.664,-45.410,-681.641,0.000
1606132544.772,79.590,-29.297,-20.020,215.332,0.000
1606132544.776,292.480,-8.301,-7.812,787.109,0.000
1606132544.780,62.012,-19.043,-22.949,294.922,0.000
1606132544.784,-300.781,-45.898,-39.062,-593.262,0.000
1606132544.787,-326.660,-44.922,-34.180,-729.492,0.000
1606132544.791,41.504,-20.996,-19.043,112.305,0.000
1606132544.795,293.457,-9.766,-10.254,759.277,0.000
1606132544.799,109.863,-26.367,-22.461,393.066,0.000
1606132544.803,-260.254,-50.293,-40.527,-514.160,0.000
1606132544.807,-341.797,-59.082,-43.457,-799.805,0.000
1606132544.811,-13.184,-37.598,-33.203,-41.992,0.000
1606132544.815,278.809,-14.160,-22.949,702.637,0.000
1606132544.819,158.691,-13.672,-25.879,479.980,0.000
1606132544.823,-232.422,-39.551,-45.898,-447.266,0.000
1606132544.827,-363.281,-54.199,-59.082,-837.891,0.000
1606132544.830,-57.129,-35.645,-45.410,-153.809,0.000
1606132544.834,266.602,-15.137,-17.578,661.133,0.000
1606132544.838,196.777,-17.090,-17.090,577.148,0.000
1606132544.842,-194.824,-40.527,-47.852,-339.355,0.000
1606132544.846,-369.629,-51.270,-58.105,-835.449,0.000
1606132544.850,-108.398,-40.527,-35.645,-256.348,0.000
1606132544.854,240.723,-18.555,-10.254,608.887,0.000
1606132544.858,233.887,-14.648,-16.602,652.832,0.000
1606132544.862,-148.926,-41.992,-42.480,-229.004,0.000
1606132544.866,-373.047,-52.734,-47.852,-817.383,0.000
1606132544.870,-149.414,-35.645,-28.809,-359.375,0.000
1606132544.873,218.750,-12.207,-5.859,530.273,0.000
1606132544.877,256.348,-11.230,-6.836,701.660,0.000
1606132544.881,-103.516,-35.645,-33.203,-123.047,0.000
1606132544.885,-362.793,-52.734,-49.805,-813.477,0.000
1606132544.889,-192.871,-43.945,-32.715,-492.676,0.000
1606132544.893,186.523,-20.020,-7.812,426.758,0.000
1606132544.897,280.762,-6.836,-10.254,738.770,0.000
1606132544.901,-48.828,-24.902,-38.086,-5.859,0.000
1606132544.905,-343.750,-49.316,-59.570,-772.461,0.000
1606132544.909,-232.422,-41.504,-45.410,-587.891,0.000
1606132544.912,161.621,-10.254,-11.230,340.332,0.000
1606132544.916,309.082,-1.465,-8.789,762.207,0.000
1606132544.920,12.207,-22.949,-33.691,102.051,0.000
1606132544.924,-317.383,-44.922,-47.852,-726.562,0.000
1606132544.928,-269.531,-42.969,-41.992,-676.270,0.000
1606132544.932,110.840,-22.949,-28.809,227.051,0.000
1606132544.936,299.805,-7.324,-16.602,752.930,0.000
1606132544.940,44.922,-21.484,-27.344,208.008,0.000
1606132544.944,-308.594,-41.504,-50.293,-677.734,0.000
1606132544.948,-305.664,-39.062,-48.340,-766.113,0.000
1606132544.952,68.848,-24.414,-26.855,100.586,0.000
1606132544.955,299.316,-9.277,-17.090,726.562,0.000
1606132544.959,104.004,-14.648,-28.320,333.496,0.000
1606132544.963,-265.625,-43.945,-46.387,-563.965,0.000
1606132544.967,-326.660,-53.223,-50.293,-792.969,0.000
1606132544.971,32.715,-25.879,-29.297,12.695,0.000
1606132544.975,303.223,-6.348,-18.555,727.539,0.000
1606132544.979,145.020,-14.648,-28.320,449.707,0.000
1606132544.983,-239.258,-43.457,-42.969,-465.820,0.000
1606132544.987,-350.586,-58.594,-41.992,-813.477,0.000
1606132544.991,-28.809,-34.668,-18.555,-88.867,0.000
1606132544.995,277.344,-7.812,-2.441,696.777,0.000
1606132544.998,174.316,-19.531,-24.902,537.598,0.000
1606132545.002,-214.844,-44.434,-52.734,-381.348,0.000
1606132545.006,-367.676,-50.781,-48.828,-829.102,0.000
1606132545.010,-80.078,-34.668,-25.391,-209.961,0.000
1606132545.014,258.789,-8.301,-5.859,634.766,0.000
1606132545.018,222.168,-12.207,-13.184,619.629,0.000
1606132545.022,-154.297,-40.039,-39.062,-274.902,0.000
1606132545.026,-358.398,-53.711,-41.504,-830.078,0.000
1606132545.030,-124.512,-36.621,-22.949,-325.684,0.000
1606132545.034,241.211,-10.742,4.395,564.941,0.000
1606132545.037,261.230,-14.160,-1.465,675.293,0.000
1606132545.041,-110.352,-38.086,-32.227,-188.477,0.000
1606132545.045,-355.469,-54.688,-48.340,-841.797,0.000
1606132545.049,-169.434,-43.457,-35.156,-467.773,0.000
1606132545.053,200.684,-17.090,-10.742,444.336,0.000
1606132545.057,276.855,-6.348,-9.277,706.543,0.000
1606132545.061,-64.941,-27.344,-29.297,-69.824,0.000
1606132545.065,-352.539,-49.316,-43.457,-800.781,0.000
1606132545.069,-218.750,-40.039,-38.086,-549.805,0.000
1606132545.073,159.668,-14.160,-17.090,373.535,0.000
1606132545.077,283.203,-6.836,-9.766,740.723,0.000
1606132545.080,-26.855,-32.227,-35.156,42.969,0.000
1606132545.084,-344.238,-51.270,-46.387,-753.906,0.000
1606132545.088,-264.648,-42.969,-35.156,-629.883,0.000
1606132545.092,113.770,-21.484,-18.066,286.133,0.000
1606132545.096,284.668,-10.742,-6.348,766.602,0.000
1606132545.100,18.066,-22.949,-20.996,189.453,0.000
1606132545.104,-328.125,-41.016,-34.180,-661.621,0.000
1606132545.108,-305.176,-38.574,-30.762,-688.965,0.000
1606132545.112,68.848,-21.973,-23.438,193.359,0.000
1606132545.116,282.227,-16.113,-11.719,782.715,0.000
1606132545.120,60.059,-34.668,-21.973,320.312,0.000
1606132545.123,-298.340,-52.734,-43.457,-574.707,0.000
1606132545.127,-328.613,-51.270,-41.992,-741.699,0.000
1606132545.131,35.156,-27.344,-15.137,91.309,0.000
1606132545.135,302.246,-4.883,1.953,766.113,0.000
1606132545.139,127.441,-17.090,-12.695,423.828,0.000
1606132545.143,-260.254,-49.316,-33.691,-492.676,0.000
1606132545.147,-349.609,-55.664,-38.574,-784.180,0.000
1606132545.151,-9.766,-25.879,-28.320,-27.832,0.000
1606132545.155,288.086,-9.277,-19.043,714.355,0.000
1606132545.159,166.016,-19.043,-25.391,500.000,0.000
1606132545.162,-222.656,-39.551,-41.016,-418.457,0.000
1606132545.166,-359.863,-52.734,-41.016,-828.613,0.000
1606132545.170,-54.199,-42.969,-21.484,-162.109,0.000
1606132545.174,277.344,-22.461,-14.648,655.762,0.000
1606132545.178,215.332,-24.414,-28.320,580.566,0.000
1606132545.182,-168.945,-46.875,-41.504,-320.801,0.000
1606132545.186,-357.910,-51.270,-47.363,-825.684,0.000
1606132545.190,-96.191,-31.738,-25.391,-267.090,0.000
1606132545.194,253.418,-13.184,-7.324,599.121,0.000
1606132545.198,233.887,-15.625,-21.973,656.250,0.000
1606132545.202,-148.926,-38.086,-36.133,-218.750,0.000
1606132545.205,-375.977,-49.316,-38.086,-827.148,0.000
1606132545.209,-165.527,-34.668,-36.621,-394.043,0.000
1606132545.213,207.031,-12.695,-21.484,507.812,0.000
1606132545.217,260.742,-9.277,-12.207,709.473,0.000
1606132545.221,-95.215,-34.180,-25.879,-97.168,0.000
1606132545.225,-352.051,-49.316,-41.016,-783.203,0.000
1606132545.229,-191.895,-37.598,-27.344,-476.562,0.000
1606132545.233,178.223,-17.578,-8.789,437.012,0.000
1606132545.237,277.832,-8.301,-20.020,757.324,0.000
1606132545.241,-48.340,-31.738,-37.598,22.461,0.000
1606132545.245,-354.004,-61.523,-51.758,-763.184,0.000
1606132545.248,-248.535,-50.781,-43.945,-601.562,0.000
1606132545.252,140.625,-22.461,-20.020,319.824,0.000
1606132545.256,290.527,-10.742,-6.836,760.254,0.000
1606132545.260,3.418,-23.926,-21.973,129.395,0.000
1606132545.264,-328.613,-51.270,-51.758,-701.172,0.000
1606132545.268,-280.762,-56.641,-45.410,-669.434,0.000
1606132545.272,112.305,-20.508,-13.672,230.957,0.000
1606132545.276,313.477,-0.977,-10.742,767.578,0.000
1606132545.280,66.895,-25.391,-35.645,245.117,0.000
1606132545.284,-275.391,-41.504,-50.293,-626.953,0.000
1606132545.287,-273.926,-33.203,-45.410,-724.121,0.000
1606132545.291,98.633,-14.648,-28.809,133.789,0.000
1606132545.295,336.914,9.766,-18.066,767.090,0.000
1606132545.299,131.836,-0.977,-24.414,366.211,0.000
1606132545.303,-241.699,-40.039,-45.410,-542.480,0.000
1606132545.307,-303.711,-45.410,-47.363,-776.367,0.000
1606132545.311,36.621,-24.414,-27.832,18.555,0.000
1606132545.315,310.547,-11.719,-15.625,740.234,0.000
1606132545.319,166.504,-23.438,-27.344,470.215,0.000
1606132545.323,-223.633,-47.852,-56.641,-460.449,0.000
1606132545.327,-347.656,-55.664,-57.129,-823.242,0.000
1606132545.330,-30.762,-36.621,-28.320,-109.863,0.000
1606132545.334,279.297,-13.672,-6.348,691.406,0.000
1606132545.338,194.824,-12.695,-6.836,568.359,0.000
1606132545.342,-191.895,-36.133,-27.832,-348.633,0.000
1606132545.346,-374.023,-49.316,-48.340,-840.332,0.000
1606132545.350,-98.633,-35.156,-36.133,-245.605,0.000
1606132545.354,243.164,-13.184,-12.695,606.445,0.000
1606132545.358,204.102,-15.137,-15.137,612.305,0.000
1606132545.362,-176.758,-34.668,-33.691,-275.879,0.000
1606132545.366,-387.695,-42.969,-37.109,-847.656,0.000
1606132545.370,-153.809,-29.785,-23.926,-355.957,0.000
1606132545.373,214.844,-4.395,-14.648,538.574,0.000
1606132545.377,246.094,-4.395,-7.812,687.988,0.000
1606132545.381,-118.652,-41.504,-30.273,-156.738,0.000
1606132545.385,-366.699,-60.547,-56.641,-825.195,0.000
1606132545.389,-183.105,-43.457,-44.922,-465.332,0.000
1606132545.393,194.824,-20.020,-20.020,443.359,0.000
1606132545.397,278.320,-3.906,-16.602,712.402,0.000
1606132545.401,-62.500,-21.484,-35.156,-49.316,0.000
1606132545.405,-356.934,-50.781,-49.805,-789.062,0.000
1606132545.409,-232.910,-41.504,-42.480,-564.453,0.000
1606132545.412,152.832,-15.625,-21.973,366.699,0.000
1606132545.416,285.645,-5.371,-19.043,750.000,0.000
1606132545.420,-19.531,-28.809,-40.527,58.105,0.000
1606132545.424,-333.984,-50.293,-51.758,-747.070,0.000
1606132545.428,-253.418,-36.133,-40.039,-638.672,0.000
1606132545.432,130.859,-14.160,-27.344,279.785,0.000
1606132545.436,305.664,1.953,-18.555,767.578,0.000
1606132545.440,42.969,-0.977,-26.855,201.660,0.000
1606132545.444,-299.316,-31.250,-40.039,-655.762,0.000
1606132545.448,-291.504,-41.016,-44.434,-718.750,0.000
1606132545.452,79.102,-30.762,-29.785,155.273,0.000
1606132545.455,300.781,-16.602,-16.602,751.953,0.000
1606132545.459,85.938,-16.602,-29.297,309.082,0.000
1606132545.463,-279.297,-40.527,-48.828,-586.914,0.000
1606132545.467,-323.242,-47.852,-49.316,-774.414,0.000
1606132545.471,38.086,-20.020,-27.344,58.594,0.000
1606132545.475,299.805,8.789,-17.578,750.000,0.000
1606132545.479,131.836,1.465,-31.738,414.551,0.000
1606132545.483,-254.883,-41.016,-50.293,-511.719,0.000
1606132545.487,-353.027,-54.688,-51.270,-823.730,0.000
1606132545.491,-16.602,-23.438,-33.203,-74.707,0.000
1606132545.495,282.227,-5.371,-17.090,688.477,0.000
1606132545.498,165.527,-25.391,-31.250,484.863,0.000
1606132545.502,-219.238,-49.316,-53.711,-440.918,0.000
1606132545.506,-362.793,-52.734,-54.688,-860.352,0.000
1606132545.510,-65.918,-28.809,-33.691,-207.520,0.000
1606132545.514,260.742,-3.418,-15.625,615.234,0.000
1606132545.518,201.660,-4.395,-17.578,566.406,0.000
1606132545.522,-174.316,-28.320,-43.457,-327.148,0.000
1606132545.526,-372.070,-50.781,-61.523,-857.910,0.000
1606132545.530,-127.441,-45.410,-45.410,-325.684,0.000
1606132545.534,229.492,-17.578,-30.273,544.434,0.000
1606132545.537,234.375,-1.465,-28.320,642.578,0.000
1606132545.541,-132.812,-25.391,-39.551,-210.449,0.000
1606132545.545,-364.258,-52.246,-49.316,-835.449,0.000
1606132545.549,-158.691,-39.551,-32.227,-412.109,0.000
1606132545.553,222.168,-11.230,-9.277,498.047,0.000
1606132545.557,286.133,-5.371,-14.648,725.098,0.000
1606132545.561,-67.383,-31.738,-44.922,-82.520,0.000
1606132545.565,-342.773,-50.293,-62.500,-799.805,0.000
1606132545.569,-198.242,-44.434,-51.758,-507.324,0.000
1606132545.573,182.129,-20.996,-20.508,416.992,0.000
1606132545.577,297.852,-11.230,-7.324,758.789,0.000
1606132545.580,-22.949,-31.738,-29.785,40.039,0.000
1606132545.584,-332.520,-53.711,-47.852,-746.582,0.000
1606132545.588,-232.422,-52.734,-35.645,-596.191,0.000
1606132545.592,156.738,-29.785,-16.602,333.496,0.000
1606132545.596,313.965,-16.113,-17.090,786.133,0.000
1606132545.600,32.715,-28.320,-32.715,162.109,0.000
1606132545.604,-303.223,-50.781,-45.898,-684.082,0.000
1606132545.608,-272.461,-50.293,-34.668,-680.664,0.000
1606132545.612,101.074,-22.949,-10.742,219.238,0.000
1606132545.616,308.105,3.906,-1.465,771.973,0.000
1606132545.620,71.289,0.488,-10.742,265.625,0.000
1606132545.623,-289.551,-37.598,-33.691,-617.188,0.000
1606132545.627,-315.918,-50.293,-42.480,-751.953,0.000
1606132545.631,55.176,-26.367,-23.926,103.516,0.000
1606132545.635,303.223,-15.625,-16.113,751.953,0.000
1606132545.639,107.910,-24.902,-26.855,361.328,0.000
1606132545.643,-259.766,-44.434,-37.109,-549.805,0.000
1606132545.647,-330.566,-49.316,-37.598,-795.898,0.000
1606132545.651,10.742,-31.250,-14.648,-16.113,0.000
1606132545.655,294.434,-16.113,-8.789,709.473,0.000
1606132545.659,163.086,-18.066,-27.344,470.703,0.000
1606132545.662,-217.773,-42.969,-31.250,-446.289,0.000
1606132545.666,-350.098,-53.223,-39.062,-823.730,0.000
1606132545.670,-37.598,-34.180,-34.668,-134.766,0.000
1606132545.674,285.156,-13.672,-11.719,666.992,0.000
1606132545.678,204.590,-10.742,-9.277,560.059,0.000
1606132545.682,-186.523,-38.574,-29.297,-356.445,0.000
1606132545.686,-361.328,-53.711,-46.387,-840.332,0.000
1606132545.690,-88.867,-34.180,-27.832,-252.441,0.000
1606132545.694,250.000,-14.160,-5.859,600.586,0.000
1606132545.698,219.727,-17.578,-15.625,624.023,0.000
1606132545.702,-159.180,-43.945,-37.598,-262.207,0.000
1606132545.705,-367.676,-54.688,-49.805,-836.426,0.000
1606132545.709,-141.602,-31.738,-37.598,-357.910,0.000
1606132545.713,213.867,-13.672,-20.996,534.668,0.000
1606132545.717,247.559,-3.906,-18.555,693.359,0.000
1606132545.721,-106.445,-20.996,-25.879,-135.742,0.000
1606132545.725,-371.582,-53.223,-35.645,-821.777,0.000
1606132545.729,-190.918,-40.527,-26.855,-447.266,0.000
1606132545.733,190.918,-19.043,-14.648,483.398,0.000
1606132545.737,259.766,-20.996,-19.043,723.145,0.000
1606132545.741,-80.566,-41.992,-41.016,-36.621,0.000
1606132545.745,-372.559,-54.688,-48.340,-779.785,0.000
1606132545.748,-246.582,-42.969,-40.039,-566.406,0.000
1606132545.752,139.160,-16.113,-24.902,360.352,0.000
1606132545.756,277.832,0.488,-14.648,767.578,0.000
1606132545.760,-27.344,-24.414,-30.762,95.703,0.000
1606132545.764,-357.422,-56.152,-45.898,-727.539,0.000
1606132545.768,-287.109,-46.875,-39.551,-654.297,0.000
1606132545.772,104.980,-18.555,-19.043,257.812,0.000
1606132545.776,289.551,-3.906,-14.160,767.578,0.000
1606132545.780,30.273,-22.949,-25.391,217.285,0.000
1606132545.784,-319.824,-50.293,-34.668,-651.855,0.000
1606132545.787,-312.500,-53.223,-37.598,-724.609,0.000
1606132545.791,69.336,-31.250,-26.855,151.855,0.000
1606132545.795,303.711,-11.230,-11.719,761.719,0.000
1606132545.799,95.703,-17.578,-21.973,331.543,0.000
1606132545.803,-271.484,-38.086,-42.969,-561.035,0.000
1606132545.807,-322.754,-45.898,-45.898,-753.906,0.000
1606132545.811,26.855,-32.227,-35.156,57.129,0.000
1606132545.815,294.922,-7.812,-17.090,748.047,0.000
1606132545.819,142.090,-8.301,-15.625,448.730,0.000
1606132545.823,-240.234,-42.969,-34.180,-471.680,0.000
1606132545.827,-342.773,-55.176,-39.062,-799.805,0.000
1606132545.830,-14.160,-37.598,-22.949,-58.105,0.000
1606132545.834,285.156,-17.090,-7.324,714.355,0.000
1606132545.838,176.270,-21.484,-17.578,536.133,0.000
1606132545.842,-210.938,-53.223,-44.922,-388.184,0.000
1606132545.846,-365.234,-72.754,-48.828,-824.707,0.000
1606132545.850,-76.660,-45.898,-22.949,-178.711,0.000
1606132545.854,253.906,-17.090,-9.766,647.949,0.000
1606132545.858,199.219,-19.043,-21.484,604.004,0.000
1606132545.862,-185.059,-46.387,-46.875,-292.969,0.000
1606132545.866,-379.883,-60.547,-54.688,-831.543,0.000
1606132545.870,-131.836,-39.551,-25.879,-308.594,0.000
1606132545.873,224.609,-11.719,-10.254,571.289,0.000
1606132545.877,229.004,-13.184,-15.137,671.387,0.000
1606132545.881,-145.508,-42.480,-35.156,-193.359,0.000
1606132545.885,-381.348,-55.176,-54.199,-829.102,0.000
1606132545.889,-187.012,-45.410,-42.969,-437.012,0.000
1606132545.893,184.570,-20.508,-19.531,470.215,0.000
1606132545.897,251.953,-10.254,-18.066,714.355,0.000
1606132545.901,-95.215,-34.180,-34.180,-83.008,0.000
1606132545.905,-363.770,-50.293,-46.875,-808.105,0.000
1606132545.909,-213.867,-42.969,-33.203,-535.645,0.000
1606132545.912,172.363,-17.578,-7.324,395.020,0.000
1606132545.916,282.715,-17.090,-12.695,743.164,0.000
1606132545.920,-45.410,-44.922,-44.922,17.578,0.000
1606132545.924,-351.074,-57.129,-54.688,-770.508,0.000
1606132545.928,-253.906,-44.922,-40.039,-629.883,0.000
1606132545.932,133.301,-18.066,-24.414,292.969,0.000
1606132545.936,291.992,-16.602,-17.578,754.395,0.000
1606132545.940,21.484,-41.016,-27.344,151.367,0.000
1606132545.944,-304.199,-55.664,-45.410,-685.547,0.000
1606132545.948,-276.855,-45.410,-45.898,-689.941,0.000
1606132545.952,101.562,-17.578,-24.414,208.496,0.000
1606132545.955,311.523,-3.418,-17.578,774.902,0.000
1606132545.959,83.496,-13.672,-28.809,284.668,0.000
1606132545.963,-272.949,-39.062,-40.039,-594.727,0.000
1606132545.967,-303.711,-49.805,-38.574,-741.211,0.000
1606132545.971,58.105,-29.785,-24.902,95.215,0.000
1606132545.975,312.012,-7.324,-11.230,764.160,0.000
1606132545.979,125.977,-20.508,-22.949,394.043,0.000
1606132545.983,-248.047,-47.852,-42.480,-507.324,0.000
1606132545.987,-325.684,-53.223,-42.480,-766.113,0.000
1606132545.991,6.348,-24.414,-22.461,-10.742,0.000
1606132545.995,295.898,-2.441,-7.812,730.957,0.000
1606132545.998,169.922,-5.371,-11.719,497.070,0.000
1606132546.002,-221.191,-36.133,-28.320,-429.199,0.000
1606132546.006,-362.793,-59.082,-41.016,-821.777,0.000
1606132546.010,-56.152,-38.086,-36.133,-145.508,0.000
1606132546.014,268.555,-8.301,-23.926,668.945,0.000
1606132546.018,198.730,-9.766,-22.461,575.684,0.000
1606132546.022,-188.477,-38.086,-43.945,-336.914,0.000
1606132546.026,-362.305,-43.945,-54.688,-827.637,0.000
1606132546.030,-92.285,-20.020,-26.855,-251.465,0.000
1606132546.034,255.859,1.465,-2.930,608.887,0.000
1606132546.037,240.234,1.953,-12.695,649.902,0.000
1606132546.041,-138.672,-26.367,-38.086,-228.516,0.000
1606132546.045,-361.328,-50.293,-49.805,-826.172,0.000
1606132546.049,-144.531,-40.527,-27.832,-376.465,0.000
1606132546.053,222.656,-14.648,-8.301,521.484,0.000
1606132546.057,263.184,-9.766,-7.324,701.660,0.000
1606132546.061,-97.168,-38.086,-22.949,-120.117,0.000
1606132546.065,-360.352,-55.664,-36.621,-804.199,0.000
1606132546.069,-196.289,-43.457,-26.367,-484.863,0.000
1606132546.073,186.523,-6.836,-8.789,436.035,0.000
1606132546.077,281.250,0.977,-8.789,741.211,0.000
1606132546.080,-61.035,-33.691,-35.645,-11.230,0.000
1606132546.084,-357.910,-51.270,-52.734,-769.531,0.000
1606132546.088,-238.770,-43.945,-33.691,-574.219,0.000
1606132546.092,144.043,-33.691,-9.277,335.449,0.000
1606132546.096,288.086,-11.719,-12.207,744.629,0.000
1606132546.100,-1.465,-12.695,-26.855,104.004,0.000
1606132546.104,-330.078,-46.387,-43.945,-722.168,0.000
1606132546.108,-277.344,-48.828,-43.945,-678.223,0.000
1606132546.112,105.957,-22.949,-25.879,226.562,0.000
1606132546.116,295.898,-5.859,-21.484,744.141,0.000
1606132546.120,46.875,-20.996,-31.250,200.684,0.000
1606132546.123,-300.781,-50.293,-42.969,-664.551,0.000
1606132546.127,-301.270,-48.340,-48.828,-748.047,0.000
1606132546.131,73.242,-21.973,-32.227,121.094,0.000
1606132546.135,309.082,5.859,-11.719,749.512,0.000
1606132546.139,112.305,6.348,-21.484,341.797,0.000
1606132546.143,-257.812,-34.180,-47.852,-562.500,0.000
1606132546.147,-320.312,-40.039,-46.875,-777.344,0.000
1606132546.151,31.250,-18.066,-31.250,32.227,0.000
1606132546.155,305.664,-3.906,-11.719,743.164,0.000
1606132546.159,153.809,-9.277,-17.578,455.566,0.000
1606132546.162,-235.840,-43.457,-53.223,-469.727,0.000
1606132546.166,-348.145,-54.688,-49.805,-810.059,0.000
1606132546.170,-20.508,-31.250,-24.414,-83.496,0.000
1606132546.174,289.551,-14.648,-16.113,699.707,0.000
1606132546.178,192.383,-5.371,-15.137,554.199,0.000
1606132546.182,-198.730,-28.809,-31.738,-369.629,0.000
1606132546.186,-362.305,-54.688,-43.457,-833.496,0.000
1606132546.190,-74.707,-34.668,-22.461,-209.473,0.000
1606132546.194,262.695,-9.766,-7.324,633.301,0.000
1606132546.198,214.355,-9.766,-19.043,609.375,0.000
1606132546.202,-170.898,-41.016,-35.645,-296.387,0.000
1606132546.205,-362.793,-55.176,-35.645,-837.402,0.000
1606132546.209,-116.699,-38.574,-28.320,-318.848,0.000
1606132546.213,237.793,-16.602,-20.020,560.547,0.000
1606132546.217,259.277,-7.324,-10.742,681.641,0.000
1606132546.221,-105.957,-33.691,-28.320,-169.434,0.000
1606132546.225,-353.516,-52.734,-50.781,-820.801,0.000
1606132546.229,-170.898,-36.133,-45.898,-448.242,0.000
1606132546.233,204.102,-9.766,-17.578,463.379,0.000
1606132546.237,280.273,4.883,-4.395,715.332,0.000
1606132546.241,-67.871,-21.973,-31.738,-74.707,0.000
1606132546.245,-360.352,-52.246,-47.363,-803.711,0.000
1606132546.248,-231.934,-45.898,-37.598,-558.594,0.000
1606132546.252,158.691,-19.043,-13.672,361.328,0.000
1606132546.256,285.156,2.441,-13.184,736.816,0.000
1606132546.260,-28.320,-22.949,-37.598,41.504,0.000
1606132546.264,-347.656,-50.293,-50.781,-754.395,0.000
1606132546.268,-267.090,-40.527,-37.598,-632.324,0.000
1606132546.272,126.953,-12.695,-12.695,289.062,0.000
1606132546.276,306.152,2.441,-2.930,774.414,0.000
1606132546.280,40.527,-24.902,-13.184,188.965,0.000
1606132546.284,-309.082,-49.316,-32.715,-663.086,0.000
1606132546.287,-287.109,-44.922,-27.344,-681.152,0.000
1606132546.291,101.074,-20.020,-3.906,223.145,0.000
1606132546.295,312.988,0.488,-5.859,805.176,0.000
1606132546.299,81.543,-18.066,-22.949,327.148,0.000
1606132546.303,-272.949,-48.340,-29.785,-557.617,0.000
1606132546.307,-290.039,-39.062,-22.949,-706.543,0.000
1606132546.311,77.637,-12.207,0.977,118.652,0.000
1606132546.315,329.590,4.883,10.254,775.391,0.000
1606132546.319,148.926,-0.488,-7.812,429.199,0.000
1606132546.323,-237.305,-29.297,-21.484,-488.770,0.000
1606132546.327,-329.590,-36.133,-30.273,-779.785,0.000
1606132546.330,1.465,-16.602,-25.391,-31.738,0.000
1606132546.334,303.711,4.883,-12.695,715.820,0.000
1606132546.338,178.711,-3.906,-22.461,501.465,0.000
1606132546.342,-219.238,-38.086,-41.504,-423.340,0.000
1606132546.346,-352.051,-43.457,-42.969,-825.684,0.000
1606132546.350,-44.922,-23.438,-26.855,-157.227,0.000
1606132546.354,287.109,-1.465,-0.488,664.551,0.000
1606132546.358,212.402,-7.324,-9.766,581.055,0.000
1606132546.362,-179.688,-36.621,-48.340,-333.008,0.000
1606132546.366,-357.910,-41.504,-53.711,-841.797,0.000
1606132546.370,-104.492,-27.832,-32.715,-289.062,0.000
1606132546.373,238.770,-17.090,-17.578,575.684,0.000
1606132546.377,227.539,0.000,-15.625,640.625,0.000
1606132546.381,-150.879,-13.672,-32.227,-231.445,0.000
1606132546.385,-374.512,-44.434,-46.387,-840.332,0.000
1606132546.389,-157.227,-26.367,-26.367,-399.414,0.000
1606132546.393,208.984,-6.836,-12.207,499.023,0.000
1606132546.397,254.883,-8.789,-24.414,689.941,0.000
1606132546.401,-96.680,-26.367,-40.039,-120.605,0.000
1606132546.405,-358.398,-44.922,-51.270,-812.012,0.000
1606132546.409,-195.312,-39.551,-39.062,-501.465,0.000
1606132546.412,189.453,-13.184,-14.648,429.688,0.000
1606132546.416,294.434,-5.371,-11.230,754.883,0.000
1606132546.420,-33.203,-31.738,-25.391,17.090,0.000
1606132546.424,-335.938,-47.852,-39.551,-746.582,0.000
1606132546.428,-233.887,-43.457,-44.434,-575.195,0.000
1606132546.432,157.227,-26.855,-22.949,338.867,0.000
1606132546.436,313.965,-7.324,-13.184,774.902,0.000
1606132546.440,25.879,-20.508,-30.273,144.531,0.000
1606132546.444,-306.641,-41.504,-41.992,-685.547,0.000
1606132546.448,-261.719,-41.992,-43.457,-656.738,0.000
1606132546.452,125.977,-22.949,-20.020,248.047,0.000
1606132546.455,330.078,-0.488,-4.395,790.039,0.000
1606132546.459,91.797,-8.789,-19.043,274.902,0.000
1606132546.463,-268.555,-39.062,-40.527,-604.492,0.000
1606132546.467,-287.598,-51.758,-42.480,-722.168,0.000
1606132546.471,82.520,-34.668,-18.066,133.789,0.000
1606132546.475,323.730,-9.766,-10.254,771.484,0.000
1606132546.479,122.559,-14.648,-24.414,374.023,0.000
1606132546.483,-254.395,-43.457,-33.203,-531.738,0.000
1606132546.487,-312.988,-45.410,-32.715,-761.230,0.000
1606132546.491,34.180,-19.531,-8.301,38.574,0.000
1606132546.495,300.781,-4.883,6.836,753.906,0.000
1606132546.498,152.344,-9.277,-9.766,481.934,0.000
1606132546.502,-233.398,-34.180,-30.273,-438.965,0.000
1606132546.506,-355.957,-46.875,-38.086,-804.199,0.000
1606132546.510,-40.527,-29.297,-21.973,-102.539,0.000
1606132546.514,267.578,-11.230,-12.207,684.570,0.000
1606132546.518,171.875,-19.043,-22.461,543.945,0.000
1606132546.522,-207.031,-41.992,-34.180,-374.512,0.000
1606132546.526,-362.793,-46.387,-41.992,-836.914,0.000
1606132546.530,-80.566,-25.879,-24.902,-227.539,0.000
1606132546.534,261.230,0.488,-2.441,619.629,0.000
1606132546.537,216.309,-8.301,-10.254,619.141,0.000
1606132546.541,-173.340,-37.109,-30.762,-275.879,0.000
1606132546.545,-392.578,-51.758,-48.340,-848.633,0.000
1606132546.549,-153.320,-42.480,-30.273,-349.121,0.000
1606132546.553,227.539,-9.766,-7.812,551.758,0.000
1606132546.557,250.977,-13.672,-20.020,681.152,0.000
1606132546.561,-117.188,-39.062,-35.156,-170.898,0.000
1606132546.565,-374.023,-42.969,-49.316,-837.402,0.000
1606132546.569,-186.523,-24.414,-45.410,-462.891,0.000
1606132546.573,193.359,-0.977,-20.996,450.684,0.000
1606132546.577,255.859,-3.418,-21.484,707.031,0.000
1606132546.580,-79.590,-24.902,-41.992,-55.176,0.000
1606132546.584,-356.934,-41.504,-46.387,-782.715,0.000
1606132546.588,-226.562,-31.250,-41.992,-550.293,0.000
1606132546.592,165.039,-6.836,-31.250,376.465,0.000
1606132546.596,299.805,0.977,-15.137,766.602,0.000
1606132546.600,-14.648,-20.508,-24.414,88.379,0.000
1606132546.604,-341.797,-43.457,-48.828,-720.215,0.000
1606132546.608,-264.648,-39.062,-48.828,-626.465,0.000
1606132546.612,126.465,-14.648,-19.043,286.621,0.000
1606132546.616,304.688,-17.090,-11.719,781.250,0.000
1606132546.620,41.992,-38.086,-39.551,214.844,0.000
1606132546.623,-299.316,-42.969,-53.711,-644.531,0.000
1606132546.627,-269.531,-34.668,-41.992,-687.988,0.000
1606132546.631,119.141,-12.695,-20.020,195.801,0.000
1606132546.635,323.730,-5.859,-9.766,782.715,0.000
1606132546.639,97.656,-20.508,-22.949,322.754,0.000
1606132546.643,-258.789,-32.227,-34.668,-570.312,0.000
1606132546.647,-296.875,-29.785,-32.715,-750.977,0.000
1606132546.651,63.477,-11.230,-20.508,71.289,0.000
1606132546.655,318.359,3.418,-9.277,741.211,0.000
1606132546.659,137.207,1.465,-18.066,402.832,0.000
1606132546.662,-240.723,-23.926,-36.621,-515.625,0.000
1606132546.666,-336.914,-38.574,-42.480,-816.406,0.000
1606132546.670,-11.230,-16.602,-30.762,-59.570,0.000
1606132546.674,292.969,-1.953,-10.254,705.566,0.000
1606132546.678,186.523,-7.812,-11.230,520.020,0.000
1606132546.682,-191.895,-31.738,-32.227,-399.414,0.000
1606132546.686,-332.031,-42.480,-43.457,-818.848,0.000
1606132546.690,-35.645,-21.484,-27.832,-167.969,0.000
1606132546.694,286.133,-2.930,-6.836,648.438,0.000
1606132546.698,223.633,-1.465,-8.301,590.820,0.000
1606132546.702,-165.039,-32.715,-36.133,-318.848,0.000
1606132546.705,-363.770,-48.340,-50.293,-847.168,0.000
1606132546.709,-110.840,-30.273,-35.156,-299.805,0.000
1606132546.713,236.328,-14.160,-14.160,572.266,0.000
1606132546.717,222.656,-18.066,-12.207,646.973,0.000
1606132546.721,-155.762,-44.922,-35.645,-218.750,0.000
1606132546.725,-386.230,-54.688,-42.969,-837.402,0.000
1606132546.729,-181.152,-42.969,-25.391,-419.922,0.000
1606132546.733,187.500,-21.973,-14.160,487.793,0.000
1606132546.737,239.258,-15.625,-16.602,706.055,0.000
1606132546.741,-121.582,-41.992,-38.574,-105.957,0.000
1606132546.745,-397.461,-64.941,-47.852,-818.848,0.000
1606132546.748,-243.652,-57.617,-35.156,-529.785,0.000
1606132546.752,144.043,-26.855,-7.812,397.461,0.000
1606132546.756,252.930,-7.812,-4.883,734.863,0.000
1606132546.760,-68.359,-23.438,-26.367,9.766,0.000
1606132546.764,-374.512,-55.176,-42.969,-770.996,0.000
1606132546.768,-278.809,-61.523,-52.246,-625.977,0.000
1606132546.772,117.676,-30.273,-27.344,303.711,0.000
1606132546.776,282.715,-16.602,-8.301,757.812,0.000
1606132546.780,2.441,-41.992,-26.855,137.207,0.000
1606132546.784,-333.008,-61.035,-51.270,-709.961,0.000
1606132546.787,-273.926,-52.246,-41.992,-661.133,0.000
1606132546.791,118.652,-25.879,-16.113,250.488,0.000
1606132546.795,302.734,-9.277,0.488,754.395,0.000
1606132546.799,61.035,-20.996,-20.508,245.117,0.000
1606132546.803,-296.387,-48.828,-50.293,-637.695,0.000
1606132546.807,-313.965,-56.152,-48.828,-754.395,0.000
1606132546.811,57.617,-33.203,-34.180,105.469,0.000
1606132546.815,306.152,-21.484,-22.461,751.953,0.000
1606132546.819,110.840,-31.738,-24.414,369.629,0.000
1606132546.823,-264.648,-56.152,-39.062,-530.762,0.000
1606132546.827,-334.961,-60.547,-41.504,-780.762,0.000
1606132546.830,15.137,-26.855,-14.160,6.836,0.000
1606132546.834,306.641,-1.953,-12.695,743.164,0.000
1606132546.838,166.992,-2.930,-30.762,484.863,0.000
1606132546.842,-228.516,-32.227,-36.133,-444.336,0.000
1606132546.846,-349.121,-49.316,-29.785,-808.105,0.000
1606132546.850,-28.320,-23.438,-12.695,-105.469,0.000
1606132546.854,283.203,-3.906,4.395,684.082,0.000
1606132546.858,196.289,-13.184,-4.395,562.988,0.000
1606132546.862,-192.383,-38.574,-26.367,-353.027,0.000
1606132546.866,-354.004,-45.410,-33.691,-827.148,0.000
1606132546.870,-73.242,-30.762,-26.855,-227.051,0.000
1606132546.873,263.184,-15.137,-12.695,617.188,0.000
1606132546.877,238.770,-5.859,-12.695,634.277,0.000
1606132546.881,-137.207,-30.273,-28.809,-247.070,0.000
1606132546.885,-356.445,-50.293,-36.621,-830.078,0.000
1606132546.889,-126.465,-34.668,-28.320,-356.445,0.000
1606132546.893,236.816,-9.766,-5.371,536.621,0.000
1606132546.897,265.137,0.977,-1.953,691.406,0.000
1606132546.901,-97.656,-23.438,-30.273,-144.531,0.000
1606132546.905,-358.887,-54.688,-48.340,-817.383,0.000
1606132546.909,-185.059,-46.875,-38.574,-471.680,0.000
1606132546.912,188.965,-25.391,-20.508,442.871,0.000
1606132546.916,271.484,-17.578,-13.672,728.027,0.000
1606132546.920,-76.172,-33.691,-33.203,-49.316,0.000
1606132546.924,-342.773,-49.805,-50.781,-740.723,0.000
1606132546.928,-201.660,-34.668,-32.715,-489.746,0.000
1606132546.932,143.066,-24.902,-15.137,351.562,0.000
1606132546.936,271.484,-16.602,-14.648,741.699,0.000
1606132546.940,-27.832,-21.484,-33.691,79.590,0.000
1606132546.944,-348.145,-54.688,-55.664,-733.398,0.000
1606132546.948,-284.180,-56.152,-49.805,-648.926,0.000
1606132546.952,101.562,-30.762,-33.203,262.207,0.000
1606132546.955,284.180,-15.625,-25.391,760.254,0.000
1606132546.959,27.344,-34.668,-26.367,209.961,0.000
1606132546.963,-312.500,-59.082,-43.457,-643.555,0.000
1606132546.967,-300.781,-59.082,-44.434,-709.961,0.000
1606132546.971,72.754,-39.551,-17.090,164.551,0.000
1606132546.975,295.898,-22.461,-13.184,768.066,0.000
1606132546.979,87.891,-34.180,-28.809,330.078,0.000
1606132546.983,-279.785,-58.594,-41.992,-574.707,0.000
1606132546.987,-324.707,-58.105,-39.062,-770.508,0.000
1606132546.991,41.504,-24.414,-20.996,56.641,0.000
1606132546.995,311.035,2.930,-13.184,749.023,0.000
1606132546.998,146.973,-15.137,-25.879,433.105,0.000
1606132547.002,-230.469,-43.945,-37.109,-482.910,0.000
1606132547.006,-324.707,-44.922,-29.297,-795.898,0.000
1606132547.010,0.488,-26.855,-27.832,-64.941,0.000
1606132547.014,293.457,-4.395,-28.809,689.453,0.000
1606132547.018,183.105,-7.324,-21.484,516.113,0.000
1606132547.022,-200.195,-32.715,-31.250,-390.625,0.000
1606132547.026,-353.027,-41.016,-47.363,-822.754,0.000
1606132547.030,-62.500,-25.391,-32.227,-186.523,0.000
1606132547.034,268.066,-11.230,-19.043,636.230,0.000
1606132547.037,218.750,-8.301,-18.555,596.191,0.000
1606132547.041,-159.668,-23.438,-28.320,-300.293,0.000
1606132547.045,-356.934,-45.410,-41.992,-838.867,0.000
1606132547.049,-112.793,-32.715,-27.832,-306.152,0.000
1606132547.053,245.117,-5.371,-8.301,575.684,0.000
1606132547.057,244.629,-6.348,-18.066,665.527,0.000
1606132547.061,-127.441,-33.203,-42.480,-194.336,0.000
1606132547.065,-351.074,-45.898,-50.293,-815.430,0.000
1606132547.069,-151.855,-35.156,-29.297,-404.297,0.000
1606132547.073,213.379,-10.254,-5.859,505.859,0.000
1606132547.077,275.879,-2.441,-4.395,723.145,0.000
1606132547.080,-75.195,-25.879,-31.250,-82.031,0.000
1606132547.084,-352.539,-41.504,-41.504,-788.574,0.000
1606132547.088,-207.031,-34.668,-26.855,-515.625,0.000
1606132547.092,176.270,-13.672,-11.230,400.391,0.000
1606132547.096,283.691,-12.207,-12.695,745.605,0.000
1606132547.100,-38.574,-32.715,-38.574,28.809,0.000
1606132547.104,-345.703,-51.758,-52.246,-753.906,0.000
1606132547.108,-257.812,-49.805,-47.363,-619.141,0.000
1606132547.112,133.789,-24.414,-22.949,302.246,0.000
1606132547.116,303.711,-3.906,-8.301,773.926,0.000
1606132547.120,22.461,-17.578,-19.043,164.062,0.000
1606132547.123,-315.430,-53.223,-34.668,-685.547,0.000
1606132547.127,-272.461,-55.176,-32.715,-683.594,0.000
1606132547.131,108.398,-27.344,-19.043,211.426,0.000
1606132547.135,310.059,-14.160,-7.812,765.625,0.000
1606132547.139,81.543,-30.762,-19.531,270.996,0.000
1606132547.143,-278.809,-55.176,-42.480,-614.258,0.000
1606132547.147,-299.316,-50.781,-37.598,-747.070,0.000
1606132547.151,67.383,-19.531,-19.043,96.680,0.000
1606132547.155,310.547,-3.906,-9.277,751.465,0.000
1606132547.159,126.465,-20.508,-16.602,388.184,0.000
1606132547.162,-245.117,-43.945,-38.574,-520.508,0.000
1606132547.166,-316.406,-46.387,-47.852,-784.180,0.000
1606132547.170,25.879,-19.531,-29.785,-5.859,0.000
1606132547.174,312.500,-6.348,-14.648,730.957,0.000
1606132547.178,180.664,-14.160,-24.902,503.418,0.000
1606132547.182,-205.078,-39.551,-47.852,-408.203,0.000
1606132547.186,-333.496,-52.246,-50.781,-797.363,0.000
1606132547.190,-30.273,-34.180,-28.809,-117.676,0.000
1606132547.194,286.133,-11.230,-7.812,685.059,0.000
1606132547.198,212.402,-9.766,-16.113,582.031,0.000
1606132547.202,-175.781,-37.109,-36.133,-325.195,0.000
1606132547.205,-345.703,-44.434,-40.039,-805.176,0.000
1606132547.209,-82.520,-27.344,-39.062,-232.422,0.000
1606132547.213,256.836,-12.207,-28.320,618.164,0.000
1606132547.217,244.141,-7.812,-18.555,651.855,0.000
1606132547.221,-138.672,-32.227,-38.574,-232.910,0.000
1606132547.225,-359.863,-53.711,-54.199,-821.289,0.000
1606132547.229,-135.254,-43.945,-37.598,-359.375,0.000
1606132547.233,220.215,-20.508,-23.438,530.273,0.000
1606132547.237,253.906,-19.531,-24.414,691.406,0.000
1606132547.241,-104.492,-43.457,-40.527,-140.137,0.000
1606132547.245,-368.164,-60.547,-47.852,-814.941,0.000
1606132547.248,-199.219,-56.641,-35.645,-480.957,0.000
1606132547.252,183.105,-30.762,-14.160,437.012,0.000
1606132547.256,274.414,-9.766,-11.719,730.469,0.000
1606132547.260,-71.289,-27.832,-39.062,-36.621,0.000
1606132547.264,-370.605,-58.105,-54.688,-794.434,0.000
1606132547.268,-255.859,-54.688,-41.504,-596.191,0.000
1606132547.272,127.930,-25.879,-19.531,316.406,0.000
1606132547.276,266.113,-16.113,-16.113,724.609,0.000
1606132547.280,-34.668,-44.434,-38.574,67.871,0.000
1606132547.284,-348.633,-60.547,-51.758,-742.676,0.000
1606132547.287,-278.320,-42.969,-40.527,-668.945,0.000
1606132547.291,103.027,-18.066,-21.484,239.258,0.000
1606132547.295,290.527,-15.137,-14.160,751.953,0.000
1606132547.299,41.016,-35.156,-28.320,210.449,0.000
1606132547.303,-303.711,-51.758,-49.316,-646.484,0.000
1606132547.307,-296.387,-50.781,-50.781,-715.820,0.000
1606132547.311,76.660,-29.785,-35.645,158.203,0.000
1606132547.315,304.688,-12.207,-19.043,771.484,0.000
1606132547.319,99.121,-21.484,-25.879,347.656,0.000
1606132547.323,-265.625,-40.527,-45.410,-546.875,0.000
1606132547.327,-320.801,-52.734,-46.387,-753.418,0.000
1606132547.330,36.133,-30.762,-26.855,54.688,0.000
1606132547.334,304.199,-5.859,-20.996,746.582,0.000
1606132547.338,139.160,-20.020,-32.715,440.430,0.000
1606132547.342,-235.352,-43.457,-45.898,-473.633,0.000
1606132547.346,-334.961,-43.457,-42.480,-799.805,0.000
1606132547.350,-9.277,-17.578,-19.043,-66.895,0.000
1606132547.354,287.109,-0.488,-9.277,696.289,0.000
1606132547.358,180.664,-16.113,-15.137,524.902,0.000
1606132547.362,-203.613,-43.945,-32.227,-391.602,0.000
1606132547.366,-349.121,-47.852,-37.109,-824.219,0.000
1606132547.370,-58.594,-30.762,-15.137,-190.430,0.000
1606132547.373,279.785,-9.277,-0.488,641.602,0.000
1606132547.377,237.305,-7.812,-8.789,612.305,0.000
1606132547.381,-147.461,-31.738,-27.344,-277.832,0.000
1606132547.385,-351.562,-46.875,-49.316,-818.359,0.000
1606132547.389,-110.352,-34.180,-33.691,-310.059,0.000
1606132547.393,249.023,-11.719,1.465,571.289,0.000
1606132547.397,260.742,-9.766,-2.441,681.152,0.000
1606132547.401,-109.863,-32.715,-29.785,-174.805,0.000
1606132547.405,-352.051,-46.387,-38.086,-815.918,0.000
1606132547.409,-157.715,-39.062,-21.973,-424.805,0.000
1606132547.412,210.449,-13.184,-6.836,484.375,0.000
1606132547.416,275.391,-3.418,-8.789,724.609,0.000
1606132547.420,-76.660,-33.203,-24.902,-70.312,0.000
1606132547.424,-358.398,-53.223,-38.086,-795.410,0.000
1606132547.428,-214.844,-43.457,-26.855,-535.156,0.000
1606132547.432,155.762,-20.996,-8.301,381.348,0.000
1606132547.436,271.484,-10.254,-0.977,733.887,0.000
1606132547.440,-36.133,-26.367,-22.949,22.949,0.000
1606132547.444,-345.215,-42.480,-44.922,-763.184,0.000
1606132547.448,-257.812,-39.062,-37.109,-635.742,0.000
1606132547.452,121.094,-20.996,-21.973,272.949,0.000
1606132547.455,282.227,-12.695,-20.996,743.164,0.000
1606132547.459,10.254,-25.391,-28.320,155.762,0.000
1606132547.463,-331.055,-54.199,-40.039,-692.871,0.000
1606132547.467,-294.434,-54.199,-42.480,-713.379,0.000
1606132547.471,92.773,-27.832,-24.902,183.594,0.000
1606132547.475,303.223,-7.324,-14.648,756.836,0.000
1606132547.479,71.777,-24.414,-22.461,268.555,0.000
1606132547.483,-290.039,-51.270,-39.551,-616.699,0.000
1606132547.487,-310.059,-38.086,-42.480,-756.836,0.000
1606132547.491,62.988,-17.090,-27.832,95.215,0.000
1606132547.495,314.453,-8.301,-15.137,759.277,0.000
1606132547.498,129.883,-3.418,-20.508,402.832,0.000
1606132547.502,-245.605,-29.297,-45.898,-510.742,0.000
1606132547.506,-328.613,-48.828,-49.316,-788.574,0.000
1606132547.510,6.836,-31.250,-26.855,-14.160,0.000
1606132547.514,296.875,-14.648,-10.742,725.586,0.000
1606132547.518,172.363,-19.043,-7.812,496.582,0.000
1606132547.522,-208.984,-44.922,-26.367,-412.598,0.000
1606132547.526,-334.961,-46.387,-39.551,-791.992,0.000
1606132547.530,-25.879,-24.902,-25.391,-117.188,0.000
1606132547.534,292.969,-9.277,-4.883,690.918,0.000
1606132547.537,230.469,5.371,3.418,613.281,0.000
1606132547.541,-156.738,-23.438,-26.855,-301.758,0.000
1606132547.545,-343.750,-45.898,-46.875,-803.223,0.000
1606132547.549,-82.520,-22.461,-32.715,-233.398,0.000
1606132547.553,260.742,-11.719,-15.137,614.746,0.000
1606132547.557,245.117,-13.184,-9.766,665.039,0.000
1606132547.561,-146.973,-35.645,-33.203,-215.820,0.000
1606132547.565,-373.535,-47.363,-47.363,-815.430,0.000
1606132547.569,-153.809,-29.297,-26.367,-359.375,0.000
1606132547.573,217.773,-2.930,0.488,536.621,0.000
1606132547.577,259.277,0.488,-3.418,713.379,0.000
1606132547.580,-109.863,-31.250,-26.855,-116.699,0.000
1606132547.584,-367.676,-45.410,-40.039,-804.199,0.000
1606132547.588,-198.730,-32.715,-32.227,-480.957,0.000
1606132547.592,176.758,-20.020,-11.230,432.129,0.000
1606132547.596,274.902,7.324,-11.230,731.445,0.000
1606132547.600,-51.758,5.371,-29.785,-9.766,0.000
1606132547.604,-344.727,-38.574,-39.551,-767.578,0.000
1606132547.608,-231.934,-41.992,-31.738,-577.148,0.000
1606132547.612,148.438,-21.973,-11.719,345.703,0.000
1606132547.616,293.945,-10.742,5.859,763.184,0.000
1606132547.620,4.883,-23.438,-15.625,115.723,0.000
1606132547.623,-336.426,-51.758,-49.805,-714.355,0.000
1606132547.627,-281.738,-50.293,-44.434,-667.969,0.000
1606132547.631,109.863,-22.949,-16.602,236.816,0.000
1606132547.635,293.457,0.977,-9.277,760.254,0.000
1606132547.639,41.992,-5.859,-22.461,227.051,0.000
1606132547.643,-310.059,-41.992,-38.574,-648.926,0.000
1606132547.647,-313.965,-47.363,-38.574,-738.770,0.000
1606132547.651,62.012,-23.438,-20.508,131.836,0.000
1606132547.655,298.828,-6.836,-11.230,752.441,0.000
1606132547.659,94.238,-15.137,-22.949,333.984,0.000
1606132547.662,-275.879,-37.109,-39.551,-565.918,0.000
1606132547.666,-330.566,-37.598,-43.457,-779.297,0.000
1606132547.670,18.555,-15.625,-25.879,25.879,0.000
1606132547.674,289.551,-3.418,-9.766,733.887,0.000
1606132547.678,142.578,0.977,-24.414,451.660,0.000
1606132547.682,-239.258,-30.762,-42.480,-459.961,0.000
1606132547.686,-349.609,-58.105,-43.457,-802.734,0.000
1606132547.690,-23.438,-34.180,-27.832,-90.332,0.000
1606132547.694,291.504,-1.953,-4.883,694.824,0.000
1606132547.698,193.359,0.488,-13.184,541.504,0.000
1606132547.702,-200.684,-36.133,-41.504,-379.883,0.000
1606132547.705,-355.957,-54.688,-46.875,-825.684,0.000
1606132547.709,-65.918,-35.156,-32.227,-201.172,0.000
1606132547.713,267.578,-13.184,-21.973,635.254,0.000
1606132547.717,227.051,-12.207,-24.902,619.629,0.000
1606132547.721,-150.879,-35.645,-46.875,-268.555,0.000
1606132547.725,-354.004,-54.688,-53.223,-820.312,0.000
1606132547.729,-119.141,-40.039,-30.273,-322.266,0.000
1606132547.733,239.746,-12.207,-2.441,563.477,0.000
1606132547.737,251.465,-9.766,-8.789,686.035,0.000
1606132547.741,-126.465,-40.527,-41.504,-171.875,0.000
1606132547.745,-358.398,-55.664,-44.434,-812.988,0.000
1606132547.748,-170.898,-40.039,-28.809,-427.734,0.000
1606132547.752,188.965,-14.648,-11.719,472.168,0.000
1606132547.756,268.066,-2.930,-3.906,726.074,0.000
1606132547.760,-68.359,-22.461,-22.949,-44.434,0.000
1606132547.764,-351.562,-44.922,-41.992,-791.016,0.000
1606132547.768,-217.285,-35.156,-37.109,-510.254,0.000
1606132547.772,162.109,-10.742,-19.531,422.363,0.000
1606132547.776,276.855,-10.742,-12.207,741.699,0.000
1606132547.780,-33.203,-40.527,-25.391,51.758,0.000
1606132547.784,-340.820,-58.105,-39.551,-741.699,0.000
1606132547.787,-266.602,-47.363,-43.945,-643.555,0.000
1606132547.791,114.258,-23.926,-27.832,254.883,0.000
1606132547.795,288.574,-11.230,-17.578,731.445,0.000
1606132547.799,22.461,-27.832,-18.066,153.809,0.000
1606132547.803,-312.988,-45.410,-32.227,-691.895,0.000
1606132547.807,-290.039,-46.875,-49.316,-719.727,0.000
1606132547.811,85.938,-26.855,-32.715,164.062,0.000
1606132547.815,297.363,-13.672,-26.367,741.699,0.000
1606132547.819,74.219,-28.809,-31.250,281.250,0.000
1606132547.823,-287.598,-47.852,-39.062,-605.469,0.000
1606132547.827,-321.289,-47.363,-44.434,-765.625,0.000
1606132547.830,45.898,-21.484,-23.438,71.289,0.000
1606132547.834,302.246,-7.324,-5.371,742.676,0.000
1606132547.838,126.465,-23.438,-20.996,411.621,0.000
1606132547.842,-264.160,-54.199,-38.574,-501.953,0.000
1606132547.846,-338.379,-54.199,-39.062,-753.418,0.000
1606132547.850,4.883,-20.996,-30.762,14.160,0.000
1606132547.854,276.855,-1.953,-13.184,720.215,0.000
1606132547.858,155.273,-15.625,-24.902,513.672,0.000
1606132547.862,-228.027,-43.945,-47.363,-405.273,0.000
1606132547.866,-359.375,-42.969,-47.363,-802.246,0.000
1606132547.870,-57.129,-16.113,-22.949,-135.742,0.000
1606132547.873,265.625,-3.906,4.395,668.457,0.000
1606132547.877,197.754,-10.742,-5.371,586.426,0.000
1606132547.881,-187.988,-34.180,-28.809,-320.801,0.000
1606132547.885,-368.164,-48.340,-33.691,-836.914,0.000
1606132547.889,-111.816,-36.133,-19.043,-283.691,0.000
1606132547.893,233.887,-10.254,-11.719,574.707,0.000
1606132547.897,230.469,-13.184,-17.090,641.602,0.000
1606132547.901,-146.484,-41.992,-30.273,-247.559,0.000
1606132547.905,-343.262,-49.805,-36.621,-796.387,0.000
1606132547.909,-117.676,-33.203,-25.879,-332.520,0.000
1606132547.912,221.191,-9.277,-16.113,492.676,0.000
1606132547.916,264.160,-11.719,-24.414,689.941,0.000
1606132547.920,-92.773,-41.504,-39.551,-117.188,0.000
1606132547.924,-355.957,-50.781,-56.152,-809.082,0.000
1606132547.928,-192.383,-30.273,-48.340,-501.465,0.000
1606132547.932,188.477,-10.254,-22.949,416.016,0.000
1606132547.936,280.273,-11.230,-14.160,729.980,0.000
1606132547.940,-51.758,-29.785,-33.203,-4.883,0.000
1606132547.944,-352.539,-52.734,-51.270,-769.043,0.000
1606132547.948,-247.559,-50.293,-41.504,-586.914,0.000
1606132547.952,129.883,-25.879,-22.461,327.148,0.000
1606132547.955,274.414,-9.277,-14.648,756.836,0.000
1606132547.959,-10.742,-17.578,-27.832,136.230,0.000
1606132547.963,-342.285,-54.199,-54.688,-697.266,0.000
1606132547.967,-297.852,-60.059,-57.617,-672.852,0.000
1606132547.971,88.379,-33.691,-36.621,230.469,0.000
1606132547.975,291.504,-7.812,-13.672,769.043,0.000
1606132547.979,49.805,-13.184,-21.484,246.094,0.000
1606132547.983,-304.199,-50.781,-40.527,-625.977,0.000
1606132547.987,-314.453,-54.688,-37.598,-730.957,0.000
1606132547.991,46.875,-29.785,-27.832,121.094,0.000
1606132547.995,282.715,-9.277,-16.113,750.000,0.000
1606132547.998,85.449,-20.508,-32.715,348.145,0.000
1606132548.002,-287.598,-46.875,-50.781,-555.664,0.000
1606132548.006,-346.191,-49.805,-51.758,-784.668,0.000
1606132548.010,10.742,-27.832,-28.809,14.160,0.000
1606132548.014,296.875,-0.488,-3.418,734.375,0.000
1606132548.018,157.715,-5.859,-16.113,460.938,0.000
1606132548.022,-212.891,-33.203,-44.434,-460.449,0.000
1606132548.026,-316.895,-36.133,-41.992,-809.570,0.000
1606132548.030,-1.953,-12.207,-15.625,-95.703,0.000
1606132548.034,308.105,-3.906,-8.789,687.988,0.000
1606132548.037,218.262,-17.578,-24.414,550.781,0.000
1606132548.041,-162.598,-36.621,-37.109,-357.422,0.000
1606132548.045,-328.125,-50.293,-37.598,-819.336,0.000
1606132548.049,-63.477,-29.785,-20.020,-220.215,0.000
1606132548.053,269.531,-0.977,-3.906,629.395,0.000
1606132548.057,229.980,-0.977,-13.672,627.441,0.000
1606132548.061,-156.250,-21.973,-37.109,-270.020,0.000
1606132548.065,-360.840,-40.039,-38.086,-826.172,0.000
1606132548.069,-127.441,-27.832,-23.926,-332.031,0.000
1606132548.073,228.027,-1.953,-10.254,552.246,0.000
1606132548.077,246.582,-1.953,-8.301,684.082,0.000
1606132548.080,-122.559,-34.668,-22.949,-154.297,0.000
1606132548.084,-371.094,-53.223,-32.227,-805.176,0.000
1606132548.088,-194.336,-43.457,-29.785,-445.801,0.000
1606132548.092,170.898,-27.344,-19.043,458.496,0.000
1606132548.096,248.535,-20.508,-12.207,725.098,0.000
1606132548.100,-89.844,-42.480,-29.297,-51.270,0.000
1606132548.104,-375.000,-69.336,-47.852,-795.898,0.000
1606132548.108,-240.234,-58.105,-33.691,-560.059,0.000
1606132548.112,147.949,-29.297,-5.859,365.234,0.000
1606132548.116,286.133,-5.859,-1.953,754.395,0.000
1606132548.120,-18.066,-19.531,-26.855,66.406,0.000
1606132548.123,-348.633,-52.246,-34.180,-741.699,0.000
1606132548.127,-276.367,-56.641,-18.555,-642.578,0.000
1606132548.131,104.980,-33.691,-4.883,268.066,0.000
1606132548.135,279.297,-14.648,0.488,755.371,0.000
1606132548.139,22.461,-34.180,-16.113,183.594,0.000
1606132548.143,-317.871,-58.105,-42.969,-664.062,0.000
1606132548.147,-296.875,-44.922,-32.227,-697.754,0.000
1606132548.151,92.773,-11.230,-6.348,193.848,0.000
1606132548.155,316.406,0.977,5.859,784.668,0.000
1606132548.159,94.727,7.324,-18.066,317.871,0.000
1606132548.162,-262.695,-18.555,-35.156,-570.312,0.000
1606132548.166,-301.758,-50.293,-36.133,-750.488,0.000
1606132548.170,54.199,-32.715,-26.367,70.312,0.000
1606132548.174,318.848,-9.277,-12.207,750.977,0.000
1606132548.178,152.344,-17.578,-23.438,418.457,0.000
1606132548.182,-230.957,-46.387,-40.039,-494.629,0.000
1606132548.186,-326.172,-52.734,-37.109,-792.969,0.000
1606132548.190,6.836,-31.250,-20.508,-36.621,0.000
1606132548.194,304.688,-1.953,-6.348,731.934,0.000
1606132548.198,192.383,9.766,-11.230,535.645,0.000
1606132548.202,-196.777,-23.438,-34.180,-383.301,0.000
1606132548.205,-335.938,-44.434,-39.062,-792.480,0.000
1606132548.209,-29.785,-22.949,-18.555,-144.531,0.000
1606132548.213,299.316,-0.977,0.000,668.945,0.000
1606132548.217,235.840,-1.953,3.906,608.887,0.000
1606132548.221,-163.086,-34.668,-22.949,-304.688,0.000
1606132548.225,-357.910,-52.246,-41.992,-826.660,0.000
1606132548.229,-102.539,-37.598,-30.273,-282.715,0.000
1606132548.233,240.723,-12.207,-17.090,577.148,0.000
1606132548.237,238.770,-6.348,-17.090,651.367,0.000
1606132548.241,-133.301,-38.086,-33.203,-214.355,0.000
1606132548.245,-375.488,-63.965,-49.316,-834.961,0.000
1606132548.248,-173.828,-50.293,-42.480,-415.039,0.000
1606132548.252,203.613,-30.273,-13.672,495.117,0.000
1606132548.256,260.254,-7.324,-7.324,704.590,0.000
1606132548.260,-93.750,-9.277,-24.902,-104.492,0.000
1606132548.264,-362.305,-49.316,-47.363,-807.617,0.000
1606132548.268,-208.984,-57.129,-50.781,-524.414,0.000
1606132548.272,170.410,-27.832,-28.320,395.996,0.000
1606132548.276,273.926,-22.949,-24.414,724.609,0.000
1606132548.280,-49.316,-46.875,-47.363,-3.906,0.000
1606132548.284,-354.492,-66.406,-55.664,-775.879,0.000
1606132548.287,-256.348,-57.129,-41.992,-615.723,0.000
1606132548.291,132.324,-35.156,-24.414,300.293,0.000
1606132548.295,294.434,-16.113,-21.973,750.977,0.000
1606132548.299,13.184,-17.090,-38.086,133.789,0.000
1606132548.303,-323.242,-53.711,-53.711,-704.590,0.000
1606132548.307,-279.297,-59.082,-53.711,-676.758,0.000
1606132548.311,102.539,-34.180,-31.250,229.492,0.000
1606132548.315,299.316,-19.531,-20.508,770.996,0.000
1606132548.319,59.082,-32.715,-32.227,255.859,0.000
1606132548.323,-293.945,-51.270,-41.992,-620.605,0.000
1606132548.327,-308.594,-49.316,-41.992,-728.027,0.000
1606132548.330,61.035,-32.227,-23.438,134.766,0.000
1606132548.334,304.199,-10.742,-5.371,775.391,0.000
1606132548.338,109.375,6.348,-16.602,384.766,0.000
1606132548.342,-267.578,-23.926,-46.387,-524.902,0.000
1606132548.346,-336.914,-55.664,-51.270,-774.414,0.000
1606132548.350,13.184,-32.227,-27.832,18.066,0.000
1606132548.354,293.945,-10.254,-9.766,743.164,0.000
1606132548.358,149.902,-17.090,-13.184,473.633,0.000
1606132548.362,-231.934,-41.992,-41.504,-448.730,0.000
1606132548.366,-351.074,-49.316,-47.852,-808.594,0.000
1606132548.370,-36.621,-34.668,-26.855,-112.305,0.000
1606132548.373,274.902,-16.113,-20.508,680.176,0.000
1606132548.377,187.012,-15.625,-30.273,561.035,0.000
1606132548.381,-191.406,-38.086,-36.621,-342.773,0.000
1606132548.385,-359.863,-56.641,-46.387,-815.918,0.000
1606132548.389,-85.938,-31.250,-40.039,-225.098,0.000
1606132548.393,250.488,-6.836,-17.578,621.094,0.000
1606132548.397,218.750,-15.625,-21.484,631.348,0.000
1606132548.401,-157.227,-41.504,-45.898,-265.137,0.000
1606132548.405,-365.234,-51.270,-49.316,-843.750,0.000
1606132548.409,-130.859,-26.855,-26.367,-362.793,0.000
1606132548.412,228.516,-2.441,-10.254,525.879,0.000
1606132548.416,255.859,-4.395,-21.973,670.898,0.000
1606132548.420,-109.375,-32.227,-48.828,-171.387,0.000
1606132548.424,-367.188,-55.176,-52.246,-828.613,0.000
1606132548.428,-194.824,-43.457,-35.645,-465.820,0.000
1606132548.432,183.105,-24.902,-25.879,445.801,0.000
1606132548.436,268.555,-23.438,-19.043,713.867,0.000
1606132548.440,-70.312,-34.668,-31.250,-45.898,0.000
1606132548.444,-360.840,-54.199,-51.270,-777.832,0.000
1606132548.448,-235.840,-46.387,-41.016,-562.988,0.000
1606132548.452,148.438,-16.602,-22.949,352.539,0.000
1606132548.455,279.297,-10.254,-19.043,749.512,0.000
1606132548.459,-20.508,-34.668,-28.809,85.449,0.000
1606132548.463,-345.703,-54.688,-41.016,-719.238,0.000
1606132548.467,-281.738,-50.293,-41.992,-640.625,0.000
1606132548.471,108.398,-24.414,-20.020,269.531,0.000
1606132548.475,290.039,-12.207,-12.207,778.809,0.000
1606132548.479,31.250,-32.715,-28.809,208.984,0.000
1606132548.483,-312.500,-51.270,-41.992,-653.809,0.000
1606132548.487,-299.805,-43.945,-41.016,-702.148,0.000
1606132548.491,81.543,-12.695,-12.207,177.734,0.000
1606132548.495,307.129,2.930,6.348,774.414,0.000
1606132548.498,92.773,-17.090,-9.277,329.590,0.000
1606132548.502,-275.879,-48.340,-30.273,-564.941,0.000
1606132548.506,-315.430,-48.828,-33.691,-756.348,0.000
1606132548.510,47.363,-20.996,-18.066,60.059,0.000
1606132548.514,308.105,-6.348,3.418,742.188,0.000
1606132548.518,142.090,-18.066,-6.348,430.664,0.000
1606132548.522,-237.793,-42.969,-41.504,-478.516,0.000
1606132548.526,-333.008,-52.246,-48.340,-793.457,0.000
1606132548.530,-4.883,-30.762,-26.367,-58.594,0.000
1606132548.534,290.039,-9.277,-12.695,699.219,0.000
1606132548.537,179.199,-18.555,-14.648,524.902,0.000
1606132548.541,-200.684,-47.363,-22.949,-380.371,0.000
1606132548.545,-347.168,-60.059,-34.180,-809.082,0.000
1606132548.549,-60.547,-42.480,-27.344,-174.805,0.000
1606132548.553,260.742,-16.602,-16.113,640.137,0.000
1606132548.557,208.008,-14.160,-19.043,599.609,0.000
1606132548.561,-167.969,-40.039,-40.039,-289.551,0.000
1606132548.565,-358.887,-52.246,-45.898,-819.824,0.000
1606132548.569,-103.027,-35.645,-29.785,-286.621,0.000
1606132548.573,246.094,-14.648,-8.789,578.613,0.000
1606132548.577,237.793,-16.113,-7.324,658.691,0.000
1606132548.580,-137.207,-42.969,-38.086,-208.008,0.000
1606132548.584,-374.023,-57.617,-56.152,-830.566,0.000
1606132548.588,-165.527,-36.133,-39.551,-409.668,0.000
1606132548.592,209.473,-5.371,-17.578,494.141,0.000
1606132548.596,264.160,-6.836,-13.672,705.078,0.000
1606132548.600,-88.867,-30.762,-31.250,-94.727,0.000
1606132548.604,-364.258,-48.828,-48.340,-797.363,0.000
1606132548.608,-215.332,-47.363,-39.551,-512.695,0.000
1606132548.612,166.992,-23.926,-20.020,412.109,0.000
1606132548.616,272.949,-10.254,-14.648,754.883,0.000
1606132548.620,-46.387,-25.879,-27.832,47.363,0.000
1606132548.623,-353.516,-54.199,-44.434,-732.910,0.000
1606132548.627,-267.578,-56.641,-41.504,-590.332,0.000
1606132548.631,121.094,-20.508,-16.113,324.707,0.000
1606132548.635,282.227,-7.324,-6.348,758.301,0.000
1606132548.639,-3.418,-30.762,-29.297,137.207,0.000
1606132548.643,-330.078,-47.852,-43.945,-683.105,0.000
1606132548.647,-282.715,-38.574,-31.738,-665.527,0.000
1606132548.651,98.633,-20.020,-10.742,223.145,0.000
1606132548.655,299.805,-9.277,-6.836,770.508,0.000
1606132548.659,67.871,-20.020,-26.855,268.555,0.000
1606132548.662,-285.645,-44.434,-46.875,-605.469,0.000
1606132548.666,-305.664,-51.270,-52.246,-737.305,0.000
1606132548.670,57.617,-30.273,-34.668,104.004,0.000
1606132548.674,303.711,-10.254,-15.137,760.254,0.000
1606132548.678,119.141,-18.555,-20.996,400.879,0.000
1606132548.682,-254.883,-42.480,-38.574,-513.672,0.000
1606132548.686,-329.590,-43.945,-45.410,-779.785,0.000
1606132548.690,7.324,-22.461,-30.762,0.000,0.000
1606132548.694,288.086,-6.836,-14.160,728.027,0.000
1606132548.698,154.785,-14.160,-30.273,482.910,0.000
1606132548.702,-228.516,-36.133,-44.434,-432.129,0.000
1606132548.705,-351.562,-41.016,-41.016,-801.270,0.000
1606132548.709,-35.645,-18.066,-27.344,-104.004,0.000
1606132548.713,283.203,2.930,-9.766,690.918,0.000
1606132548.717,195.801,-13.184,-20.996,563.477,0.000
1606132548.721,-195.312,-41.504,-40.039,-348.145,0.000
1606132548.725,-366.699,-44.434,-43.457,-827.148,0.000
1606132548.729,-100.586,-22.949,-27.832,-244.629,0.000
1606132548.733,242.676,0.000,-7.324,602.051,0.000
1606132548.737,223.145,0.000,-11.230,627.930,0.000
1606132548.741,-152.832,-28.320,-34.180,-254.883,0.000
1606132548.745,-361.816,-44.922,-47.852,-833.008,0.000
1606132548.748,-143.555,-33.691,-31.738,-366.699,0.000
1606132548.752,215.820,-12.207,-2.930,523.926,0.000
1606132548.756,253.906,-5.859,-7.324,692.871,0.000
1606132548.760,-108.398,-34.668,-33.203,-138.672,0.000
1606132548.764,-364.258,-52.734,-37.598,-807.129,0.000
1606132548.768,-192.383,-39.551,-24.902,-465.820,0.000
1606132548.772,187.500,-17.090,-12.207,442.871,0.000
1606132548.776,278.320,-13.184,-14.160,721.680,0.000
1606132548.780,-58.594,-33.691,-34.180,-41.504,0.000
1606132548.784,-352.539,-51.758,-47.852,-784.668,0.000
1606132548.787,-229.004,-43.457,-38.574,-562.012,0.000
1606132548.791,158.203,-14.160,-16.113,358.887,0.000
1606132548.795,291.016,-6.836,-6.836,746.582,0.000
1606132548.799,-9.766,-26.855,-23.926,82.031,0.000
1606132548.803,-330.566,-44.922,-41.992,-722.168,0.000
1606132548.807,-267.090,-40.039,-43.945,-647.461,0.000
1606132548.811,115.234,-23.926,-21.484,255.371,0.000
1606132548.815,291.504,-13.672,-14.648,754.395,0.000
1606132548.819,35.156,-2.930,-36.133,203.613,0.000
1606132548.823,-300.293,-31.250,-50.293,-646.973,0.000
1606132548.827,-289.062,-53.711,-42.969,-706.055,0.000
1606132548.830,77.637,-28.809,-23.926,162.598,0.000
1606132548.834,298.340,-10.742,-18.066,763.672,0.000
1606132548.838,85.449,-24.414,-32.227,331.055,0.000
1606132548.842,-279.297,-47.363,-45.410,-562.988,0.000
1606132548.846,-318.359,-43.457,-32.227,-752.930,0.000
1606132548.850,37.109,-18.555,-10.742,65.918,0.000
1606132548.854,290.039,-5.371,-3.418,744.141,0.000
1606132548.858,130.371,-13.184,-19.531,429.688,0.000
1606132548.862,-239.746,-34.668,-41.992,-476.074,0.000
1606132548.866,-338.867,-43.457,-43.945,-795.410,0.000
1606132548.870,-10.742,-22.461,-23.438,-60.059,0.000
1606132548.873,294.922,-4.395,-14.648,703.125,0.000
1606132548.877,192.383,-13.184,-23.438,524.414,0.000
1606132548.881,-193.848,-38.086,-40.039,-383.789,0.000
1606132548.885,-344.238,-49.805,-46.875,-808.594,0.000
1606132548.889,-58.594,-32.715,-30.273,-174.316,0.000
1606132548.893,266.602,-8.301,-14.160,649.414,0.000
1606132548.897,222.656,-1.465,-15.625,619.141,0.000
1606132548.901,-160.645,-26.855,-41.992,-289.062,0.000
1606132548.905,-348.633,-52.734,-51.758,-802.734,0.000
1606132548.909,-103.516,-39.551,-28.809,-269.043,0.000
1606132548.912,229.980,-14.160,-12.207,565.918,0.000
1606132548.916,242.676,-10.742,-17.578,673.828,0.000
1606132548.920,-123.047,-35.156,-34.668,-179.199,0.000
1606132548.924,-362.305,-57.617,-41.504,-810.547,0.000
1606132548.928,-161.621,-42.480,-30.762,-407.227,0.000
1606132548.932,209.473,-16.602,-8.301,495.117,0.000
1606132548.936,262.207,-16.602,-8.789,708.008,0.000
1606132548.940,-84.961,-31.250,-34.180,-80.078,0.000
1606132548.944,-356.934,-48.828,-48.828,-781.250,0.000
1606132548.948,-213.867,-46.875,-39.062,-514.160,0.000
1606132548.952,163.086,-24.902,-19.531,395.508,0.000
1606132548.955,274.414,-14.160,-18.555,736.816,0.000
1606132548.959,-34.668,-27.344,-37.109,37.109,0.000
1606132548.963,-339.844,-53.711,-52.246,-744.141,0.000
1606132548.967,-255.371,-49.316,-41.016,-611.816,0.000
1606132548.971,126.953,-22.949,-16.602,305.664,0.000
1606132548.975,292.480,-11.230,-6.348,766.602,0.000
1606132548.979,19.043,-25.391,-24.902,165.527,0.000
1606132548.983,-320.312,-51.270,-47.363,-674.805,0.000
1606132548.987,-284.180,-43.457,-38.574,-668.945,0.000
1606132548.991,96.680,-16.602,-15.137,230.957,0.000
1606132548.995,295.410,-6.348,-8.301,774.414,0.000
1606132548.998,64.941,-19.531,-23.926,273.926,0.000
1606132549.002,-292.969,-51.270,-45.410,-604.004,0.000
1606132549.006,-312.500,-56.152,-49.805,-739.258,0.000
1606132549.010,56.152,-31.738,-31.738,102.051,0.000
1606132549.014,299.805,-12.695,-20.508,748.535,0.000
1606132549.018,113.281,-18.555,-26.367,378.906,0.000
1606132549.022,-252.930,-45.410,-40.527,-524.902,0.000
1606132549.026,-323.242,-48.828,-41.016,-788.574,0.000
1606132549.030,17.090,-23.438,-24.902,-13.184,0.000
1606132549.034,298.340,-16.602,-23.438,709.961,0.000
1606132549.037,164.551,-7.324,-33.691,470.215,0.000
1606132549.041,-220.703,-20.020,-51.758,-440.918,0.000
1606132549.045,-349.121,-51.758,-51.270,-819.824,0.000
1606132549.049,-32.715,-30.762,-23.438,-131.348,0.000
1606132549.053,284.668,-6.836,-10.254,664.551,0.000
1606132549.057,202.148,-15.137,-19.531,555.176,0.000
1606132549.061,-182.129,-37.109,-34.668,-347.656,0.000
1606132549.065,-356.445,-47.363,-40.527,-831.543,0.000
1606132549.069,-87.402,-31.738,-22.461,-253.418,0.000
1606132549.073,253.418,-9.277,-6.836,596.680,0.000
1606132549.077,231.445,-12.207,-19.043,624.023,0.000
1606132549.080,-143.555,-37.109,-35.156,-243.652,0.000
1606132549.084,-357.422,-52.246,-47.852,-820.801,0.000
1606132549.088,-132.324,-35.645,-42.480,-370.117,0.000
1606132549.092,224.609,-12.207,-20.020,514.648,0.000
1606132549.096,255.859,-1.465,-17.090,677.734,0.000
1606132549.100,-98.145,-13.184,-36.133,-140.137,0.000
1606132549.104,-357.910,-42.969,-48.828,-807.617,0.000
1606132549.108,-193.848,-36.621,-34.668,-475.586,0.000
1606132549.112,182.129,-13.184,-15.137,430.176,0.000
1606132549.116,264.648,-9.766,-17.090,722.168,0.000
1606132549.120,-72.266,-28.809,-35.156,-16.113,0.000
1606132549.123,-362.305,-48.340,-48.828,-755.859,0.000
1606132549.127,-241.699,-37.598,-34.668,-548.340,0.000
1606132549.131,153.320,-7.324,-12.207,366.699,0.000
1606132549.135,293.457,3.906,-10.742,756.348,0.000
1606132549.139,-9.277,-19.531,-36.133,87.891,0.000
1606132549.143,-327.637,-41.992,-47.852,-720.215,0.000
1606132549.147,-261.230,-36.621,-35.645,-650.391,0.000
1606132549.151,115.723,-20.508,-20.508,247.559,0.000
1606132549.155,300.293,-6.836,-10.742,757.812,0.000
1606132549.159,47.363,-21.484,-17.090,217.773,0.000
1606132549.162,-303.223,-51.270,-43.945,-637.207,0.000
1606132549.166,-295.898,-49.805,-44.922,-708.008,0.000
1606132549.170,80.566,-22.461,-16.602,166.016,0.000
1606132549.174,314.453,1.465,-1.953,778.320,0.000
1606132549.178,108.398,-1.465,-11.719,351.562,0.000
1606132549.182,-263.672,-33.203,-36.621,-542.969,0.000
1606132549.186,-311.523,-42.480,-41.016,-750.000,0.000
1606132549.190,37.598,-18.555,-24.414,48.828,0.000
1606132549.194,295.898,-9.766,-17.578,732.422,0.000
1606132549.198,138.672,-18.066,-23.438,433.594,0.000
1606132549.202,-233.398,-35.156,-39.062,-472.656,0.000
1606132549.205,-333.984,-40.039,-40.527,-796.387,0.000
1606132549.209,-10.742,-22.949,-23.926,-70.801,0.000
1606132549.213,283.203,-9.766,-22.949,688.965,0.000
1606132549.217,172.852,-22.949,-30.762,514.160,0.000
1606132549.221,-209.473,-49.805,-40.039,-384.766,0.000
1606132549.225,-360.352,-53.223,-47.363,-810.547,0.000
1606132549.229,-64.453,-27.832,-35.156,-187.500,0.000
1606132549.233,269.531,-8.789,-15.625,640.625,0.000
1606132549.237,217.773,-14.160,-15.137,610.352,0.000
1606132549.241,-160.156,-36.133,-44.434,-285.156,0.000
1606132549.245,-354.004,-52.246,-58.105,-818.359,0.000
1606132549.248,-110.352,-40.527,-35.645,-298.340,0.000
1606132549.252,238.770,-14.648,-12.207,565.430,0.000
1606132549.256,248.535,-12.207,-15.625,667.480,0.000
1606132549.260,-112.793,-37.598,-32.715,-183.594,0.000
1606132549.264,-354.492,-57.617,-41.992,-821.289,0.000
1606132549.268,-162.598,-41.504,-33.691,-428.223,0.000
1606132549.272,215.332,-6.348,-13.184,482.910,0.000
1606132549.276,270.020,-11.719,-17.090,704.102,0.000
1606132549.280,-82.520,-37.109,-41.016,-94.727,0.000
1606132549.284,-355.469,-53.223,-51.758,-806.641,0.000
1606132549.287,-212.402,-42.969,-39.551,-539.062,0.000
1606132549.291,172.852,-12.207,-15.625,388.184,0.000
1606132549.295,283.691,-6.348,-18.555,738.770,0.000
1606132549.299,-32.715,-30.762,-42.480,33.691,0.000
1606132549.303,-337.402,-51.270,-49.805,-740.234,0.000
1606132549.307,-253.418,-42.480,-34.180,-615.723,0.000
1606132549.311,127.441,-21.484,-19.531,287.598,0.000
1606132549.315,290.039,-3.418,-22.949,748.047,0.000
1606132549.319,13.184,-13.184,-23.926,155.273,0.000
1606132549.323,-332.031,-52.246,-33.203,-681.152,0.000
1606132549.327,-309.570,-56.641,-31.250,-684.082,0.000
1606132549.330,71.289,-25.879,-13.672,209.961,0.000
1606132549.334,277.832,-12.695,-9.766,767.090,0.000
1606132549.338,49.316,-25.879,-16.113,281.250,0.000
1606132549.342,-304.688,-49.805,-34.668,-601.074,0.000
1606132549.346,-331.543,-52.734,-40.039,-747.070,0.000
1606132549.350,32.227,-28.320,-23.926,94.727,0.000
1606132549.354,284.668,-7.812,-13.672,751.465,0.000
1606132549.358,107.422,-18.555,-23.438,389.160,0.000
1606132549.362,-257.324,-49.316,-42.969,-515.625,0.000
1606132549.366,-321.777,-49.316,-48.828,-775.879,0.000
1606132549.370,24.902,-23.926,-36.621,-4.395,0.000
1606132549.373,307.617,-7.324,-15.137,726.074,0.000
1606132549.377,188.477,-9.766,-5.859,503.418,0.000
1606132549.381,-189.453,-37.598,-33.203,-404.785,0.000
1606132549.385,-330.078,-54.688,-49.805,-796.387,0.000
1606132549.389,-27.832,-32.227,-32.227,-125.488,0.000
1606132549.393,291.016,-11.719,-18.555,668.945,0.000
1606132549.397,218.262,-18.066,-17.090,571.777,0.000
1606132549.401,-166.992,-37.109,-32.227,-332.031,0.000
1606132549.405,-353.027,-50.781,-48.340,-825.195,0.000
1606132549.409,-88.379,-33.691,-34.668,-252.930,0.000
1606132549.412,254.883,-9.277,-14.160,597.168,0.000
1606132549.416,230.469,-10.254,-15.137,628.906,0.000
1606132549.420,-153.320,-33.691,-29.785,-247.559,0.000
1606132549.424,-381.836,-48.340,-47.363,-836.426,0.000
1606132549.428,-164.062,-30.762,-41.016,-379.883,0.000
1606132549.432,204.102,-2.930,-10.254,515.137,0.000
1606132549.436,241.699,-7.812,-14.160,687.988,0.000
1606132549.440,-124.023,-39.062,-39.062,-137.695,0.000
1606132549.444,-381.348,-53.711,-44.922,-812.500,0.000
1606132549.448,-209.473,-48.828,-33.691,-486.328,0.000
1606132549.452,163.574,-22.461,-20.996,423.340,0.000
1606132549.455,265.137,-0.977,-17.578,727.539,0.000
1606132549.459,-56.152,-17.578,-35.645,-15.137,0.000
1606132549.463,-354.004,-45.410,-48.828,-773.438,0.000
1606132549.467,-238.770,-37.598,-33.203,-577.148,0.000
1606132549.471,139.160,-9.766,-20.996,330.566,0.000
1606132549.475,279.785,-3.906,-24.414,735.840,0.000
1606132549.479,-7.812,-25.391,-41.504,91.309,0.000
1606132549.483,-342.285,-51.270,-55.176,-727.539,0.000
1606132549.487,-293.945,-47.363,-45.898,-673.340,0.000
1606132549.491,100.586,-20.020,-27.832,231.934,0.000
1606132549.495,296.875,-6.348,-17.578,752.441,0.000
1606132549.498,43.945,-17.578,-29.785,213.379,0.000
1606132549.502,-304.688,-37.109,-45.898,-648.926,0.000
1606132549.506,-300.293,-42.480,-39.551,-728.516,0.000
1606132549.510,68.848,-26.855,-27.344,138.672,0.000
1606132549.514,302.734,-11.719,-15.137,760.254,0.000
1606132549.518,105.469,-16.602,-16.113,346.680,0.000
1606132549.522,-264.160,-39.551,-34.668,-549.805,0.000
1606132549.526,-325.684,-51.270,-43.945,-766.113,0.000
1606132549.530,28.320,-30.762,-35.156,42.480,0.000
1606132549.534,308.594,-7.812,-14.160,753.418,0.000
1606132549.537,158.691,-16.602,-18.066,461.426,0.000
1606132549.541,-225.098,-40.527,-35.645,-451.172,0.000
1606132549.545,-334.473,-51.270,-38.086,-788.574,0.000
1606132549.549,-8.301,-32.227,-20.020,-58.105,0.000
1606132549.553,299.805,-8.301,-1.953,725.586,0.000
1606132549.557,206.543,-11.719,-14.648,564.941,0.000
1606132549.561,-181.641,-35.645,-41.016,-360.352,0.000
1606132549.565,-338.867,-39.062,-46.387,-813.477,0.000
1606132549.569,-55.664,-16.113,-30.762,-196.289,0.000
1606132549.573,275.391,8.301,-14.160,635.742,0.000
1606132549.577,232.422,0.000,-21.973,613.770,0.000
1606132549.580,-155.762,-34.668,-53.711,-291.016,0.000
1606132549.584,-354.004,-44.434,-58.594,-833.008,0.000
1606132549.588,-112.305,-23.438,-36.621,-313.965,0.000
1606132549.592,235.840,0.488,-18.555,561.035,0.000
1606132549.596,249.023,-3.418,-17.090,669.434,0.000
1606132549.600,-112.793,-30.762,-39.062,-181.641,0.000
1606132549.604,-354.980,-41.992,-49.316,-818.848,0.000
1606132549.608,-165.039,-32.715,-46.387,-437.012,0.000
1606132549.612,204.590,-16.602,-27.832,464.844,0.000
1606132549.616,276.367,-4.883,-9.277,712.891,0.000
1606132549.620,-69.336,-24.902,-30.273,-73.242,0.000
1606132549.623,-356.445,-49.805,-45.410,-797.852,0.000
1606132549.627,-216.797,-40.039,-33.691,-536.133,0.000
1606132549.631,164.551,-22.461,-13.672,376.953,0.000
1606132549.635,285.156,-15.625,-7.324,736.816,0.000
1606132549.639,-29.297,-35.156,-36.133,38.086,0.000
1606132549.643,-344.238,-57.129,-52.734,-750.488,0.000
1606132549.647,-255.859,-46.387,-41.504,-621.094,0.000
1606132549.651,130.371,-23.438,-20.508,291.504,0.000
1606132549.655,298.828,-14.160,-6.836,759.766,0.000
1606132549.659,30.273,-23.438,-16.113,173.340,0.000
1606132549.662,-304.688,-43.945,-25.879,-667.480,0.000
1606132549.666,-283.203,-50.293,-24.902,-692.383,0.000
1606132549.670,86.426,-23.926,-10.254,190.430,0.000
1606132549.674,297.363,-4.883,-0.977,760.742,0.000
1606132549.678,68.359,-18.555,-16.113,283.691,0.000
1606132549.682,-303.223,-46.875,-44.434,-611.816,0.000
1606132549.686,-329.590,-51.758,-53.223,-767.090,0.000
1606132549.690,41.016,-22.461,-23.438,81.543,0.000
1606132549.694,285.645,-5.371,-3.418,747.070,0.000
1606132549.698,104.492,-8.301,-19.043,385.254,0.000
1606132549.702,-270.508,-36.621,-44.922,-533.203,0.000
1606132549.705,-356.934,-58.105,-49.805,-817.871,0.000
1606132549.709,-11.719,-26.855,-21.973,-43.457,0.000
1606132549.713,278.320,-3.906,-6.348,707.031,0.000
1606132549.717,150.391,-12.207,-21.484,479.004,0.000
1606132549.721,-231.445,-36.133,-38.086,-432.617,0.000
1606132549.725,-359.863,-46.387,-41.992,-819.336,0.000
1606132549.729,-56.152,-28.320,-24.414,-153.320,0.000
1606132549.733,267.090,-8.789,-8.789,659.180,0.000
1606132549.737,203.613,-12.695,-16.602,582.520,0.000
1606132549.741,-180.176,-39.551,-35.156,-328.125,0.000
1606132549.745,-352.051,-53.223,-40.039,-826.172,0.000
1606132549.748,-87.891,-35.645,-20.508,-260.254,0.000
1606132549.752,247.559,-11.230,-4.883,590.332,0.000
1606132549.756,238.770,-9.766,-7.324,642.090,0.000
1606132549.760,-124.512,-38.086,-24.414,-231.934,0.000
1606132549.764,-353.027,-51.270,-43.457,-833.008,0.000
1606132549.768,-145.508,-32.227,-30.762,-391.113,0.000
1606132549.772,222.168,-2.441,-4.883,506.348,0.000
1606132549.776,259.277,-1.953,-12.695,683.594,0.000
1606132549.780,-103.516,-30.762,-35.645,-140.137,0.000
1606132549.784,-362.793,-43.945,-46.875,-815.430,0.000
1606132549.787,-195.801,-34.180,-35.156,-491.211,0.000
1606132549.791,182.129,-17.090,-17.578,419.434,0.000
1606132549.795,273.926,-7.324,-17.090,717.285,0.000
1606132549.799,-51.758,-22.461,-30.273,-21.973,0.000
1606132549.803,-341.309,-47.852,-34.180,-771.484,0.000
1606132549.807,-232.910,-40.527,-27.344,-590.820,0.000
1606132549.811,149.902,-13.184,-20.996,320.312,0.000
1606132549.815,289.062,-8.789,-24.414,733.398,0.000
1606132549.819,-6.836,-28.320,-35.645,90.820,0.000
1606132549.823,-331.543,-49.316,-50.781,-730.957,0.000
1606132549.827,-275.879,-48.828,-50.293,-687.988,0.000
1606132549.830,112.793,-19.043,-27.832,226.562,0.000
1606132549.834,306.641,-0.488,-19.043,756.348,0.000
1606132549.838,49.316,-21.484,-21.973,224.121,0.000
1606132549.842,-313.965,-54.199,-27.832,-643.066,0.000
1606132549.846,-314.941,-57.617,-38.086,-731.445,0.000
1606132549.850,62.012,-23.926,-26.367,137.207,0.000
1606132549.854,295.898,-10.742,-8.789,753.906,0.000
1606132549.858,88.867,-31.738,-20.996,334.473,0.000
1606132549.862,-283.203,-55.664,-37.109,-562.988,0.000
1606132549.866,-331.055,-57.617,-34.180,-765.137,0.000
1606132549.870,25.391,-35.645,-14.648,46.387,0.000
1606132549.873,296.875,-13.672,-0.977,742.676,0.000
1606132549.877,150.879,-14.648,-6.836,462.891,0.000
1606132549.881,-234.863,-41.504,-30.762,-450.684,0.000
1606132549.885,-349.121,-49.805,-38.574,-796.387,0.000
1606132549.889,-22.461,-26.367,-16.113,-73.730,0.000
1606132549.893,282.715,-9.766,-5.859,701.660,0.000
1606132549.897,182.129,-14.648,-15.625,548.340,0.000
1606132549.901,-199.707,-38.086,-40.527,-366.699,0.000
1606132549.905,-354.980,-52.246,-51.270,-823.242,0.000
1606132549.909,-75.684,-34.180,-32.227,-205.078,0.000
1606132549.912,256.836,-9.277,-10.742,630.859,0.000
1606132549.916,218.750,-19.043,-17.090,613.770,0.000
1606132549.920,-168.457,-46.875,-37.109,-295.410,0.000
1606132549.924,-360.840,-57.129,-40.527,-812.500,0.000
1606132549.928,-116.699,-39.551,-32.227,-284.180,0.000
1606132549.932,227.051,-16.602,-18.066,553.711,0.000
1606132549.936,242.188,-26.367,-20.020,666.504,0.000
1606132549.940,-120.605,-48.340,-43.945,-184.082,0.000
1606132549.944,-355.957,-56.152,-47.363,-820.312,0.000
1606132549.948,-163.086,-38.574,-31.738,-435.059,0.000
1606132549.952,210.938,-16.113,-21.973,465.820,0.000
1606132549.955,277.344,-17.090,-23.438,714.355,0.000
1606132549.959,-71.777,-36.133,-35.645,-74.707,0.000
1606132549.963,-334.473,-50.293,-40.039,-769.043,0.000
1606132549.967,-189.941,-35.645,-33.691,-500.000,0.000
1606132549.971,183.105,-7.324,-4.883,396.973,0.000
1606132549.975,305.176,-6.348,8.789,774.414,0.000
1606132549.979,-13.184,-32.715,-25.391,74.707,0.000
1606132549.983,-335.938,-57.617,-49.316,-730.469,0.000
1606132549.987,-257.324,-51.758,-40.527,-619.141,0.000
1606132549.991,130.859,-21.973,-19.043,292.969,0.000
1606132549.995,296.875,-8.789,-7.324,768.066,0.000
1606132549.998,20.020,-27.832,-21.484,179.688,0.000
1606132550.002,-324.219,-51.758,-43.945,-672.363,0.000
1606132550.006,-299.805,-48.828,-49.805,-698.730,0.000
1606132550.010,81.055,-13.672,-26.855,190.430,0.000
1606132550.014,295.898,0.977,-9.277,771.484,0.000
1606132550.018,69.824,-21.484,-26.367,296.875,0.000
1606132550.022,-293.457,-44.434,-50.781,-592.773,0.000
1606132550.026,-323.242,-46.875,-50.781,-744.629,0.000
1606132550.030,40.527,-22.461,-27.344,86.914,0.000
1606132550.034,296.875,-4.395,-14.160,743.652,0.000
1606132550.037,123.047,-16.602,-28.320,401.367,0.000
1606132550.041,-259.277,-42.480,-50.781,-505.371,0.000
1606132550.045,-348.633,-47.852,-52.734,-788.086,0.000
1606132550.049,-8.301,-23.438,-31.738,-28.320,0.000
1606132550.053,286.621,1.953,-12.207,718.262,0.000
1606132550.057,162.598,-9.277,-16.113,497.559,0.000
1606132550.061,-210.449,-48.828,-43.457,-403.320,0.000
1606132550.065,-343.262,-58.594,-55.176,-791.016,0.000
1606132550.069,-50.781,-29.297,-32.227,-143.066,0.000
1606132550.073,276.855,-9.277,-10.742,671.387,0.000
1606132550.077,209.961,-21.973,-6.836,584.473,0.000
1606132550.080,-180.176,-52.246,-28.320,-329.102,0.000
1606132550.084,-360.352,-57.129,-41.992,-832.520,0.000
1606132550.088,-98.633,-29.297,-26.855,-264.160,0.000
1606132550.092,239.258,-5.371,-13.184,588.379,0.000
1606132550.096,226.562,-18.555,-16.602,636.230,0.000
1606132550.100,-149.902,-53.223,-35.645,-233.398,0.000
1606132550.104,-378.418,-61.523,-43.945,-830.566,0.000
1606132550.108,-163.086,-45.898,-31.738,-389.160,0.000
1606132550.112,205.566,-21.973,-14.648,509.277,0.000
1606132550.116,253.418,-9.277,-8.789,703.613,0.000
1606132550.120,-94.727,-40.527,-27.832,-114.746,0.000
1606132550.123,-359.863,-59.570,-48.828,-808.594,0.000
1606132550.127,-198.730,-37.598,-41.504,-497.070,0.000
1606132550.131,185.059,-18.555,-16.113,427.246,0.000
1606132550.135,284.180,-14.160,-10.742,740.234,0.000
1606132550.139,-40.039,-21.973,-26.855,-6.348,0.000
1606132550.143,-337.891,-44.922,-41.016,-773.926,0.000
1606132550.147,-224.121,-42.480,-36.621,-584.961,0.000
1606132550.151,162.109,-10.742,-22.461,333.008,0.000
1606132550.155,306.152,1.465,-12.207,746.582,0.000
1606132550.159,14.648,-21.484,-28.320,114.746,0.000
1606132550.162,-316.895,-44.434,-52.734,-699.707,0.000
1606132550.166,-262.207,-40.527,-42.480,-658.203,0.000
1606132550.170,118.652,-19.531,-17.090,243.164,0.000
1606132550.174,300.781,-12.207,-13.672,760.254,0.000
1606132550.178,54.199,-18.555,-17.090,230.957,0.000
1606132550.182,-295.898,-41.504,-33.203,-630.859,0.000
1606132550.186,-307.129,-52.734,-41.504,-724.121,0.000
1606132550.190,64.453,-33.203,-20.996,140.625,0.000
1606132550.194,300.781,-14.160,-8.789,770.996,0.000
1606132550.198,95.215,-15.625,-19.531,357.910,0.000
1606132550.202,-276.855,-38.086,-27.344,-547.852,0.000
1606132550.205,-333.496,-44.922,-30.273,-765.137,0.000
1606132550.209,17.090,-23.926,-22.461,41.992,0.000
1606132550.213,291.992,-8.301,-2.930,749.023,0.000
1606132550.217,140.625,-14.160,-13.184,455.566,0.000
1606132550.221,-254.883,-37.109,-39.551,-478.516,0.000
1606132550.225,-367.676,-51.758,-38.086,-820.312,0.000
1606132550.229,-36.133,-31.250,-20.020,-99.121,0.000
1606132550.233,269.531,-9.277,-10.742,676.758,0.000
1606132550.237,162.109,-15.625,-21.973,528.320,0.000
1606132550.241,-222.168,-36.133,-32.227,-392.090,0.000
1606132550.245,-373.047,-46.387,-31.250,-849.609,0.000
1606132550.248,-87.891,-28.809,-22.949,-234.863,0.000
1606132550.252,254.395,-4.883,-7.812,608.398,0.000
1606132550.256,223.145,-5.859,-13.672,605.957,0.000
1606132550.260,-159.668,-34.180,-36.621,-292.480,0.000
1606132550.264,-364.258,-54.688,-44.434,-851.074,0.000
1606132550.268,-123.047,-36.621,-33.203,-342.773,0.000
1606132550.272,241.699,-5.859,-15.137,543.945,0.000
1606132550.276,258.789,-5.371,-14.648,667.480,0.000
1606132550.280,-117.188,-32.227,-37.109,-188.965,0.000
1606132550.284,-367.188,-52.246,-53.223,-831.055,0.000
1606132550.287,-174.805,-35.645,-38.086,-437.012,0.000
1606132550.291,203.613,-5.859,-8.301,478.516,0.000
1606132550.295,269.531,-13.184,-13.184,724.121,0.000
1606132550.299,-74.707,-37.109,-29.297,-53.223,0.000
1606132550.303,-358.398,-52.734,-40.039,-775.391,0.000
1606132550.307,-224.609,-44.922,-38.086,-527.832,0.000
1606132550.311,166.016,-18.066,-15.625,395.020,0.000
1606132550.315,282.227,-10.254,-12.695,758.301,0.000
1606132550.319,-31.738,-30.273,-19.043,65.430,0.000
1606132550.323,-340.332,-46.875,-27.832,-720.215,0.000
1606132550.327,-265.625,-41.504,-29.297,-619.629,0.000
1606132550.330,109.375,-15.625,-7.812,280.762,0.000
1606132550.334,276.367,-6.836,-5.859,761.230,0.000
1606132550.338,6.836,-28.809,-24.902,180.664,0.000
1606132550.342,-332.031,-49.805,-42.480,-667.480,0.000
1606132550.346,-303.711,-43.945,-41.992,-698.730,0.000
1606132550.350,80.078,-16.602,-16.602,187.500,0.000
1606132550.354,297.363,-11.719,-10.254,759.766,0.000
1606132550.358,77.637,-29.297,-26.367,287.598,0.000
1606132550.362,-285.645,-49.805,-39.551,-601.562,0.000
1606132550.366,-315.918,-48.340,-42.480,-768.555,0.000
1606132550.370,57.617,-16.602,-20.508,74.707,0.000
1606132550.373,303.223,2.930,-4.883,740.234,0.000
1606132550.377,116.211,-17.090,-22.461,377.441,0.000
1606132550.381,-256.836,-45.898,-48.340,-531.250,0.000
1606132550.385,-344.727,-47.852,-44.434,-810.059,0.000
1606132550.389,-6.836,-24.414,-22.949,-48.828,0.000
1606132550.393,285.645,-5.859,-10.254,700.195,0.000
1606132550.397,161.621,-15.137,-17.578,498.047,0.000
1606132550.401,-227.539,-44.434,-41.016,-423.340,0.000
1606132550.405,-365.234,-60.059,-41.992,-833.008,0.000
1606132550.409,-64.453,-41.016,-34.180,-167.480,0.000
1606132550.412,261.230,-17.090,-17.578,648.926,0.000
1606132550.416,202.637,-20.996,-12.207,575.684,0.000
1606132550.420,-183.594,-43.945,-41.992,-335.449,0.000
1606132550.424,-364.746,-53.223,-48.340,-839.355,0.000
1606132550.428,-100.586,-35.645,-26.855,-280.762,0.000
1606132550.432,238.281,-14.648,-17.090,574.707,0.000
1606132550.436,225.098,-15.137,-23.926,627.441,0.000
1606132550.440,-148.926,-35.156,-40.039,-243.652,0.000
1606132550.444,-377.441,-51.270,-45.410,-835.449,0.000
1606132550.448,-167.969,-38.086,-30.273,-398.926,0.000
1606132550.452,193.848,-24.414,-11.230,485.352,0.000
1606132550.455,242.676,-21.973,-8.789,673.340,0.000
1606132550.459,-109.863,-30.762,-21.973,-135.742,0.000
1606132550.463,-374.023,-53.711,-31.250,-813.477,0.000
1606132550.467,-210.938,-42.480,-33.203,-497.070,0.000
1606132550.471,174.316,-11.230,-10.254,425.781,0.000
1606132550.475,278.320,-4.395,0.488,748.535,0.000
1606132550.479,-61.523,-35.156,-25.879,6.348,0.000
1606132550.483,-363.770,-57.129,-42.969,-763.672,0.000
1606132550.487,-254.883,-45.410,-30.273,-581.055,0.000
1606132550.491,131.348,-17.090,-9.766,344.727,0.000
1606132550.495,281.738,-1.465,-4.883,769.043,0.000
1606132550.498,-7.324,-10.254,-13.672,128.906,0.000
1606132550.502,-333.984,-39.551,-42.480,-698.242,0.000
1606132550.506,-278.320,-49.805,-46.875,-666.504,0.000
1606132550.510,114.746,-23.438,-18.555,237.793,0.000
1606132550.514,312.012,-14.160,-15.625,770.508,0.000
1606132550.518,67.383,-29.297,-23.926,248.535,0.000
1606132550.522,-279.785,-54.199,-28.809,-612.793,0.000
1606132550.526,-282.715,-57.617,-31.738,-708.984,0.000
1606132550.530,85.938,-32.227,-18.555,144.043,0.000
1606132550.534,320.801,-18.555,-7.324,760.742,0.000
1606132550.537,120.605,-29.297,-21.973,350.098,0.000
1606132550.541,-253.906,-44.922,-44.922,-554.688,0.000
1606132550.545,-317.383,-46.875,-46.387,-778.320,0.000
1606132550.549,37.109,-21.484,-25.391,23.438,0.000
1606132550.553,309.570,3.418,-4.883,730.469,0.000
1606132550.557,150.879,-13.184,-17.090,440.918,0.000
1606132550.561,-236.328,-50.293,-50.781,-482.422,0.000
1606132550.565,-345.215,-51.270,-52.246,-825.195,0.000
1606132550.569,-27.344,-27.832,-24.902,-107.910,0.000
1606132550.573,277.344,-8.301,-6.348,677.734,0.000
1606132550.577,184.082,-12.695,-14.648,529.785,0.000
1606132550.580,-204.590,-42.969,-41.992,-390.625,0.000
1606132550.584,-359.375,-47.852,-52.734,-844.238,0.000
1606132550.588,-78.613,-24.902,-32.227,-232.910,0.000
1606132550.592,247.070,-8.301,-12.695,604.492,0.000
1606132550.596,211.426,-10.742,-13.672,595.703,0.000
1606132550.600,-157.715,-20.996,-25.879,-286.621,0.000
1606132550.604,-366.211,-37.109,-44.922,-839.844,0.000
1606132550.608,-133.789,-30.273,-36.621,-344.727,0.000
1606132550.612,224.609,-9.277,-19.043,538.574,0.000
1606132550.616,246.094,-9.766,-20.020,672.363,0.000
1606132550.620,-116.211,-37.109,-42.480,-170.898,0.000
1606132550.623,-367.188,-60.059,-59.082,-818.848,0.000
1606132550.627,-180.664,-43.945,-41.992,-441.895,0.000
1606132550.631,200.684,-15.625,-17.578,465.820,0.000
1606132550.635,271.973,-5.371,-14.160,710.938,0.000
1606132550.639,-67.383,-14.648,-33.691,-68.848,0.000
1606132550.643,-342.285,-41.504,-37.109,-791.016,0.000
1606132550.647,-205.078,-36.133,-26.367,-544.922,0.000
1606132550.651,176.758,-6.836,-20.996,373.535,0.000
1606132550.655,297.363,-1.465,-11.719,746.094,0.000
1606132550.659,-14.160,-25.879,-28.809,53.711,0.000
1606132550.662,-327.148,-42.480,-42.969,-737.793,0.000
1606132550.666,-251.953,-38.086,-35.645,-627.441,0.000
1606132550.670,132.812,-17.090,-18.555,278.320,0.000
1606132550.674,309.570,-4.395,-5.859,761.719,0.000
1606132550.678,39.062,-10.742,-19.043,186.523,0.000
1606132550.682,-303.223,-29.785,-35.156,-656.738,0.000
1606132550.686,-281.738,-42.480,-34.668,-687.988,0.000
1606132550.690,95.703,-21.484,-21.484,185.059,0.000
1606132550.694,300.781,-6.348,-16.113,758.789,0.000
1606132550.698,76.172,-20.508,-22.461,295.898,0.000
1606132550.702,-287.109,-48.828,-36.133,-592.773,0.000
1606132550.705,-324.219,-51.270,-33.691,-750.488,0.000
1606132550.709,38.086,-25.391,-11.719,87.891,0.000
1606132550.713,291.016,-10.742,-7.324,750.977,0.000
1606132550.717,124.512,-16.113,-8.301,411.621,0.000
1606132550.721,-249.023,-39.062,-23.438,-492.188,0.000
1606132550.725,-336.426,-46.387,-28.320,-783.691,0.000
1606132550.729,2.441,-28.320,-6.836,-36.621,0.000
1606132550.733,288.574,-5.859,-3.418,707.520,0.000
1606132550.737,171.875,0.000,-20.508,501.465,0.000
1606132550.741,-208.496,-30.273,-49.316,-417.480,0.000
1606132550.745,-351.074,-57.129,-55.664,-832.520,0.000
1606132550.748,-52.246,-36.133,-36.621,-172.363,0.000
1606132550.752,270.996,-12.695,-21.973,640.137,0.000
1606132550.756,206.055,-18.066,-24.902,562.988,0.000
1606132550.760,-180.176,-40.039,-39.551,-340.820,0.000
1606132550.764,-361.816,-46.875,-42.969,-844.238,0.000
1606132550.768,-100.586,-26.367,-31.250,-284.180,0.000
1606132550.772,242.188,-5.859,-18.066,580.078,0.000
1606132550.776,232.422,-5.859,-21.484,642.090,0.000
1606132550.780,-136.230,-29.297,-41.992,-228.516,0.000
1606132550.784,-358.887,-48.828,-45.410,-831.055,0.000
1606132550.787,-154.297,-43.457,-25.391,-391.113,0.000
1606132550.791,217.773,-14.648,-11.230,515.625,0.000
1606132550.795,271.484,-1.465,-12.207,707.520,0.000
1606132550.799,-90.820,-28.809,-29.297,-116.699,0.000
1606132550.803,-361.328,-51.270,-44.922,-812.988,0.000
1606132550.807,-201.660,-44.922,-29.297,-498.047,0.000
1606132550.811,175.293,-19.531,-8.789,425.781,0.000
1606132550.815,270.020,-12.207,-7.812,746.094,0.000
1606132550.819,-57.129,-37.598,-26.367,13.672,0.000
1606132550.823,-352.539,-59.570,-40.039,-751.953,0.000
1606132550.827,-238.770,-58.105,-30.273,-575.195,0.000
1606132550.830,144.531,-33.691,-13.672,337.891,0.000
1606132550.834,292.969,-14.160,0.000,769.531,0.000
1606132550.838,2.930,-38.574,-18.555,129.395,0.000
1606132550.842,-330.566,-61.523,-41.016,-700.684,0.000
1606132550.846,-283.691,-51.758,-33.691,-660.645,0.000
1606132550.850,97.168,-27.832,-23.926,239.746,0.000
1606132550.854,291.992,-14.648,-16.113,771.973,0.000
1606132550.858,41.992,-37.598,-26.367,242.188,0.000
1606132550.862,-308.105,-55.176,-42.969,-627.441,0.000
1606132550.866,-302.246,-44.922,-28.320,-716.797,0.000
1606132550.870,67.871,-23.438,-17.578,143.066,0.000
1606132550.873,298.340,-5.859,-19.043,764.648,0.000
1606132550.877,105.957,-11.230,-26.855,368.652,0.000
1606132550.881,-264.648,-38.086,-50.781,-531.250,0.000
1606132550.885,-331.055,-49.316,-46.875,-756.836,0.000
1606132550.889,17.090,-28.320,-19.531,43.457,0.000
1606132550.893,293.945,-11.719,-3.906,747.070,0.000
1606132550.897,149.414,-16.602,-13.672,471.680,0.000
1606132550.901,-240.234,-42.969,-37.109,-458.008,0.000
1606132550.905,-337.891,-50.781,-44.434,-775.391,0.000
1606132550.909,-6.348,-19.043,-25.391,-40.039,0.000
1606132550.912,285.156,-0.488,-11.230,709.473,0.000
1606132550.916,195.312,-4.883,-21.484,565.430,0.000
1606132550.920,-189.941,-29.297,-35.645,-349.121,0.000
1606132550.924,-346.680,-52.734,-43.457,-803.223,0.000
1606132550.928,-59.082,-27.344,-38.574,-198.242,0.000
1606132550.932,267.578,-0.488,-34.668,618.164,0.000
1606132550.936,220.703,-4.395,-38.086,594.727,0.000
1606132550.940,-159.180,-31.738,-53.711,-298.340,0.000
1606132550.944,-365.234,-50.781,-61.523,-854.492,0.000
1606132550.948,-133.301,-33.691,-48.828,-352.051,0.000
1606132550.952,222.656,-12.207,-27.832,534.180,0.000
1606132550.955,247.559,-4.883,-17.578,670.410,0.000
1606132550.959,-111.328,-22.949,-37.598,-160.156,0.000
1606132550.963,-354.004,-49.805,-56.152,-816.406,0.000
1606132550.967,-159.180,-25.879,-44.434,-448.730,0.000
1606132550.971,216.797,-6.836,-25.879,459.961,0.000
1606132550.975,293.457,-14.648,-23.438,716.309,0.000
1606132550.979,-39.062,-26.367,-31.738,-43.457,0.000
1606132550.983,-323.730,-47.852,-38.574,-772.949,0.000
1606132550.987,-192.871,-41.016,-32.715,-531.738,0.000
1606132550.991,187.988,-16.602,-21.484,392.090,0.000
1606132550.995,303.223,-7.324,-13.672,760.254,0.000
1606132550.998,-8.301,-24.414,-29.785,78.125,0.000
1606132551.002,-325.684,-46.387,-47.363,-711.426,0.000
1606132551.006,-252.441,-44.922,-42.969,-612.793,0.000
1606132551.010,131.836,-17.090,-26.367,294.434,0.000
1606132551.014,299.805,-3.906,-15.137,778.320,0.000
1606132551.018,25.879,-18.066,-20.020,189.453,0.000
1606132551.022,-303.223,-39.551,-41.992,-640.625,0.000
1606132551.026,-275.879,-41.016,-36.133,-664.062,0.000
1606132551.030,89.355,-20.020,-14.160,188.965,0.000
1606132551.034,306.152,-10.254,-11.230,765.137,0.000
1606132551.037,90.332,-22.949,-20.996,303.223,0.000
1606132551.041,-267.090,-44.434,-42.480,-583.984,0.000
1606132551.045,-302.734,-42.969,-50.781,-749.023,0.000
1606132551.049,61.035,-15.625,-29.297,84.961,0.000
1606132551.053,321.289,-2.441,-14.648,757.812,0.000
1606132551.057,151.367,-1.465,-27.344,419.434,0.000
1606132551.061,-228.027,-17.578,-43.457,-494.629,0.000
1606132551.065,-319.336,-36.621,-47.363,-788.574,0.000
1606132551.069,12.207,-17.578,-29.785,-32.715,0.000
1606132551.073,298.828,0.488,-14.648,707.520,0.000
1606132551.077,182.617,-11.719,-25.879,493.652,0.000
