timestamps,TP9,AF7,AF8,TP10,Right AUX
1606135707.968,-0.488,0.000,0.000,-0.488,0.000
1606135707.972,-0.488,-0.488,0.000,-0.488,0.000
1606135707.976,3.906,-0.488,-0.977,15.137,0.000
1606135707.980,-11.719,0.488,0.977,-39.551,0.000
1606135707.983,49.805,-7.324,-8.789,167.969,0.000
1606135707.987,100.586,-17.578,-26.367,394.531,0.000
1606135707.991,-11.719,-26.367,-30.762,6.348,0.000
1606135707.995,-106.445,-32.227,-36.133,-414.062,0.000
1606135707.999,-82.520,-30.273,-28.320,-308.105,0.000
1606135708.003,43.945,-28.809,-12.695,194.824,0.000
1606135708.007,96.680,-31.250,-11.230,412.598,0.000
1606135708.011,-6.836,-36.133,-20.020,61.523,0.000
1606135708.015,-128.418,-35.156,-31.250,-390.625,0.000
1606135708.019,-103.516,-33.691,-31.250,-375.977,0.000
1606135708.023,24.414,-23.438,-19.043,107.422,0.000
1606135708.026,83.496,-19.043,-19.531,395.020,0.000
1606135708.030,0.488,-26.367,-30.273,116.211,0.000
1606135708.034,-128.418,-24.414,-35.645,-353.027,0.000
1606135708.038,-130.859,-24.414,-34.668,-387.695,0.000
1606135708.042,1.953,-28.320,-23.438,68.359,0.000
1606135708.046,79.102,-27.344,-25.879,388.184,0.000
1606135708.050,10.254,-25.391,-28.809,170.898,0.000
1606135708.054,-116.211,-34.668,-25.391,-310.059,0.000
1606135708.058,-144.043,-44.922,-31.250,-441.895,0.000
1606135708.062,-24.902,-36.133,-27.344,-33.691,0.000
1606135708.065,75.684,-22.949,-18.066,356.934,0.000
1606135708.069,24.902,-21.973,-20.996,220.703,0.000
1606135708.073,-110.840,-33.203,-27.344,-277.344,0.000
1606135708.077,-147.461,-40.527,-31.738,-465.820,0.000
1606135708.081,-40.527,-32.227,-28.320,-93.750,0.000
1606135708.085,77.637,1.953,-33.203,340.820,0.000
1606135708.089,38.086,6.348,-43.457,268.066,0.000
1606135708.093,-104.492,-26.855,-35.645,-232.422,0.000
1606135708.097,-153.809,-48.340,-32.715,-473.145,0.000
1606135708.101,-51.758,-43.457,-39.062,-146.484,0.000
1606135708.105,73.730,-28.320,-38.574,304.199,0.000
1606135708.108,52.734,-33.691,-37.109,298.340,0.000
1606135708.112,-81.543,-41.016,-34.180,-171.875,0.000
1606135708.116,-145.508,-39.551,-37.598,-465.820,0.000
1606135708.120,-61.523,-32.227,-39.062,-213.379,0.000
1606135708.124,62.500,-18.066,-18.066,267.578,0.000
1606135708.128,69.824,-21.484,-9.766,361.328,0.000
1606135708.132,-51.270,-28.320,-25.391,-76.660,0.000
1606135708.136,-142.578,-28.809,-34.180,-450.684,0.000
1606135708.140,-84.473,-37.598,-33.203,-272.461,0.000
1606135708.144,52.734,-31.250,-23.438,229.004,0.000
1606135708.148,75.684,-21.484,-17.090,379.395,0.000
1606135708.151,-51.270,-20.020,-27.344,-24.902,0.000
1606135708.155,-155.273,-23.926,-32.227,-431.641,0.000
1606135708.159,-111.328,-25.879,-25.391,-323.242,0.000
1606135708.163,32.227,-20.996,-22.949,168.945,0.000
1606135708.167,82.031,-18.555,-23.926,382.812,0.000
1606135708.171,-19.531,-26.855,-23.438,35.156,0.000
1606135708.175,-123.047,-28.320,-29.297,-401.367,0.000
1606135708.179,-95.703,-33.691,-24.902,-349.609,0.000
1606135708.183,40.527,-16.113,-18.066,139.648,0.000
1606135708.187,106.445,4.395,-20.508,412.598,0.000
1606135708.190,9.277,-21.484,-25.391,125.977,0.000
1606135708.194,-122.070,-35.645,-24.414,-349.609,0.000
1606135708.198,-129.395,-31.250,-26.855,-405.273,0.000
1606135708.202,0.000,-36.133,-36.621,42.969,0.000
1606135708.206,85.449,-37.598,-37.109,388.672,0.000
1606135708.210,11.719,-28.320,-33.691,147.949,0.000
1606135708.214,-116.699,-29.785,-31.250,-347.656,0.000
1606135708.218,-122.559,-34.668,-23.926,-426.270,0.000
1606135708.222,0.000,-30.273,-18.066,-8.789,0.000
1606135708.226,84.961,-28.809,-27.344,376.953,0.000
1606135708.230,31.738,-37.598,-31.738,227.539,0.000
1606135708.233,-93.750,-32.227,-31.738,-273.438,0.000
1606135708.237,-139.160,-26.855,-32.227,-457.031,0.000
1606135708.241,-34.668,-30.762,-23.926,-73.242,0.000
1606135708.245,84.961,-27.832,-25.391,354.980,0.000
1606135708.249,52.246,-27.832,-31.250,287.109,0.000
1606135708.253,-87.891,-34.668,-28.809,-206.055,0.000
1606135708.257,-134.277,-31.250,-20.020,-451.172,0.000
1606135708.261,-41.016,-26.855,-20.020,-135.254,0.000
1606135708.265,76.172,-27.344,-21.484,313.477,0.000
1606135708.269,68.848,-29.297,-21.484,322.754,0.000
1606135708.273,-66.895,-34.668,-38.086,-144.531,0.000
1606135708.276,-140.625,-37.598,-50.293,-459.961,0.000
1606135708.280,-57.617,-39.062,-36.133,-217.773,0.000
1606135708.284,65.918,-26.855,-31.250,263.184,0.000
1606135708.288,71.289,-20.020,-31.250,346.680,0.000
1606135708.292,-45.410,-32.227,-35.156,-98.633,0.000
1606135708.296,-134.766,-32.715,-42.969,-459.473,0.000
1606135708.300,-76.172,-19.531,-30.273,-267.578,0.000
1606135708.304,64.941,-12.695,-20.996,229.492,0.000
1606135708.308,84.473,-16.602,-24.414,375.488,0.000
1606135708.312,-36.133,-21.973,-28.320,-22.949,0.000
1606135708.315,-124.512,-26.367,-40.039,-422.363,0.000
1606135708.319,-82.031,-29.297,-39.551,-311.035,0.000
1606135708.323,47.363,-23.926,-24.902,182.617,0.000
1606135708.327,101.562,-18.066,-13.672,396.973,0.000
1606135708.331,3.418,-25.391,-25.879,55.176,0.000
1606135708.335,-114.258,-23.438,-39.062,-389.160,0.000
1606135708.339,-117.188,-30.762,-31.738,-364.258,0.000
1606135708.343,14.160,-28.320,-22.949,121.582,0.000
1606135708.347,89.355,-18.066,-21.973,395.508,0.000
1606135708.351,2.441,-22.461,-23.438,111.328,0.000
1606135708.355,-116.699,-32.715,-22.461,-356.934,0.000
1606135708.358,-102.051,-33.691,-29.297,-390.137,0.000
1606135708.362,28.809,-24.902,-26.855,75.195,0.000
1606135708.366,105.957,-20.996,-15.137,415.527,0.000
1606135708.370,25.391,-32.715,-23.438,193.359,0.000
1606135708.374,-101.562,-39.062,-40.039,-315.430,0.000
1606135708.378,-112.305,-35.156,-43.457,-431.641,0.000
1606135708.382,-9.277,-25.879,-33.203,-0.977,0.000
1606135708.386,90.332,-5.859,-24.902,385.742,0.000
1606135708.390,48.340,-15.137,-23.438,235.352,0.000
1606135708.394,-83.496,-43.457,-36.133,-271.973,0.000
1606135708.398,-121.094,-46.387,-36.621,-448.730,0.000
1606135708.401,-15.625,-36.621,-27.344,-65.918,0.000
1606135708.405,86.426,-23.926,-22.949,356.445,0.000
1606135708.409,49.316,-22.461,-24.902,288.086,0.000
1606135708.413,-79.102,-24.902,-38.086,-195.801,0.000
1606135708.417,-133.301,-26.855,-38.086,-451.172,0.000
1606135708.421,-35.645,-20.996,-29.785,-125.000,0.000
1606135708.425,82.520,-2.930,-33.203,330.566,0.000
1606135708.429,62.500,-8.789,-31.738,314.941,0.000
1606135708.433,-66.406,-23.926,-30.762,-161.621,0.000
1606135708.437,-130.371,-29.785,-36.621,-459.961,0.000
1606135708.440,-41.992,-35.156,-33.691,-199.707,0.000
1606135708.444,74.707,-26.367,-22.949,279.297,0.000
1606135708.448,65.430,-16.602,-27.832,355.957,0.000
1606135708.452,-53.223,-27.832,-41.504,-82.520,0.000
1606135708.456,-135.254,-30.273,-38.574,-438.477,0.000
1606135708.460,-74.707,-28.320,-20.508,-247.559,0.000
1606135708.464,55.176,-0.977,-13.184,242.188,0.000
1606135708.468,75.195,9.277,-17.578,373.535,0.000
1606135708.472,-44.922,-29.297,-23.926,-33.203,0.000
1606135708.476,-146.484,-47.363,-33.691,-437.500,0.000
1606135708.480,-89.355,-46.387,-32.227,-322.266,0.000
1606135708.483,60.547,-26.855,-18.066,183.105,0.000
1606135708.487,81.055,-20.020,-18.066,376.953,0.000
1606135708.491,-26.367,-31.738,-26.367,17.090,0.000
1606135708.495,-132.812,-35.156,-34.180,-413.086,0.000
1606135708.499,-107.422,-31.250,-38.086,-376.953,0.000
1606135708.503,26.855,-20.996,-35.156,116.699,0.000
1606135708.507,83.496,-20.020,-30.273,398.926,0.000
1606135708.511,-12.207,-37.598,-32.227,103.027,0.000
1606135708.515,-125.000,-39.062,-41.016,-363.281,0.000
1606135708.519,-118.652,-33.203,-46.875,-403.809,0.000
1606135708.523,-11.719,-25.391,-44.922,47.852,0.000
1606135708.526,66.406,-17.578,-37.109,382.324,0.000
1606135708.530,8.789,-26.855,-28.809,162.598,0.000
1606135708.534,-116.699,-45.410,-27.344,-324.219,0.000
1606135708.538,-126.953,-41.992,-32.715,-420.410,0.000
1606135708.542,-11.719,-33.203,-30.273,13.672,0.000
1606135708.546,85.449,-36.133,-23.438,411.621,0.000
1606135708.550,55.176,-25.391,-25.879,269.043,0.000
1606135708.554,-77.148,-19.531,-35.156,-244.629,0.000
1606135708.558,-148.438,-33.691,-47.363,-445.312,0.000
1606135708.562,-54.199,-20.020,-46.387,-90.820,0.000
1606135708.565,72.754,29.785,-44.434,326.172,0.000
1606135708.569,47.852,18.555,-39.551,271.973,0.000
1606135708.573,-85.938,-18.066,-40.527,-228.027,0.000
1606135708.577,-136.230,-38.086,-50.781,-479.492,0.000
1606135708.581,-41.992,-34.668,-41.504,-146.973,0.000
1606135708.585,66.895,-23.438,-32.227,306.152,0.000
1606135708.589,61.523,-22.949,-38.086,305.176,0.000
1606135708.593,-55.664,-30.273,-48.828,-165.527,0.000
1606135708.597,-123.535,-43.457,-42.969,-456.055,0.000
1606135708.601,-41.504,-32.227,-26.367,-183.105,0.000
1606135708.605,80.078,-1.953,-23.926,282.715,0.000
1606135708.608,68.848,-10.254,-31.738,343.750,0.000
1606135708.612,-67.383,-37.109,-38.086,-110.840,0.000
1606135708.616,-143.066,-41.992,-36.133,-468.262,0.000
1606135708.620,-64.453,-44.434,-36.621,-264.160,0.000
1606135708.624,64.941,-39.551,-47.363,224.609,0.000
1606135708.628,74.707,-28.809,-43.457,364.746,0.000
1606135708.632,-38.086,-28.809,-32.227,-23.926,0.000
1606135708.636,-134.277,-34.180,-30.273,-417.480,0.000
1606135708.640,-89.355,-20.996,-25.391,-301.270,0.000
1606135708.644,47.363,1.953,-13.672,195.801,0.000
1606135708.648,83.008,-9.277,-18.066,402.344,0.000
1606135708.651,-22.461,-37.109,-29.297,40.039,0.000
1606135708.655,-126.953,-41.016,-35.156,-399.902,0.000
1606135708.659,-109.375,-43.945,-31.250,-349.609,0.000
1606135708.663,20.508,-11.719,-28.809,141.113,0.000
1606135708.667,89.844,10.254,-31.738,408.691,0.000
1606135708.671,0.977,-26.855,-23.926,114.258,0.000
1606135708.675,-119.629,-37.109,-32.227,-354.492,0.000
1606135708.679,-107.422,-27.832,-41.992,-394.531,0.000
1606135708.683,29.785,-20.996,-30.762,72.266,0.000
1606135708.687,117.188,-16.113,-20.996,414.551,0.000
1606135708.690,51.758,-17.578,-25.879,184.570,0.000
1606135708.694,-76.660,-23.926,-42.480,-317.383,0.000
1606135708.698,-103.516,-32.715,-41.504,-427.734,0.000
1606135708.702,4.883,-7.324,-31.250,-3.418,0.000
1606135708.706,114.258,12.695,-34.180,374.023,0.000
1606135708.710,61.035,-17.090,-31.738,221.191,0.000
1606135708.714,-88.379,-29.297,-28.809,-281.738,0.000
1606135708.718,-122.070,-32.715,-32.715,-452.148,0.000
1606135708.722,-3.418,-32.715,-30.762,-62.500,0.000
1606135708.726,107.422,-22.461,-33.691,353.027,0.000
1606135708.730,64.941,-28.809,-34.668,259.277,0.000
1606135708.733,-78.613,-42.969,-31.738,-235.352,0.000
1606135708.737,-139.160,-46.387,-29.297,-455.566,0.000
1606135708.741,-40.527,-32.715,-26.367,-114.258,0.000
1606135708.745,67.871,3.906,-28.809,330.566,0.000
1606135708.749,47.852,-4.883,-28.320,310.547,0.000
1606135708.753,-88.379,-51.758,-32.715,-175.293,0.000
1606135708.757,-141.602,-54.688,-35.156,-462.402,0.000
1606135708.761,-40.527,-41.992,-26.367,-189.941,0.000
1606135708.765,60.059,-29.785,-17.090,288.574,0.000
1606135708.769,48.340,-35.645,-22.461,346.191,0.000
1606135708.773,-65.918,-41.504,-38.574,-105.469,0.000
1606135708.776,-140.137,-44.434,-40.527,-447.754,0.000
1606135708.780,-81.543,-49.316,-32.227,-257.324,0.000
1606135708.784,50.781,-32.715,-26.367,234.863,0.000
1606135708.788,79.590,-23.438,-27.344,374.512,0.000
1606135708.792,-43.457,-40.527,-33.691,-39.551,0.000
1606135708.796,-148.438,-47.363,-46.387,-442.871,0.000
1606135708.800,-116.699,-43.457,-42.969,-325.684,0.000
1606135708.804,19.043,-24.902,-27.344,187.988,0.000
1606135708.808,75.684,-15.137,-29.785,387.207,0.000
1606135708.812,-26.367,-30.762,-41.016,9.766,0.000
1606135708.815,-141.113,-42.480,-43.457,-416.016,0.000
1606135708.819,-111.328,-42.480,-45.410,-356.934,0.000
1606135708.823,30.762,-33.691,-35.645,136.230,0.000
1606135708.827,85.938,-26.367,-20.020,390.137,0.000
1606135708.831,-1.465,-24.902,-20.996,92.285,0.000
1606135708.835,-114.258,-27.344,-33.691,-363.770,0.000
1606135708.839,-119.141,-35.645,-31.738,-397.949,0.000
1606135708.843,13.672,-21.973,-20.508,72.266,0.000
1606135708.847,88.867,-7.812,-26.855,394.531,0.000
1606135708.851,8.789,-29.297,-32.227,163.086,0.000
1606135708.855,-116.211,-43.945,-32.715,-309.570,0.000
1606135708.858,-120.605,-36.621,-29.785,-414.551,0.000
1606135708.862,1.953,-19.531,-21.484,23.438,0.000
1606135708.866,101.074,-18.555,-16.113,415.039,0.000
1606135708.870,63.477,-28.320,-20.996,244.629,0.000
1606135708.874,-98.145,-32.227,-25.879,-277.832,0.000
1606135708.878,-146.973,-34.668,-23.438,-448.242,0.000
1606135708.882,-26.855,-17.578,-20.020,-48.340,0.000
1606135708.886,72.266,-13.184,-19.531,351.562,0.000
1606135708.890,43.945,-32.227,-18.066,269.043,0.000
1606135708.894,-83.008,-30.762,-24.414,-219.727,0.000
1606135708.898,-130.371,-30.762,-33.691,-456.543,0.000
1606135708.901,-39.551,-21.973,-30.273,-120.117,0.000
1606135708.905,75.684,-9.766,-15.137,328.125,0.000
1606135708.909,60.059,-20.508,-13.184,311.035,0.000
1606135708.913,-75.195,-33.203,-28.320,-169.434,0.000
1606135708.917,-128.906,-34.180,-29.785,-452.148,0.000
1606135708.921,-52.734,-24.414,-25.391,-180.664,0.000
1606135708.925,66.406,-16.113,-25.391,291.504,0.000
1606135708.929,80.078,-23.438,-25.391,354.492,0.000
1606135708.933,-47.852,-42.969,-27.344,-101.074,0.000
1606135708.937,-133.301,-43.457,-26.367,-445.312,0.000
1606135708.940,-60.547,-18.555,-16.113,-246.094,0.000
1606135708.944,59.082,16.113,-15.137,243.652,0.000
1606135708.948,67.871,10.742,-23.926,378.418,0.000
1606135708.952,-40.039,-22.461,-36.133,-35.156,0.000
1606135708.956,-128.906,-29.297,-40.527,-437.012,0.000
1606135708.960,-87.891,-34.180,-22.949,-312.012,0.000
1606135708.964,47.363,-27.344,-7.812,187.500,0.000
1606135708.968,81.543,-29.785,-10.254,377.930,0.000
1606135708.972,-30.762,-40.039,-18.555,26.855,0.000
1606135708.976,-134.277,-37.598,-29.297,-390.625,0.000
1606135708.980,-106.445,-43.945,-28.320,-348.145,0.000
1606135708.983,28.809,-20.508,-20.020,142.578,0.000
1606135708.987,72.266,-9.277,-18.555,387.695,0.000
1606135708.991,-24.414,-30.762,-24.902,81.543,0.000
1606135708.995,-139.160,-48.340,-27.832,-371.582,0.000
1606135708.999,-129.883,-48.828,-24.414,-394.043,0.000
1606135709.003,-2.441,-41.504,-27.832,72.266,0.000
1606135709.007,64.453,-42.480,-23.926,379.883,0.000
1606135709.011,-14.648,-40.527,-17.090,145.020,0.000
1606135709.015,-146.484,-45.410,-32.227,-330.566,0.000
1606135709.019,-155.762,-49.805,-31.738,-424.316,0.000
1606135709.023,-31.738,-33.203,-16.602,15.137,0.000
1606135709.026,75.684,-18.555,-20.996,384.766,0.000
1606135709.030,12.207,-34.668,-27.832,204.590,0.000
1606135709.034,-133.301,-44.922,-29.297,-301.270,0.000
1606135709.038,-144.043,-37.598,-35.645,-457.520,0.000
1606135709.042,-17.578,-31.250,-32.715,-68.848,0.000
1606135709.046,83.496,-26.855,-19.531,335.938,0.000
1606135709.050,45.410,-29.785,-23.438,243.164,0.000
1606135709.054,-76.172,-37.109,-42.480,-243.164,0.000
1606135709.058,-117.188,-29.785,-45.410,-456.055,0.000
1606135709.062,-10.742,-20.020,-34.668,-119.629,0.000
1606135709.065,92.773,-23.438,-18.066,328.125,0.000
1606135709.069,65.430,-31.250,-18.066,304.688,0.000
1606135709.073,-64.453,-33.203,-31.250,-183.105,0.000
1606135709.077,-138.184,-40.039,-39.062,-460.449,0.000
1606135709.081,-51.270,-29.297,-31.738,-186.523,0.000
1606135709.085,80.566,-0.488,-12.207,288.574,0.000
1606135709.089,92.285,-0.977,-12.695,359.375,0.000
1606135709.093,-31.738,-20.996,-22.949,-91.797,0.000
1606135709.097,-120.605,-35.156,-34.668,-441.895,0.000
1606135709.101,-57.129,-29.297,-30.762,-229.980,0.000
1606135709.105,68.359,-16.602,-13.184,252.441,0.000
1606135709.108,70.312,-16.113,-10.254,363.281,0.000
1606135709.112,-57.617,-26.855,-21.484,-55.664,0.000
1606135709.116,-137.695,-28.320,-39.551,-434.570,0.000
1606135709.120,-86.914,-33.691,-35.645,-294.434,0.000
1606135709.124,33.203,-9.766,-16.602,183.105,0.000
1606135709.128,58.594,-0.488,-17.090,364.258,0.000
1606135709.132,-57.129,-38.574,-19.531,6.348,0.000
1606135709.136,-161.621,-46.875,-20.996,-420.898,0.000
1606135709.140,-125.000,-46.387,-24.902,-366.699,0.000
1606135709.144,3.906,-41.016,-20.020,122.559,0.000
1606135709.148,56.152,-32.227,-6.348,379.883,0.000
1606135709.151,-37.109,-39.062,-7.324,72.754,0.000
1606135709.155,-152.832,-43.457,-13.184,-378.418,0.000
1606135709.159,-128.906,-47.852,-9.277,-386.719,0.000
1606135709.163,-3.418,-29.297,-12.695,73.730,0.000
1606135709.167,65.430,-19.531,-20.020,377.930,0.000
1606135709.171,-0.488,-48.340,-27.344,138.672,0.000
1606135709.175,-128.418,-60.059,-29.297,-343.262,0.000
1606135709.179,-136.719,-45.410,-29.297,-435.547,0.000
1606135709.183,-21.484,-36.133,-37.598,1.465,0.000
1606135709.187,72.754,-43.457,-40.039,365.234,0.000
1606135709.190,24.414,-48.828,-29.785,188.477,0.000
1606135709.194,-134.277,-53.711,-22.461,-291.504,0.000
1606135709.198,-157.227,-51.758,-22.461,-432.617,0.000
1606135709.202,-33.691,-45.898,-10.254,-29.297,0.000
1606135709.206,58.105,-41.016,-10.254,375.000,0.000
1606135709.210,27.344,-45.898,-15.625,273.438,0.000
1606135709.214,-92.773,-52.246,-14.160,-203.125,0.000
1606135709.218,-135.742,-50.293,-20.020,-437.012,0.000
1606135709.222,-31.738,-27.832,-12.695,-109.375,0.000
1606135709.226,93.262,14.160,-6.836,341.797,0.000
1606135709.230,78.613,2.441,-9.766,322.266,0.000
1606135709.233,-53.223,-30.273,-24.902,-163.086,0.000
1606135709.237,-115.234,-31.250,-26.855,-448.730,0.000
1606135709.241,-28.320,-15.625,-9.766,-157.227,0.000
1606135709.245,95.703,-14.160,-13.184,312.988,0.000
1606135709.249,96.680,-25.391,-14.648,355.469,0.000
1606135709.253,-44.434,-26.855,-13.672,-100.586,0.000
1606135709.257,-130.859,-26.367,-28.809,-440.430,0.000
1606135709.261,-56.152,-15.625,-29.297,-231.934,0.000
1606135709.265,66.895,11.719,-31.738,248.047,0.000
1606135709.269,80.078,-4.883,-35.156,357.910,0.000
1606135709.273,-32.227,-20.996,-29.785,-52.246,0.000
1606135709.276,-124.023,-20.996,-32.227,-433.105,0.000
1606135709.280,-81.055,-31.250,-27.832,-302.734,0.000
1606135709.284,40.527,-33.691,-22.461,182.129,0.000
1606135709.288,76.660,-30.273,-26.367,373.047,0.000
1606135709.292,-34.180,-34.668,-26.855,14.648,0.000
1606135709.296,-150.879,-36.621,-30.762,-420.898,0.000
1606135709.300,-112.793,-35.645,-29.297,-357.910,0.000
1606135709.304,24.414,0.977,-25.391,155.273,0.000
1606135709.308,71.289,15.137,-34.668,397.461,0.000
1606135709.312,-22.461,-31.250,-32.227,76.172,0.000
1606135709.315,-141.602,-50.293,-25.391,-376.465,0.000
1606135709.319,-145.508,-56.152,-18.066,-380.371,0.000
1606135709.323,-18.066,-45.410,-16.113,96.680,0.000
1606135709.327,51.758,-44.434,-17.578,396.484,0.000
1606135709.331,-24.902,-48.828,-10.254,146.973,0.000
1606135709.335,-148.926,-47.852,-19.043,-324.707,0.000
1606135709.339,-163.574,-58.105,-35.156,-409.668,0.000
1606135709.343,-35.156,-50.781,-31.738,26.367,0.000
1606135709.347,56.152,-33.203,-25.879,392.090,0.000
1606135709.351,3.906,-35.645,-23.438,223.633,0.000
1606135709.355,-118.164,-41.504,-25.879,-271.973,0.000
1606135709.358,-131.836,-47.363,-33.691,-421.875,0.000
1606135709.362,2.930,-23.438,-32.715,-21.484,0.000
1606135709.366,104.492,3.906,-13.184,386.230,0.000
1606135709.370,65.918,-12.695,-6.348,290.527,0.000
1606135709.374,-63.477,-30.762,-30.273,-206.055,0.000
1606135709.378,-106.934,-30.273,-33.203,-428.223,0.000
1606135709.382,1.465,-24.414,-27.344,-83.984,0.000
1606135709.386,105.957,-32.715,-36.133,329.590,0.000
1606135709.390,75.684,-29.785,-35.156,293.945,0.000
1606135709.394,-48.828,-15.625,-36.133,-167.969,0.000
1606135709.398,-105.469,-17.090,-28.320,-441.406,0.000
1606135709.401,-17.090,-2.930,-16.602,-155.762,0.000
1606135709.405,85.449,20.020,-21.484,293.945,0.000
1606135709.409,71.777,-7.324,-35.156,323.242,0.000
1606135709.413,-42.480,-30.762,-39.062,-126.465,0.000
1606135709.417,-119.629,-25.879,-31.738,-451.172,0.000
1606135709.421,-56.641,-20.020,-24.414,-233.398,0.000
1606135709.425,76.172,-11.719,-20.020,257.812,0.000
1606135709.429,94.238,-17.090,-23.438,376.953,0.000
1606135709.433,-31.250,-29.297,-29.785,-46.875,0.000
1606135709.437,-117.676,-35.645,-24.902,-429.199,0.000
1606135709.440,-65.430,-29.785,-20.996,-275.391,0.000
1606135709.444,54.688,3.906,-26.855,228.027,0.000
1606135709.448,88.867,-0.488,-26.855,404.785,0.000
1606135709.452,-17.090,-23.926,-26.855,24.902,0.000
1606135709.456,-122.070,-20.996,-30.273,-405.273,0.000
1606135709.460,-81.055,-23.438,-25.879,-343.262,0.000
1606135709.464,57.129,-7.324,-19.531,154.785,0.000
1606135709.468,112.793,-11.719,-20.996,400.879,0.000
1606135709.472,15.137,-28.320,-20.996,74.219,0.000
1606135709.476,-110.352,-25.879,-23.438,-380.371,0.000
1606135709.480,-101.562,-30.762,-33.203,-382.324,0.000
1606135709.483,33.691,-30.762,-31.250,91.797,0.000
1606135709.487,97.656,-23.438,-27.832,395.508,0.000
1606135709.491,11.230,-28.809,-36.621,153.320,0.000
1606135709.495,-113.770,-37.109,-39.062,-334.473,0.000
1606135709.499,-129.883,-41.504,-34.668,-436.523,0.000
1606135709.503,-13.184,-3.906,-26.367,13.184,0.000
1606135709.507,71.777,23.926,-15.137,372.559,0.000
1606135709.511,14.160,-23.926,-13.184,184.570,0.000
1606135709.515,-122.559,-43.457,-26.367,-314.941,0.000
1606135709.519,-151.855,-41.992,-35.645,-460.449,0.000
1606135709.523,-29.297,-42.969,-30.273,-46.387,0.000
1606135709.526,63.965,-36.133,-25.391,353.027,0.000
1606135709.530,23.438,-41.504,-29.297,248.047,0.000
1606135709.534,-104.004,-42.480,-36.133,-246.582,0.000
1606135709.538,-141.602,-36.133,-38.086,-460.938,0.000
1606135709.542,-28.320,0.000,-30.762,-111.816,0.000
1606135709.546,87.402,24.414,-22.461,326.660,0.000
1606135709.550,64.941,-18.066,-25.879,294.922,0.000
1606135709.554,-60.547,-36.621,-35.156,-166.504,0.000
1606135709.558,-137.695,-39.551,-25.391,-452.148,0.000
1606135709.562,-63.965,-43.457,-7.324,-154.785,0.000
1606135709.565,60.547,-43.457,-6.348,324.707,0.000
1606135709.569,41.992,-43.945,-20.020,330.566,0.000
1606135709.573,-86.914,-44.434,-28.320,-130.371,0.000
1606135709.577,-163.086,-51.758,-25.879,-470.703,0.000
1606135709.581,-83.496,-41.504,-18.066,-232.422,0.000
1606135709.585,64.453,5.371,-13.184,275.391,0.000
1606135709.589,80.566,-18.555,-16.602,376.953,0.000
1606135709.593,-48.828,-55.664,-23.438,-45.898,0.000
1606135709.597,-134.277,-58.594,-19.043,-422.852,0.000
1606135709.601,-73.242,-49.316,-9.766,-262.207,0.000
1606135709.605,73.730,-15.625,-0.977,246.582,0.000
1606135709.608,108.887,-21.484,-7.812,417.969,0.000
1606135709.612,-5.371,-34.668,-22.949,26.855,0.000
1606135709.616,-105.469,-39.551,-25.391,-399.414,0.000
1606135709.620,-67.383,-34.180,-21.973,-318.848,0.000
1606135709.624,70.312,-23.926,-22.949,166.504,0.000
1606135709.628,114.258,-20.508,-23.438,401.855,0.000
1606135709.632,15.137,-17.578,-17.090,94.238,0.000
1606135709.636,-110.840,-24.414,-30.762,-373.047,0.000
1606135709.640,-104.004,-28.809,-46.875,-383.789,0.000
1606135709.644,29.297,2.441,-29.297,96.680,0.000
1606135709.648,102.051,5.859,-20.508,400.879,0.000
1606135709.651,15.137,-19.531,-20.020,148.926,0.000
1606135709.655,-110.840,-22.949,-14.648,-333.496,0.000
1606135709.659,-120.117,-37.598,-23.926,-415.039,0.000
1606135709.663,-4.883,-39.062,-24.902,25.879,0.000
1606135709.667,79.102,-24.902,-14.648,379.883,0.000
1606135709.671,3.418,-26.367,-13.672,187.012,0.000
1606135709.675,-125.488,-41.992,-27.344,-307.129,0.000
1606135709.679,-144.043,-53.711,-35.156,-435.059,0.000
1606135709.683,-33.203,-30.762,-24.414,-31.738,0.000
1606135709.687,66.895,1.953,-25.391,363.281,0.000
1606135709.690,16.113,-29.297,-37.109,236.328,0.000
1606135709.694,-123.535,-49.316,-36.621,-264.160,0.000
1606135709.698,-158.203,-48.340,-17.090,-466.309,0.000
1606135709.702,-50.293,-59.570,-10.742,-119.141,0.000
1606135709.706,54.199,-50.781,-30.762,310.059,0.000
1606135709.710,28.809,-40.527,-31.738,267.090,0.000
1606135709.714,-100.586,-43.945,-23.926,-214.355,0.000
1606135709.718,-156.738,-52.246,-25.391,-481.934,0.000
1606135709.722,-59.082,-20.996,-19.531,-180.664,0.000
1606135709.726,67.383,10.742,-15.137,296.875,0.000
1606135709.730,79.102,-26.855,-17.578,329.590,0.000
1606135709.733,-49.805,-42.969,-29.297,-135.742,0.000
1606135709.737,-147.949,-47.363,-32.227,-466.309,0.000
1606135709.741,-77.148,-36.621,-25.391,-243.164,0.000
1606135709.745,53.711,-23.438,-14.648,249.023,0.000
1606135709.749,66.895,-32.227,-18.555,359.863,0.000
1606135709.753,-52.246,-31.738,-35.156,-68.848,0.000
1606135709.757,-140.137,-34.668,-42.969,-447.266,0.000
1606135709.761,-89.355,-36.621,-41.016,-296.875,0.000
1606135709.765,44.434,-34.180,-34.180,202.637,0.000
1606135709.769,86.914,-28.809,-20.996,389.160,0.000
1606135709.773,-25.879,-31.250,-33.203,15.625,0.000
1606135709.776,-130.371,-38.086,-45.410,-398.926,0.000
1606135709.780,-88.867,-34.668,-25.879,-316.406,0.000
1606135709.784,45.410,-2.441,-19.531,169.922,0.000
1606135709.788,97.168,5.859,-24.414,413.574,0.000
1606135709.792,-2.930,-35.156,-22.461,95.703,0.000
1606135709.796,-121.094,-45.410,-30.762,-364.258,0.000
1606135709.800,-109.375,-31.250,-41.016,-372.070,0.000
1606135709.804,19.043,-11.230,-36.621,111.816,0.000
1606135709.808,84.473,-16.113,-40.039,408.691,0.000
1606135709.812,-2.441,-33.203,-38.086,131.348,0.000
1606135709.815,-128.418,-39.551,-31.250,-349.121,0.000
1606135709.819,-121.582,-41.016,-31.738,-413.574,0.000
1606135709.823,2.930,-20.508,-27.832,33.203,0.000
1606135709.827,69.824,-19.043,-24.414,379.395,0.000
1606135709.831,14.648,-43.945,-21.973,185.059,0.000
1606135709.835,-116.211,-41.992,-30.762,-303.223,0.000
1606135709.839,-137.695,-34.668,-36.133,-443.848,0.000
1606135709.843,-15.137,-39.062,-31.738,-47.852,0.000
1606135709.847,72.266,-40.039,-39.551,337.891,0.000
1606135709.851,22.461,-47.363,-35.645,220.703,0.000
1606135709.855,-113.281,-52.734,-27.344,-268.555,0.000
1606135709.858,-157.227,-37.109,-28.809,-479.492,0.000
1606135709.862,-55.176,-20.996,-30.273,-124.023,0.000
1606135709.866,52.734,-18.555,-29.785,318.848,0.000
1606135709.870,21.973,-23.926,-28.809,271.973,0.000
1606135709.874,-113.281,-30.273,-32.715,-220.703,0.000
1606135709.878,-177.246,-35.645,-40.527,-499.023,0.000
1606135709.882,-83.496,-29.297,-43.945,-199.707,0.000
1606135709.886,46.387,-22.949,-33.203,279.297,0.000
1606135709.890,44.434,-28.809,-27.344,313.965,0.000
1606135709.894,-85.449,-38.086,-31.250,-147.461,0.000
1606135709.898,-163.574,-44.434,-34.180,-463.379,0.000
1606135709.901,-82.520,-37.598,-36.621,-229.980,0.000
1606135709.905,52.246,-16.113,-20.996,255.859,0.000
1606135709.909,67.383,-10.742,-14.160,367.676,0.000
1606135709.913,-43.457,-22.461,-20.996,-54.688,0.000
1606135709.917,-142.090,-35.156,-37.109,-437.500,0.000
1606135709.921,-87.402,-24.414,-34.668,-270.508,0.000
1606135709.925,64.941,-11.719,-16.602,233.398,0.000
1606135709.929,91.797,-27.832,-16.113,394.043,0.000
1606135709.933,-25.879,-35.645,-24.414,9.766,0.000
1606135709.937,-124.512,-31.738,-28.320,-400.391,0.000
1606135709.940,-86.914,-40.039,-24.902,-318.848,0.000
1606135709.944,31.738,-31.738,-19.531,166.016,0.000
1606135709.948,95.703,-21.973,-12.695,408.691,0.000
1606135709.952,-5.859,-33.691,-22.949,86.426,0.000
1606135709.956,-141.602,-37.109,-31.738,-362.305,0.000
1606135709.960,-114.746,-28.809,-33.691,-345.703,0.000
1606135709.964,17.578,-19.043,-26.367,125.977,0.000
1606135709.968,94.238,-21.484,-14.160,410.156,0.000
1606135709.972,14.160,-34.180,-20.996,131.836,0.000
1606135709.976,-121.094,-46.875,-30.273,-343.750,0.000
1606135709.980,-125.488,-44.922,-33.203,-400.391,0.000
1606135709.983,4.883,-34.668,-32.227,45.898,0.000
1606135709.987,98.633,-31.738,-24.414,388.672,0.000
1606135709.991,31.250,-32.227,-11.230,198.242,0.000
1606135709.995,-110.840,-42.969,-33.691,-304.688,0.000
1606135709.999,-129.395,-50.293,-52.734,-452.148,0.000
1606135710.003,-9.277,-32.715,-27.832,-31.738,0.000
1606135710.007,86.426,-29.785,-20.996,364.746,0.000
1606135710.011,46.387,-43.457,-29.785,237.305,0.000
1606135710.015,-82.520,-34.668,-25.391,-254.395,0.000
1606135710.019,-135.742,-34.180,-24.902,-457.031,0.000
1606135710.023,-32.715,-34.668,-24.902,-99.121,0.000
1606135710.026,76.660,-23.926,-20.996,334.961,0.000
1606135710.030,46.387,-29.785,-22.461,283.691,0.000
1606135710.034,-98.145,-46.387,-41.504,-208.496,0.000
1606135710.038,-158.203,-52.734,-38.574,-469.238,0.000
1606135710.042,-62.988,-42.480,-26.855,-165.527,0.000
1606135710.046,52.734,-34.668,-25.391,283.691,0.000
1606135710.050,45.410,-38.574,-27.832,300.781,0.000
1606135710.054,-79.102,-41.016,-35.645,-156.250,0.000
1606135710.058,-157.227,-37.109,-30.273,-474.121,0.000
1606135710.062,-84.961,-25.391,-24.414,-244.629,0.000
1606135710.065,46.387,-16.602,-18.555,248.047,0.000
1606135710.069,59.082,-24.414,-13.184,347.168,0.000
1606135710.073,-61.523,-33.691,-15.625,-85.938,0.000
1606135710.077,-147.949,-50.293,-32.227,-465.332,0.000
1606135710.081,-84.961,-50.781,-45.898,-302.734,0.000
1606135710.085,41.016,-24.902,-36.621,204.590,0.000
1606135710.089,77.148,-19.043,-25.879,364.746,0.000
1606135710.093,-32.715,-36.621,-29.297,-25.879,0.000
1606135710.097,-138.184,-39.551,-41.016,-428.223,0.000
1606135710.101,-86.426,-28.320,-30.273,-323.242,0.000
1606135710.105,42.480,-15.625,-17.578,165.039,0.000
1606135710.108,83.008,-13.672,-26.367,380.859,0.000
1606135710.112,-13.184,-30.273,-30.273,55.176,0.000
1606135710.116,-129.395,-40.527,-37.109,-386.719,0.000
1606135710.120,-108.887,-38.574,-33.203,-373.047,0.000
1606135710.124,32.715,-37.109,-19.531,113.770,0.000
1606135710.128,92.773,-32.227,-17.090,400.879,0.000
1606135710.132,-6.836,-26.855,-19.531,125.488,0.000
1606135710.136,-126.465,-34.668,-26.367,-343.750,0.000
1606135710.140,-124.512,-44.922,-39.062,-396.973,0.000
1606135710.144,-7.812,-44.922,-36.133,55.176,0.000
1606135710.148,81.543,-35.156,-14.160,407.715,0.000
1606135710.151,15.625,-21.973,-3.906,203.613,0.000
1606135710.155,-120.605,-28.809,-14.648,-304.688,0.000
1606135710.159,-144.531,-43.945,-17.090,-431.641,0.000
1606135710.163,-40.039,-25.879,-22.949,-28.320,0.000
1606135710.167,62.988,-0.488,-36.133,361.816,0.000
1606135710.171,22.461,-28.809,-35.645,247.559,0.000
1606135710.175,-121.094,-43.945,-32.227,-251.953,0.000
1606135710.179,-169.922,-33.203,-23.926,-451.660,0.000
1606135710.183,-70.312,-27.832,-22.949,-95.703,0.000
1606135710.187,42.480,-25.391,-12.695,331.055,0.000
1606135710.190,21.973,-41.504,-18.555,281.250,0.000
1606135710.194,-108.398,-52.246,-35.645,-204.590,0.000
1606135710.198,-160.645,-42.969,-32.227,-470.215,0.000
1606135710.202,-65.918,-27.832,-32.227,-162.598,0.000
1606135710.206,62.500,-14.648,-31.738,299.316,0.000
1606135710.210,64.453,-24.414,-28.809,316.895,0.000
1606135710.214,-68.848,-33.691,-31.738,-143.555,0.000
1606135710.218,-139.648,-39.062,-32.227,-456.055,0.000
1606135710.222,-63.477,-38.086,-32.227,-217.773,0.000
1606135710.226,67.871,-20.020,-22.949,266.602,0.000
1606135710.230,79.590,-18.066,-14.160,364.746,0.000
1606135710.233,-45.898,-29.785,-27.344,-69.336,0.000
1606135710.237,-134.277,-33.203,-43.457,-444.336,0.000
1606135710.241,-71.289,-26.367,-39.551,-269.043,0.000
1606135710.245,65.918,-29.785,-27.832,220.215,0.000
1606135710.249,95.703,-29.785,-30.273,368.652,0.000
1606135710.253,-17.090,-17.090,-40.527,-13.672,0.000
1606135710.257,-120.117,-20.996,-43.945,-419.434,0.000
1606135710.261,-76.172,-26.367,-38.086,-332.520,0.000
1606135710.265,60.059,-15.137,-25.879,157.227,0.000
1606135710.269,94.727,-10.254,-18.555,385.254,0.000
1606135710.273,-3.906,-18.066,-17.578,55.176,0.000
1606135710.276,-114.746,-29.785,-33.691,-395.996,0.000
1606135710.280,-92.285,-26.367,-36.133,-375.977,0.000
1606135710.284,40.039,-12.695,-30.762,114.746,0.000
1606135710.288,107.910,-12.207,-22.461,409.180,0.000
1606135710.292,21.973,-23.438,-21.973,131.348,0.000
1606135710.296,-110.840,-35.156,-35.645,-345.703,0.000
1606135710.300,-118.164,-39.062,-40.527,-403.809,0.000
1606135710.304,3.418,-20.996,-35.645,51.758,0.000
1606135710.308,82.031,-12.207,-23.926,384.766,0.000
1606135710.312,23.438,-19.531,-26.855,174.805,0.000
1606135710.315,-104.004,-39.062,-34.668,-309.570,0.000
1606135710.319,-130.371,-49.316,-40.527,-438.477,0.000
1606135710.323,-2.930,-37.109,-37.598,-14.160,0.000
1606135710.327,105.957,-32.715,-21.973,371.094,0.000
1606135710.331,68.359,-28.320,-22.949,240.234,0.000
1606135710.335,-59.570,-20.996,-27.344,-227.539,0.000
1606135710.339,-97.656,-31.738,-31.250,-417.480,0.000
1606135710.343,5.859,-18.555,-27.832,-56.641,0.000
1606135710.347,101.074,-0.488,-10.742,361.328,0.000
1606135710.351,60.547,-24.414,-17.090,288.086,0.000
1606135710.355,-68.848,-38.086,-24.902,-204.590,0.000
1606135710.358,-120.117,-40.039,-26.367,-457.520,0.000
1606135710.362,-26.855,-27.832,-20.508,-147.461,0.000
1606135710.366,97.168,-18.555,-20.020,319.824,0.000
1606135710.370,86.426,-34.668,-24.902,340.332,0.000
1606135710.374,-54.199,-41.016,-23.926,-133.301,0.000
1606135710.378,-121.582,-38.086,-29.297,-442.871,0.000
1606135710.382,-40.527,-18.555,-35.645,-193.359,0.000
1606135710.386,71.777,1.953,-28.320,278.809,0.000
1606135710.390,81.543,-15.625,-22.949,372.070,0.000
1606135710.394,-32.227,-25.879,-25.391,-55.176,0.000
1606135710.398,-119.141,-33.203,-26.855,-426.758,0.000
1606135710.401,-62.988,-34.180,-24.902,-254.883,0.000
1606135710.405,67.383,-24.902,-28.809,240.723,0.000
1606135710.409,98.633,-26.855,-27.344,399.414,0.000
1606135710.413,-15.137,-36.621,-19.043,16.113,0.000
1606135710.417,-124.512,-32.715,-33.203,-397.949,0.000
1606135710.421,-69.824,-18.066,-41.016,-305.664,0.000
1606135710.425,66.406,-1.953,-20.996,178.711,0.000
1606135710.429,94.238,0.000,-16.113,393.555,0.000
1606135710.433,-13.672,-23.438,-28.809,60.059,0.000
1606135710.437,-129.395,-42.969,-38.574,-393.066,0.000
1606135710.440,-102.539,-41.504,-36.621,-372.070,0.000
1606135710.444,40.527,6.348,-28.320,122.559,0.000
1606135710.448,113.281,17.578,-19.531,407.227,0.000
1606135710.452,30.273,-20.020,-20.020,128.906,0.000
1606135710.456,-99.609,-32.227,-38.574,-349.121,0.000
1606135710.460,-105.957,-29.297,-33.691,-400.391,0.000
1606135710.464,19.531,-19.043,-20.996,52.734,0.000
1606135710.468,97.656,-18.066,-21.973,380.371,0.000
1606135710.472,18.066,-26.855,-28.320,166.504,0.000
1606135710.476,-109.375,-31.738,-34.180,-319.336,0.000
1606135710.480,-123.535,-29.785,-27.832,-439.941,0.000
1606135710.483,-11.719,-5.371,-16.113,-27.344,0.000
1606135710.487,84.961,2.441,-12.207,355.957,0.000
1606135710.491,32.715,-31.738,-25.879,215.820,0.000
1606135710.495,-101.562,-45.410,-36.133,-277.344,0.000
1606135710.499,-132.812,-34.668,-38.574,-466.309,0.000
1606135710.503,-29.785,-25.391,-30.273,-97.656,0.000
1606135710.507,62.988,-22.461,-23.438,329.590,0.000
1606135710.511,31.250,-22.461,-29.297,260.742,0.000
1606135710.515,-115.723,-39.551,-42.480,-242.188,0.000
1606135710.519,-174.316,-47.363,-42.480,-479.980,0.000
1606135710.523,-71.289,-25.879,-24.414,-149.414,0.000
1606135710.526,43.457,-4.395,-13.184,300.781,0.000
1606135710.530,27.344,-29.297,-29.785,303.711,0.000
1606135710.534,-104.980,-49.805,-47.852,-164.551,0.000
1606135710.538,-172.363,-45.410,-41.016,-466.309,0.000
1606135710.542,-89.355,-40.039,-34.668,-216.309,0.000
1606135710.546,42.480,-29.297,-29.297,259.766,0.000
1606135710.550,66.406,-29.297,-12.207,346.680,0.000
1606135710.554,-54.199,-34.668,-19.531,-80.566,0.000
1606135710.558,-144.043,-39.062,-31.250,-443.848,0.000
1606135710.562,-83.984,-42.480,-21.484,-275.391,0.000
1606135710.565,41.504,-32.227,-24.414,218.750,0.000
1606135710.569,75.684,-33.691,-26.367,383.789,0.000
1606135710.573,-34.180,-42.480,-26.367,-14.648,0.000
1606135710.577,-138.672,-50.781,-39.062,-433.105,0.000
1606135710.581,-83.496,-40.039,-37.109,-316.895,0.000
1606135710.585,55.176,-12.695,-21.484,186.523,0.000
1606135710.589,78.613,-20.020,-17.578,400.879,0.000
1606135710.593,-23.438,-33.691,-23.926,59.570,0.000
1606135710.597,-135.254,-41.016,-31.250,-388.672,0.000
1606135710.601,-109.863,-39.062,-18.066,-355.469,0.000
1606135710.605,26.855,-25.391,-17.090,134.277,0.000
1606135710.608,86.914,-18.555,-21.973,400.879,0.000
1606135710.612,-2.441,-26.367,-25.391,112.305,0.000
1606135710.616,-127.930,-31.738,-37.109,-342.285,0.000
1606135710.620,-125.977,-36.621,-29.785,-393.555,0.000
1606135710.624,3.906,-7.812,-10.742,62.500,0.000
1606135710.628,84.961,11.719,-13.672,406.250,0.000
1606135710.632,16.113,-24.414,-18.066,187.012,0.000
1606135710.636,-107.910,-29.785,-19.043,-299.805,0.000
1606135710.640,-130.371,-21.973,-23.438,-419.434,0.000
1606135710.644,-24.902,-22.461,-23.438,-4.883,0.000
1606135710.648,62.500,-23.926,-21.484,375.488,0.000
1606135710.651,15.625,-28.809,-21.484,238.281,0.000
1606135710.655,-113.770,-36.621,-25.879,-250.000,0.000
1606135710.659,-149.414,-39.062,-34.668,-439.453,0.000
1606135710.663,-36.133,-18.555,-30.762,-69.824,0.000
1606135710.667,71.777,-7.324,-23.438,352.539,0.000
1606135710.671,49.805,-27.832,-21.484,282.227,0.000
1606135710.675,-70.312,-39.062,-23.438,-208.984,0.000
1606135710.679,-147.461,-41.504,-33.203,-458.496,0.000
1606135710.683,-72.754,-39.062,-39.062,-145.996,0.000
1606135710.687,55.176,-31.250,-22.949,306.641,0.000
1606135710.690,48.340,-29.297,-22.461,303.223,0.000
1606135710.694,-81.055,-32.715,-35.645,-164.551,0.000
1606135710.698,-152.832,-37.598,-37.109,-468.750,0.000
1606135710.702,-72.266,-26.367,-35.645,-225.098,0.000
1606135710.706,69.824,-10.254,-24.414,271.484,0.000
1606135710.710,73.242,-16.602,-23.926,357.422,0.000
1606135710.714,-60.059,-22.461,-34.668,-91.797,0.000
1606135710.718,-139.160,-32.227,-40.527,-446.777,0.000
1606135710.722,-81.543,-23.438,-35.645,-265.137,0.000
1606135710.726,46.875,21.484,-28.320,229.980,0.000
1606135710.730,79.590,3.418,-25.391,381.348,0.000
1606135710.733,-38.086,-31.738,-21.973,-15.625,0.000
1606135710.737,-143.066,-35.645,-25.879,-415.039,0.000
1606135710.741,-94.238,-37.598,-31.250,-299.316,0.000
1606135710.745,46.875,-24.902,-23.438,201.172,0.000
1606135710.749,86.426,-19.043,-16.602,404.785,0.000
1606135710.753,-22.949,-30.273,-22.949,55.176,0.000
1606135710.757,-111.816,-34.668,-34.180,-368.652,0.000
1606135710.761,-81.055,-27.832,-22.461,-335.938,0.000
1606135710.765,37.598,-8.789,-13.672,138.672,0.000
1606135710.769,101.562,-18.555,-19.531,409.180,0.000
1606135710.773,11.230,-25.879,-22.461,116.211,0.000
1606135710.776,-107.910,-27.832,-31.250,-350.098,0.000
1606135710.780,-96.680,-34.668,-23.438,-381.836,0.000
1606135710.784,39.551,-15.137,-8.301,78.125,0.000
1606135710.788,114.258,-13.184,-11.230,401.367,0.000
1606135710.792,36.621,-26.855,-23.438,172.363,0.000
1606135710.796,-83.496,-24.414,-31.738,-307.129,0.000
1606135710.800,-95.703,-26.855,-23.438,-402.832,0.000
1606135710.804,15.137,0.000,-25.391,21.973,0.000
1606135710.808,110.352,19.531,-28.809,388.184,0.000
1606135710.812,49.805,-26.367,-35.156,209.961,0.000
1606135710.815,-87.891,-42.480,-41.992,-291.992,0.000
1606135710.819,-124.512,-37.109,-34.180,-450.195,0.000
1606135710.823,-20.996,-29.297,-38.086,-75.684,0.000
1606135710.827,83.984,-20.996,-44.922,333.984,0.000
1606135710.831,42.480,-27.832,-28.320,264.160,0.000
1606135710.835,-89.844,-38.574,-25.879,-224.609,0.000
1606135710.839,-137.695,-41.016,-36.621,-464.355,0.000
1606135710.843,-33.691,-33.691,-34.180,-140.625,0.000
1606135710.847,74.707,-25.879,-24.902,316.406,0.000
1606135710.851,58.105,-30.273,-20.508,318.359,0.000
1606135710.855,-76.660,-39.062,-26.855,-167.969,0.000
1606135710.858,-157.227,-52.246,-30.273,-479.004,0.000
1606135710.862,-75.195,-24.414,-32.227,-217.285,0.000
1606135710.866,49.805,9.766,-36.133,271.484,0.000
1606135710.870,58.594,-21.973,-35.645,344.727,0.000
1606135710.874,-66.406,-39.062,-31.738,-102.539,0.000
1606135710.878,-152.344,-40.039,-26.855,-456.543,0.000
1606135710.882,-78.125,-42.969,-26.855,-262.207,0.000
1606135710.886,53.223,-40.039,-29.785,233.398,0.000
1606135710.890,75.684,-33.691,-16.113,374.512,0.000
1606135710.894,-30.273,-33.203,-12.695,-25.879,0.000
1606135710.898,-121.582,-33.203,-27.832,-409.668,0.000
1606135710.901,-75.684,-26.855,-25.391,-293.945,0.000
1606135710.905,59.082,-6.836,-22.461,190.918,0.000
1606135710.909,102.051,-11.719,-17.090,390.625,0.000
1606135710.913,1.953,-36.621,-30.762,44.434,0.000
1606135710.917,-98.145,-49.316,-42.480,-383.789,0.000
1606135710.921,-73.242,-36.133,-23.438,-338.867,0.000
1606135710.925,55.664,-20.020,-13.184,151.367,0.000
1606135710.929,112.793,-25.879,-16.113,419.434,0.000
1606135710.933,31.250,-26.367,-18.555,131.348,0.000
1606135710.937,-82.031,-27.832,-20.508,-333.008,0.000
1606135710.940,-84.961,-31.250,-22.949,-372.070,0.000
1606135710.944,35.645,-6.348,-24.414,94.238,0.000
1606135710.948,104.492,-5.859,-19.043,410.156,0.000
1606135710.952,27.344,-26.855,-17.578,165.527,0.000
1606135710.956,-98.633,-36.133,-34.668,-313.477,0.000
1606135710.960,-108.398,-38.574,-43.945,-414.062,0.000
1606135710.964,14.160,-21.484,-30.762,7.324,0.000
1606135710.968,99.121,-14.160,-31.250,381.348,0.000
1606135710.972,41.016,-20.508,-29.785,226.562,0.000
1606135710.976,-86.426,-25.879,-29.297,-265.625,0.000
1606135710.980,-119.629,-28.809,-36.133,-433.594,0.000
1606135710.983,-26.855,-27.344,-30.273,-60.547,0.000
1606135710.987,62.012,-23.438,-19.531,341.309,0.000
1606135710.991,31.738,-20.996,-17.090,267.090,0.000
1606135710.995,-94.238,-33.203,-25.391,-220.703,0.000
1606135710.999,-145.996,-45.898,-31.250,-468.750,0.000
1606135711.003,-56.641,-30.762,-31.738,-150.879,0.000
1606135711.007,64.941,-0.977,-24.414,307.129,0.000
1606135711.011,46.387,-13.184,-20.996,306.152,0.000
1606135711.015,-90.332,-35.156,-26.855,-174.316,0.000
1606135711.019,-151.855,-39.062,-30.273,-472.656,0.000
1606135711.023,-59.570,-31.250,-30.273,-204.590,0.000
1606135711.026,62.012,-23.438,-20.996,276.367,0.000
1606135711.030,62.012,-36.133,-26.367,346.191,0.000
1606135711.034,-61.523,-38.086,-38.086,-86.426,0.000
1606135711.038,-145.508,-37.598,-36.133,-428.223,0.000
1606135711.042,-84.473,-30.273,-32.715,-248.535,0.000
1606135711.046,41.504,-21.973,-24.902,233.887,0.000
1606135711.050,69.336,-36.621,-20.996,376.953,0.000
1606135711.054,-48.828,-46.875,-34.180,-28.320,0.000
1606135711.058,-146.484,-51.758,-33.691,-423.340,0.000
1606135711.062,-96.191,-43.945,-24.414,-294.434,0.000
1606135711.065,29.785,-34.668,-23.926,194.336,0.000
1606135711.069,62.500,-34.180,-22.461,391.113,0.000
1606135711.073,-44.922,-36.133,-22.461,42.969,0.000
1606135711.077,-144.531,-33.691,-26.855,-385.742,0.000
1606135711.081,-107.910,-26.855,-24.902,-333.496,0.000
1606135711.085,24.902,-7.324,-21.973,158.203,0.000
1606135711.089,82.031,-18.066,-20.508,407.227,0.000
1606135711.093,-4.883,-45.410,-15.625,102.051,0.000
1606135711.097,-119.629,-28.809,-18.555,-351.562,0.000
1606135711.101,-107.422,-17.578,-20.020,-382.324,0.000
1606135711.105,15.137,-15.137,-18.555,73.242,0.000
1606135711.108,91.797,-17.578,-22.949,395.996,0.000
1606135711.112,27.832,-31.250,-24.414,169.922,0.000
1606135711.116,-108.887,-31.738,-38.574,-314.453,0.000
1606135711.120,-130.859,-28.320,-48.340,-417.480,0.000
1606135711.124,-4.395,-22.461,-38.086,12.207,0.000
1606135711.128,91.797,-13.184,-21.973,389.648,0.000
1606135711.132,35.645,-17.578,-16.113,230.957,0.000
1606135711.136,-101.562,-27.344,-23.438,-275.391,0.000
1606135711.140,-130.859,-37.598,-24.902,-445.801,0.000
1606135711.144,-13.672,-24.414,-31.738,-58.594,0.000
1606135711.148,86.914,-4.395,-27.832,354.004,0.000
1606135711.151,44.434,-6.348,-20.508,271.973,0.000
1606135711.155,-84.961,-19.043,-31.250,-215.332,0.000
1606135711.159,-127.441,-30.762,-37.598,-455.566,0.000
1606135711.163,-40.527,-37.109,-36.621,-128.418,0.000
1606135711.167,68.359,-31.738,-23.438,321.777,0.000
1606135711.171,59.570,-26.367,-15.137,305.664,0.000
1606135711.175,-67.383,-33.203,-31.250,-170.410,0.000
1606135711.179,-135.254,-41.504,-41.016,-445.801,0.000
1606135711.183,-55.664,-37.598,-40.039,-185.547,0.000
1606135711.187,58.594,-24.414,-30.762,264.160,0.000
1606135711.190,64.453,-34.668,-27.832,320.312,0.000
1606135711.194,-70.801,-45.898,-29.785,-124.023,0.000
1606135711.198,-166.016,-42.969,-24.902,-463.379,0.000
1606135711.202,-86.914,-33.691,-21.484,-260.742,0.000
1606135711.206,38.086,-27.832,-20.996,230.469,0.000
1606135711.210,66.895,-34.180,-18.066,366.699,0.000
1606135711.214,-46.875,-45.410,-23.926,-34.668,0.000
1606135711.218,-148.926,-49.805,-40.527,-426.270,0.000
1606135711.222,-102.539,-47.852,-41.992,-303.223,0.000
1606135711.226,32.227,-40.527,-25.391,203.613,0.000
1606135711.230,77.637,-31.250,-9.766,404.785,0.000
1606135711.233,-30.762,-32.715,-17.090,41.016,0.000
1606135711.237,-152.832,-37.598,-29.785,-393.555,0.000
1606135711.241,-124.023,-36.133,-28.809,-336.914,0.000
1606135711.245,18.066,-30.762,-16.602,153.320,0.000
1606135711.249,79.590,-26.855,-8.301,407.715,0.000
1606135711.253,-11.719,-29.297,-25.879,104.492,0.000
1606135711.257,-122.070,-24.414,-39.062,-348.633,0.000
1606135711.261,-109.863,-19.531,-24.902,-363.281,0.000
1606135711.265,16.113,-29.297,-11.719,96.191,0.000
1606135711.269,92.285,-26.367,-9.277,416.016,0.000
1606135711.273,20.508,-20.996,-19.043,181.641,0.000
1606135711.276,-102.539,-34.180,-29.297,-309.082,0.000
1606135711.280,-122.070,-35.156,-27.832,-404.785,0.000
1606135711.284,5.859,-25.879,-30.273,17.578,0.000
1606135711.288,96.680,-11.230,-28.809,382.324,0.000
1606135711.292,32.715,-10.742,-33.691,209.961,0.000
1606135711.296,-98.145,-24.902,-46.875,-294.922,0.000
1606135711.300,-126.465,-28.320,-50.293,-456.543,0.000
1606135711.304,-6.348,-20.508,-40.527,-56.641,0.000
1606135711.308,99.609,-16.602,-30.273,357.910,0.000
1606135711.312,56.152,-21.973,-34.668,263.672,0.000
1606135711.315,-72.266,-24.414,-32.227,-213.379,0.000
1606135711.319,-122.070,-31.738,-31.738,-440.918,0.000
1606135711.323,-30.762,-28.809,-22.461,-116.699,0.000
1606135711.327,81.055,-25.391,-20.508,328.125,0.000
1606135711.331,68.359,-26.855,-35.156,308.594,0.000
1606135711.335,-70.312,-29.297,-38.086,-164.062,0.000
1606135711.339,-145.020,-32.715,-41.016,-448.730,0.000
1606135711.343,-63.477,-31.250,-35.156,-182.129,0.000
1606135711.347,57.617,-23.438,-20.508,290.039,0.000
1606135711.351,58.105,-28.320,-17.578,351.562,0.000
1606135711.355,-61.523,-45.898,-18.555,-106.445,0.000
1606135711.358,-132.812,-37.598,-3.418,-439.453,0.000
1606135711.362,-76.660,-37.109,-8.301,-225.098,0.000
1606135711.366,49.316,-34.668,-29.297,251.465,0.000
1606135711.370,75.684,-12.207,-22.949,369.141,0.000
1606135711.374,-35.156,-23.926,-27.832,-45.410,0.000
1606135711.378,-127.441,-33.203,-38.086,-434.570,0.000
1606135711.382,-71.777,-32.715,-41.016,-289.062,0.000
1606135711.386,53.711,-32.227,-21.973,217.285,0.000
1606135711.390,90.332,-33.203,-3.906,405.762,0.000
1606135711.394,-10.254,-36.621,-14.648,42.480,0.000
1606135711.398,-115.723,-29.297,-20.508,-380.371,0.000
1606135711.401,-88.379,-27.832,-32.715,-326.660,0.000
1606135711.405,42.480,-21.484,-33.691,153.809,0.000
1606135711.409,104.492,-13.672,-24.414,408.203,0.000
1606135711.413,20.996,-20.508,-24.902,110.352,0.000
1606135711.417,-97.168,-35.156,-32.227,-352.539,0.000
1606135711.421,-97.168,-36.621,-42.480,-378.906,0.000
1606135711.425,23.438,-38.086,-35.645,93.262,0.000
1606135711.429,103.516,-24.902,-23.926,411.621,0.000
1606135711.433,29.297,-21.973,-24.414,171.387,0.000
1606135711.437,-102.539,-36.133,-21.973,-306.641,0.000
1606135711.440,-110.840,-31.250,-17.578,-401.855,0.000
1606135711.444,9.277,-23.926,-19.043,29.785,0.000
1606135711.448,107.422,-7.812,-15.625,401.367,0.000
1606135711.452,29.785,-9.766,-20.020,216.309,0.000
1606135711.456,-117.676,-29.785,-38.086,-290.039,0.000
1606135711.460,-138.672,-26.367,-35.156,-432.129,0.000
1606135711.464,-25.879,-35.156,-25.879,-29.785,0.000
1606135711.468,75.195,-45.898,-14.160,367.676,0.000
1606135711.472,38.574,-28.809,-0.977,265.137,0.000
1606135711.476,-103.027,-36.133,-20.508,-226.074,0.000
1606135711.480,-146.973,-40.039,-38.086,-448.730,0.000
1606135711.483,-39.551,-32.715,-33.203,-108.398,0.000
1606135711.487,62.012,-27.344,-25.391,333.984,0.000
1606135711.491,44.922,-21.484,-23.438,308.105,0.000
1606135711.495,-87.402,-30.762,-32.715,-177.734,0.000
1606135711.499,-167.480,-40.527,-44.922,-474.121,0.000
1606135711.503,-71.777,-30.273,-39.062,-175.293,0.000
1606135711.507,57.617,-22.461,-30.762,305.664,0.000
1606135711.511,54.688,-22.461,-28.320,328.613,0.000
1606135711.515,-72.754,-27.344,-41.504,-131.348,0.000
1606135711.519,-147.949,-31.250,-48.340,-469.727,0.000
1606135711.523,-75.195,-27.344,-33.691,-253.418,0.000
1606135711.526,52.246,-13.184,-26.367,236.328,0.000
1606135711.530,70.312,-9.766,-35.645,346.191,0.000
1606135711.534,-52.246,-26.855,-28.809,-70.312,0.000
1606135711.538,-145.996,-34.668,-26.367,-437.988,0.000
1606135711.542,-87.891,-31.738,-40.527,-291.992,0.000
1606135711.546,39.551,-36.133,-36.133,199.219,0.000
1606135711.550,75.195,-26.367,-24.902,387.207,0.000
1606135711.554,-28.809,-12.207,-30.273,29.785,0.000
1606135711.558,-141.602,-33.203,-36.621,-397.461,0.000
1606135711.562,-113.770,-39.551,-41.504,-347.168,0.000
1606135711.565,19.043,-21.484,-38.086,143.066,0.000
1606135711.569,81.543,-23.438,-13.672,404.297,0.000
1606135711.573,-8.301,-28.809,-5.859,88.379,0.000
1606135711.577,-127.441,-43.945,-24.902,-373.535,0.000
1606135711.581,-120.117,-51.758,-36.621,-386.719,0.000
1606135711.585,20.508,-42.480,-27.832,90.332,0.000
1606135711.589,103.027,-34.180,-14.648,412.598,0.000
1606135711.593,13.672,-37.109,-16.113,160.645,0.000
1606135711.597,-113.281,-45.898,-28.809,-321.289,0.000
1606135711.601,-108.887,-39.062,-29.785,-394.531,0.000
1606135711.605,16.602,-21.973,-19.531,39.551,0.000
1606135711.608,92.773,-22.461,-20.996,389.160,0.000
1606135711.612,28.320,-25.391,-23.438,199.707,0.000
1606135711.616,-90.332,-31.738,-23.438,-297.363,0.000
1606135711.620,-118.652,-37.598,-28.320,-443.359,0.000
1606135711.624,-16.113,-30.762,-38.086,-49.316,0.000
1606135711.628,90.820,-18.555,-28.809,351.074,0.000
1606135711.632,48.340,-20.020,-24.414,248.535,0.000
1606135711.636,-96.191,-35.156,-35.645,-249.023,0.000
1606135711.640,-130.859,-35.645,-26.367,-459.961,0.000
1606135711.644,-23.926,-26.367,-20.020,-109.375,0.000
1606135711.648,81.543,-24.902,-21.484,328.125,0.000
1606135711.651,58.105,-28.320,-24.902,296.875,0.000
1606135711.655,-73.242,-36.133,-26.855,-186.523,0.000
1606135711.659,-142.090,-38.574,-23.438,-462.891,0.000
1606135711.663,-59.570,-40.039,-26.855,-175.781,0.000
1606135711.667,78.613,-31.250,-20.996,296.875,0.000
1606135711.671,78.125,-22.461,-10.742,342.773,0.000
1606135711.675,-70.801,-28.320,-28.320,-117.188,0.000
1606135711.679,-150.879,-23.438,-46.387,-448.242,0.000
1606135711.683,-67.383,-19.043,-33.203,-224.609,0.000
1606135711.687,66.895,-28.320,-13.672,269.043,0.000
1606135711.690,82.520,-32.715,-16.602,380.859,0.000
1606135711.694,-53.223,-29.785,-23.438,-45.410,0.000
1606135711.698,-156.738,-37.598,-30.762,-434.570,0.000
1606135711.702,-92.285,-34.180,-25.879,-282.227,0.000
1606135711.706,50.781,-17.578,-13.184,225.098,0.000
1606135711.710,90.820,-16.113,-20.020,402.344,0.000
1606135711.714,-32.715,-34.180,-42.480,13.672,0.000
1606135711.718,-145.996,-41.016,-44.922,-411.621,0.000
1606135711.722,-109.863,-34.668,-24.414,-327.148,0.000
1606135711.726,32.227,-21.973,-10.254,173.828,0.000
1606135711.730,95.215,-18.555,-21.484,414.551,0.000
1606135711.733,-1.953,-30.762,-33.203,95.703,0.000
1606135711.737,-114.746,-36.621,-30.762,-351.562,0.000
1606135711.741,-98.145,-32.227,-33.203,-352.539,0.000
1606135711.745,36.621,-20.996,-29.297,124.023,0.000
1606135711.749,99.121,-14.648,-23.438,411.133,0.000
1606135711.753,20.020,-25.391,-30.273,135.254,0.000
1606135711.757,-102.539,-33.203,-35.645,-332.520,0.000
1606135711.761,-122.559,-31.738,-28.809,-392.578,0.000
1606135711.765,1.465,-31.738,-22.461,43.457,0.000
1606135711.769,87.891,-27.344,-24.902,380.371,0.000
1606135711.773,24.902,-24.414,-40.039,196.289,0.000
1606135711.776,-98.145,-26.367,-36.621,-280.762,0.000
1606135711.780,-120.605,-29.297,-33.203,-418.457,0.000
1606135711.784,-7.324,-22.949,-34.180,-12.207,0.000
1606135711.788,91.797,-16.113,-28.809,387.695,0.000
1606135711.792,41.504,-28.809,-34.668,259.277,0.000
1606135711.796,-93.262,-37.109,-35.156,-243.164,0.000
1606135711.800,-141.602,-29.785,-29.297,-452.148,0.000
1606135711.804,-40.527,-12.695,-19.043,-84.961,0.000
1606135711.808,72.754,-6.836,-14.160,348.633,0.000
1606135711.812,47.852,-18.066,-14.160,294.922,0.000
1606135711.815,-84.473,-26.367,-21.484,-188.965,0.000
1606135711.819,-139.648,-29.297,-28.320,-453.125,0.000
1606135711.823,-43.945,-34.180,-23.438,-148.926,0.000
1606135711.827,64.941,-21.484,-18.555,297.852,0.000
1606135711.831,38.574,-7.324,-15.137,313.477,0.000
1606135711.835,-79.102,-16.113,-29.297,-137.695,0.000
1606135711.839,-165.527,-24.414,-37.598,-480.957,0.000
1606135711.843,-117.676,-27.344,-32.227,-273.438,0.000
1606135711.847,21.484,-26.367,-24.414,223.145,0.000
1606135711.851,40.039,-27.832,-20.020,343.262,0.000
1606135711.855,-79.102,-34.668,-27.832,-80.566,0.000
1606135711.858,-163.574,-38.574,-22.949,-464.844,0.000
1606135711.862,-107.422,-38.086,-24.414,-308.105,0.000
1606135711.866,34.668,-27.344,-28.809,199.707,0.000
1606135711.870,68.848,-27.832,-21.973,367.676,0.000
1606135711.874,-44.922,-36.621,-28.320,-11.719,0.000
1606135711.878,-140.137,-34.180,-33.203,-414.062,0.000
1606135711.882,-95.215,-24.902,-35.156,-320.312,0.000
1606135711.886,40.527,-20.996,-32.715,170.410,0.000
1606135711.890,90.820,-24.414,-20.508,402.344,0.000
1606135711.894,-9.277,-28.809,-16.113,75.195,0.000
1606135711.898,-132.812,-36.133,-28.809,-370.117,0.000
1606135711.901,-117.676,-34.668,-33.203,-361.816,0.000
1606135711.905,12.695,-29.297,-26.855,110.352,0.000
1606135711.909,84.961,-26.855,-27.344,411.133,0.000
1606135711.913,1.465,-34.668,-31.738,148.926,0.000
1606135711.917,-124.512,-44.922,-30.273,-325.684,0.000
1606135711.921,-125.000,-37.598,-30.762,-389.648,0.000
1606135711.925,4.395,-20.996,-30.762,47.363,0.000
1606135711.929,85.938,-19.043,-20.996,387.695,0.000
1606135711.933,6.348,-26.855,-14.160,192.871,0.000
1606135711.937,-123.047,-39.062,-23.926,-304.688,0.000
1606135711.940,-145.020,-42.969,-36.621,-451.172,0.000
1606135711.944,-25.879,-41.992,-39.062,-43.457,0.000
1606135711.948,77.148,-28.809,-25.879,360.352,0.000
1606135711.952,45.898,-23.438,-33.203,242.188,0.000
1606135711.956,-83.008,-41.016,-49.805,-254.395,0.000
1606135711.960,-139.160,-37.598,-48.340,-455.078,0.000
1606135711.964,-31.738,-21.973,-37.598,-86.914,0.000
1606135711.968,81.543,-19.531,-27.344,352.051,0.000
1606135711.972,56.641,-16.602,-18.555,310.059,0.000
1606135711.976,-65.918,-14.160,-22.949,-170.898,0.000
1606135711.980,-125.000,-17.578,-33.203,-441.406,0.000
1606135711.983,-43.457,-22.461,-31.738,-147.461,0.000
1606135711.987,67.871,-34.668,-32.227,297.852,0.000
1606135711.991,61.035,-40.527,-33.203,321.777,0.000
1606135711.995,-60.059,-38.086,-28.809,-135.254,0.000
1606135711.999,-136.719,-37.598,-23.926,-456.055,0.000
1606135712.003,-72.754,-32.715,-24.902,-229.492,0.000
1606135712.007,60.059,-18.555,-28.320,260.254,0.000
1606135712.011,76.172,-10.254,-29.785,364.258,0.000
1606135712.015,-40.039,-18.555,-36.133,-64.941,0.000
1606135712.019,-122.070,-26.855,-27.344,-426.270,0.000
1606135712.023,-80.566,-31.250,-27.832,-258.301,0.000
1606135712.026,38.086,-38.086,-45.410,223.145,0.000
1606135712.030,66.406,-32.715,-45.898,363.281,0.000
1606135712.034,-50.293,-29.297,-36.621,-26.367,0.000
1606135712.038,-146.484,-31.250,-26.367,-423.340,0.000
1606135712.042,-103.027,-33.203,-23.438,-330.566,0.000
1606135712.046,31.250,-29.297,-21.484,160.645,0.000
1606135712.050,79.102,-22.461,-18.555,385.254,0.000
1606135712.054,-26.855,-28.320,-24.902,55.664,0.000
1606135712.058,-134.277,-42.969,-41.016,-382.812,0.000
1606135712.062,-117.188,-41.504,-38.086,-375.000,0.000
1606135712.065,3.906,-24.414,-21.484,109.863,0.000
1606135712.069,73.730,-20.020,-19.043,410.156,0.000
1606135712.073,-11.719,-27.344,-19.531,139.160,0.000
1606135712.077,-135.742,-35.156,-27.832,-333.008,0.000
1606135712.081,-141.113,-44.922,-37.109,-405.273,0.000
1606135712.085,-6.348,-45.410,-23.926,46.875,0.000
1606135712.089,85.938,-31.250,-19.043,400.879,0.000
1606135712.093,19.043,-29.785,-32.715,194.336,0.000
1606135712.097,-104.004,-39.551,-35.156,-289.551,0.000
1606135712.101,-120.117,-39.062,-36.133,-416.992,0.000
1606135712.105,-0.977,-31.250,-41.016,-9.766,0.000
1606135712.108,110.840,-20.996,-37.109,378.906,0.000
1606135712.112,50.293,-24.902,-32.715,246.094,0.000
1606135712.116,-101.562,-37.109,-41.992,-249.023,0.000
1606135712.120,-130.859,-37.598,-43.457,-443.848,0.000
1606135712.124,-21.973,-35.645,-36.133,-86.914,0.000
1606135712.128,82.520,-27.344,-30.762,329.102,0.000
1606135712.132,53.711,-17.090,-20.508,274.414,0.000
1606135712.136,-77.148,-33.203,-26.367,-209.961,0.000
1606135712.140,-131.348,-38.086,-36.621,-461.914,0.000
1606135712.144,-35.156,-29.785,-34.180,-150.391,0.000
1606135712.148,83.984,-18.555,-30.762,308.594,0.000
1606135712.151,82.520,-15.137,-22.461,334.961,0.000
1606135712.155,-43.945,-27.344,-19.043,-120.117,0.000
1606135712.159,-121.094,-27.344,-22.461,-428.223,0.000
1606135712.163,-59.570,-29.297,-32.227,-190.430,0.000
1606135712.167,63.965,-29.785,-28.809,284.668,0.000
1606135712.171,84.473,-21.484,-18.555,374.512,0.000
1606135712.175,-37.598,-32.227,-22.461,-55.176,0.000
1606135712.179,-131.836,-31.250,-29.785,-427.246,0.000
1606135712.183,-83.496,-25.879,-34.668,-265.625,0.000
1606135712.187,49.316,-21.484,-25.391,234.375,0.000
1606135712.190,86.426,-20.508,-20.020,394.531,0.000
1606135712.194,-28.320,-25.391,-28.320,0.488,0.000
1606135712.198,-144.531,-39.551,-32.227,-412.109,0.000
1606135712.202,-103.027,-52.246,-33.203,-328.613,0.000
1606135712.206,30.762,-34.180,-22.461,163.086,0.000
1606135712.210,74.219,-20.996,-20.508,398.926,0.000
1606135712.214,-19.531,-24.902,-27.344,62.988,0.000
1606135712.218,-137.695,-30.762,-32.715,-390.625,0.000
1606135712.222,-119.629,-41.016,-35.156,-379.883,0.000
1606135712.226,25.879,-56.152,-24.414,105.469,0.000
1606135712.230,90.332,-41.504,-20.996,398.438,0.000
1606135712.233,0.488,-26.367,-32.227,122.559,0.000
1606135712.237,-115.234,-37.109,-32.715,-347.656,0.000
1606135712.241,-103.027,-35.156,-23.926,-399.902,0.000
1606135712.245,14.160,-26.855,-15.137,54.688,0.000
1606135712.249,86.914,-19.531,-14.648,397.461,0.000
1606135712.253,26.367,-21.973,-26.855,189.941,0.000
1606135712.257,-109.863,-29.785,-33.691,-301.758,0.000
1606135712.261,-142.090,-38.086,-33.203,-435.547,0.000
1606135712.265,-28.809,-51.758,-31.738,-27.832,0.000
1606135712.269,77.637,-34.668,-22.949,367.676,0.000
1606135712.273,42.480,-16.602,-20.508,251.953,0.000
1606135712.276,-95.703,-29.297,-24.414,-235.352,0.000
1606135712.280,-143.555,-34.180,-24.414,-448.730,0.000
1606135712.284,-34.668,-27.344,-27.832,-89.844,0.000
1606135712.288,73.730,-21.484,-24.414,349.121,0.000
1606135712.292,40.527,-16.113,-20.020,289.551,0.000
1606135712.296,-93.750,-26.367,-26.855,-204.590,0.000
1606135712.300,-148.438,-25.879,-23.438,-459.961,0.000
1606135712.304,-58.105,-29.785,-25.391,-142.578,0.000
1606135712.308,53.711,-40.527,-22.949,312.012,0.000
1606135712.312,53.223,-29.785,-15.625,316.895,0.000
1606135712.315,-70.312,-36.621,-20.508,-149.414,0.000
1606135712.319,-153.809,-38.574,-26.855,-457.520,0.000
1606135712.323,-67.383,-25.879,-31.250,-216.309,0.000
1606135712.327,57.129,-20.020,-25.391,261.230,0.000
1606135712.331,60.547,-20.020,-22.949,355.469,0.000
1606135712.335,-53.223,-25.391,-24.902,-69.824,0.000
1606135712.339,-140.625,-25.879,-18.555,-429.199,0.000
1606135712.343,-81.055,-27.344,-17.090,-263.672,0.000
1606135712.347,52.734,-24.902,-21.484,226.074,0.000
1606135712.351,80.566,-26.367,-25.879,386.230,0.000
1606135712.355,-33.203,-37.109,-32.715,-11.230,0.000
1606135712.358,-138.672,-32.715,-32.227,-423.340,0.000
1606135712.362,-102.539,-41.504,-40.039,-324.219,0.000
1606135712.366,33.203,-48.828,-43.457,171.875,0.000
1606135712.370,92.285,-20.508,-23.438,396.973,0.000
1606135712.374,-8.301,-13.184,-17.090,57.129,0.000
1606135712.378,-129.395,-25.879,-28.320,-388.184,0.000
1606135712.382,-104.492,-32.715,-27.832,-363.281,0.000
1606135712.386,27.344,-29.785,-25.391,114.746,0.000
1606135712.390,90.820,-25.879,-26.855,394.531,0.000
1606135712.394,-1.465,-25.879,-21.484,121.094,0.000
1606135712.398,-121.582,-28.320,-24.414,-337.891,0.000
1606135712.401,-117.188,-36.133,-30.762,-383.301,0.000
1606135712.405,0.000,-37.598,-26.855,60.059,0.000
1606135712.409,81.055,-25.879,-20.508,383.301,0.000
1606135712.413,17.578,-18.555,-28.320,175.781,0.000
1606135712.417,-104.980,-25.879,-28.809,-305.176,0.000
1606135712.421,-121.094,-29.297,-22.949,-419.434,0.000
1606135712.425,-13.672,-27.344,-23.438,-4.395,0.000
1606135712.429,79.102,-21.973,-14.648,379.883,0.000
1606135712.433,33.691,-17.578,-16.113,238.281,0.000
1606135712.437,-98.145,-25.879,-38.086,-261.719,0.000
1606135712.440,-133.789,-27.832,-40.527,-439.453,0.000
1606135712.444,-29.785,-30.273,-35.156,-66.406,0.000
1606135712.448,85.938,-26.855,-31.250,354.980,0.000
1606135712.452,66.406,-13.672,-17.578,297.363,0.000
1606135712.456,-62.988,-19.043,-24.414,-193.359,0.000
1606135712.460,-107.910,-19.531,-27.344,-435.547,0.000
1606135712.464,-15.137,-13.672,-21.484,-120.117,0.000
1606135712.468,88.379,-13.184,-18.555,323.730,0.000
1606135712.472,67.383,-13.672,-19.043,329.590,0.000
1606135712.476,-62.500,-27.344,-25.391,-131.836,0.000
1606135712.480,-131.836,-46.875,-31.738,-438.965,0.000
1606135712.483,-44.922,-32.715,-28.809,-190.918,0.000
1606135712.487,83.008,-12.207,-28.809,291.992,0.000
1606135712.491,83.984,-12.695,-21.484,366.699,0.000
1606135712.495,-40.527,-16.602,-28.809,-87.402,0.000
1606135712.499,-130.371,-23.926,-41.992,-452.637,0.000
1606135712.503,-78.613,-33.691,-38.086,-275.391,0.000
1606135712.507,56.152,-28.320,-34.668,223.145,0.000
1606135712.511,85.449,-16.602,-32.227,378.906,0.000
1606135712.515,-25.879,-23.926,-30.762,-22.461,0.000
1606135712.519,-128.906,-34.180,-35.645,-426.758,0.000
1606135712.523,-91.797,-35.156,-33.203,-311.523,0.000
1606135712.526,43.945,-30.273,-25.391,189.941,0.000
1606135712.530,76.660,-21.484,-30.762,392.578,0.000
1606135712.534,-36.133,-26.367,-41.016,46.875,0.000
1606135712.538,-135.254,-36.133,-33.203,-377.441,0.000
1606135712.542,-109.863,-30.762,-31.250,-354.980,0.000
1606135712.546,19.043,-19.531,-39.062,113.281,0.000
1606135712.550,87.402,-17.578,-21.484,387.207,0.000
1606135712.554,2.441,-24.414,-16.602,106.934,0.000
1606135712.558,-134.277,-30.762,-30.762,-364.258,0.000
1606135712.562,-125.977,-26.855,-30.762,-381.836,0.000
1606135712.565,11.719,-21.484,-22.949,84.961,0.000
1606135712.569,90.332,-16.602,-23.926,395.508,0.000
1606135712.573,23.438,-20.020,-27.832,180.176,0.000
1606135712.577,-99.121,-27.832,-25.879,-307.129,0.000
1606135712.581,-109.375,-25.879,-21.973,-410.156,0.000
1606135712.585,-2.930,-4.395,-25.879,21.973,0.000
1606135712.589,86.426,-8.789,-27.832,394.043,0.000
1606135712.593,34.180,-24.414,-25.391,228.516,0.000
1606135712.597,-105.957,-27.344,-29.785,-270.996,0.000
1606135712.601,-138.672,-24.902,-25.879,-444.824,0.000
1606135712.605,-22.461,-19.531,-20.020,-67.871,0.000
1606135712.608,85.449,-19.531,-28.809,346.191,0.000
1606135712.612,52.246,-19.043,-38.574,262.207,0.000
1606135712.616,-92.285,-24.902,-44.922,-229.004,0.000
1606135712.620,-144.043,-31.250,-41.504,-456.055,0.000
1606135712.624,-35.156,-27.832,-33.203,-128.906,0.000
1606135712.628,78.125,-28.320,-31.250,320.801,0.000
1606135712.632,67.871,-29.297,-21.973,327.148,0.000
1606135712.636,-57.129,-35.645,-23.926,-153.809,0.000
1606135712.640,-133.789,-32.715,-29.297,-463.867,0.000
1606135712.644,-51.270,-23.926,-33.203,-208.008,0.000
1606135712.648,79.102,-16.602,-26.367,274.414,0.000
1606135712.651,79.102,-13.672,-14.160,350.586,0.000
1606135712.655,-45.898,-27.832,-29.297,-97.656,0.000
1606135712.659,-124.023,-36.133,-32.715,-436.523,0.000
1606135712.663,-69.824,-38.086,-23.438,-238.770,0.000
1606135712.667,59.082,-33.203,-29.297,244.629,0.000
1606135712.671,81.055,-33.203,-31.250,384.277,0.000
1606135712.675,-34.668,-35.645,-30.762,-23.438,0.000
1606135712.679,-124.023,-25.391,-31.738,-419.434,0.000
1606135712.683,-85.449,-18.066,-23.926,-298.340,0.000
1606135712.687,47.852,-24.414,-20.508,190.430,0.000
1606135712.690,92.285,-22.949,-22.461,385.254,0.000
1606135712.694,-10.742,-21.973,-29.297,38.086,0.000
1606135712.698,-121.094,-30.762,-35.645,-389.160,0.000
1606135712.702,-94.238,-35.645,-40.039,-346.680,0.000
1606135712.706,42.480,-32.715,-38.086,140.625,0.000
1606135712.710,104.004,-26.367,-28.809,408.691,0.000
1606135712.714,12.695,-24.902,-26.855,114.746,0.000
1606135712.718,-98.145,-23.438,-32.715,-346.680,0.000
1606135712.722,-93.750,-17.090,-36.621,-370.605,0.000
1606135712.726,22.461,-16.602,-28.320,88.867,0.000
1606135712.730,95.215,-25.391,-23.438,395.020,0.000
1606135712.733,11.230,-25.879,-22.461,164.551,0.000
1606135712.737,-119.629,-30.762,-35.156,-318.359,0.000
1606135712.741,-141.602,-39.062,-40.527,-426.270,0.000
1606135712.745,-25.879,-35.645,-33.691,8.789,0.000
1606135712.749,67.871,-23.926,-28.320,384.277,0.000
1606135712.753,13.672,-20.508,-29.785,220.703,0.000
1606135712.757,-110.840,-22.949,-29.785,-261.230,0.000
1606135712.761,-139.648,-24.414,-24.414,-423.340,0.000
1606135712.765,-22.949,-22.949,-22.461,-51.758,0.000
1606135712.769,88.867,-14.648,-21.484,369.629,0.000
1606135712.773,43.945,-15.137,-22.949,294.922,0.000
1606135712.776,-94.238,-32.227,-35.645,-210.938,0.000
1606135712.780,-151.855,-42.969,-46.387,-452.148,0.000
1606135712.784,-66.895,-44.434,-43.945,-129.395,0.000
1606135712.788,55.176,-40.527,-29.297,315.430,0.000
1606135712.792,49.805,-20.508,-21.973,315.918,0.000
1606135712.796,-83.496,-21.484,-25.391,-159.668,0.000
1606135712.800,-151.367,-36.133,-32.227,-456.055,0.000
1606135712.804,-62.988,-20.996,-28.320,-177.246,0.000
1606135712.808,60.059,0.000,-19.043,290.039,0.000
1606135712.812,51.270,-9.766,-23.438,332.031,0.000
1606135712.815,-84.961,-25.391,-34.668,-121.582,0.000
1606135712.819,-156.738,-22.949,-41.992,-452.637,0.000
1606135712.823,-75.684,-27.832,-32.227,-245.605,0.000
1606135712.827,57.129,-28.320,-20.020,238.281,0.000
1606135712.831,80.078,-19.531,-24.414,369.141,0.000
1606135712.835,-41.016,-22.461,-30.273,-35.156,0.000
1606135712.839,-148.438,-29.785,-39.062,-431.152,0.000
1606135712.843,-98.145,-31.250,-42.480,-300.293,0.000
1606135712.847,47.363,-21.973,-34.180,201.172,0.000
1606135712.851,92.285,-20.996,-25.391,402.344,0.000
1606135712.855,-19.043,-32.715,-33.203,38.574,0.000
1606135712.858,-130.859,-41.504,-45.410,-393.555,0.000
1606135712.862,-96.680,-38.086,-44.922,-333.984,0.000
1606135712.866,40.039,-22.949,-36.133,161.133,0.000
1606135712.870,93.262,-14.160,-21.484,424.316,0.000
1606135712.874,-7.812,-21.484,-25.879,111.328,0.000
1606135712.878,-134.277,-30.762,-37.109,-357.910,0.000
1606135712.882,-119.629,-36.621,-44.922,-375.000,0.000
1606135712.886,13.184,-37.109,-48.340,88.867,0.000
1606135712.890,90.820,-29.297,-34.668,406.738,0.000
1606135712.894,10.742,-24.414,-32.715,164.062,0.000
1606135712.898,-123.047,-26.855,-44.922,-320.312,0.000
1606135712.901,-126.953,-28.320,-38.086,-410.156,0.000
1606135712.905,2.930,-16.602,-23.926,16.602,0.000
1606135712.909,97.656,-6.348,-26.367,383.301,0.000
1606135712.913,49.316,-15.625,-31.250,221.191,0.000
1606135712.917,-91.309,-29.785,-41.016,-282.227,0.000
1606135712.921,-130.859,-28.809,-45.410,-446.289,0.000
1606135712.925,-7.812,-33.203,-38.574,-54.199,0.000
1606135712.929,88.867,-24.902,-34.668,347.168,0.000
1606135712.933,48.340,-15.137,-29.297,255.371,0.000
1606135712.937,-78.613,-27.344,-30.762,-233.398,0.000
1606135712.940,-127.930,-35.156,-33.691,-458.984,0.000
1606135712.944,-25.879,-29.297,-32.715,-112.305,0.000
1606135712.948,85.938,-19.043,-39.551,332.031,0.000
1606135712.952,64.453,-20.508,-38.574,301.758,0.000
1606135712.956,-59.570,-28.809,-28.809,-170.410,0.000
1606135712.960,-135.742,-29.785,-28.809,-443.848,0.000
1606135712.964,-65.430,-38.086,-27.344,-176.758,0.000
1606135712.968,51.270,-41.992,-22.949,278.809,0.000
1606135712.972,53.223,-29.785,-16.602,327.148,0.000
1606135712.976,-60.059,-40.527,-23.926,-116.211,0.000
1606135712.980,-143.066,-45.898,-39.551,-451.172,0.000
1606135712.983,-80.566,-41.016,-35.156,-244.629,0.000
1606135712.987,51.270,-41.992,-30.273,229.492,0.000
1606135712.991,69.824,-29.297,-29.297,349.121,0.000
1606135712.995,-54.199,-22.949,-31.738,-57.129,0.000
1606135712.999,-143.555,-26.367,-35.645,-442.871,0.000
1606135713.003,-94.727,-30.273,-36.133,-309.570,0.000
1606135713.007,27.344,-28.809,-29.785,189.453,0.000
1606135713.011,61.523,-32.227,-25.391,375.000,0.000
1606135713.015,-52.246,-40.527,-40.527,5.371,0.000
1606135713.019,-158.203,-34.180,-46.387,-417.480,0.000
1606135713.023,-108.887,-34.668,-29.785,-340.820,0.000
1606135713.026,23.438,-39.062,-24.902,160.156,0.000
1606135713.030,71.777,-36.133,-18.066,409.668,0.000
1606135713.034,-17.578,-29.785,-15.137,103.027,0.000
1606135713.038,-132.812,-26.855,-23.438,-343.750,0.000
1606135713.042,-108.398,-32.227,-19.043,-353.027,0.000
1606135713.046,9.277,-30.762,-21.484,111.328,0.000
1606135713.050,65.918,-25.879,-25.879,419.922,0.000
1606135713.054,0.000,-31.250,-27.832,182.617,0.000
1606135713.058,-120.117,-37.598,-34.668,-291.016,0.000
1606135713.062,-119.141,-31.250,-36.621,-385.742,0.000
1606135713.065,9.277,-42.969,-34.668,42.480,0.000
1606135713.069,88.867,-34.668,-24.414,404.785,0.000
1606135713.073,32.715,-16.113,-18.066,231.934,0.000
1606135713.077,-88.867,-24.902,-25.391,-264.160,0.000
1606135713.081,-111.328,-27.344,-24.902,-419.922,0.000
1606135713.085,-4.395,-20.020,-22.949,-38.086,0.000
1606135713.089,93.750,-16.113,-30.762,351.562,0.000
1606135713.093,46.875,-21.484,-31.250,244.629,0.000
1606135713.097,-104.004,-33.691,-35.645,-248.535,0.000
1606135713.101,-143.555,-38.086,-30.273,-450.195,0.000
1606135713.105,-41.504,-39.551,-17.578,-103.027,0.000
1606135713.108,65.430,-25.879,-21.973,327.148,0.000
1606135713.112,49.805,-13.672,-37.598,291.992,0.000
1606135713.116,-83.496,-27.344,-43.945,-190.430,0.000
1606135713.120,-155.273,-28.809,-41.016,-470.215,0.000
1606135713.124,-63.477,-28.320,-37.109,-192.383,0.000
1606135713.128,62.500,-35.645,-23.438,277.832,0.000
1606135713.132,48.828,-38.086,-24.414,324.219,0.000
1606135713.136,-80.078,-34.668,-34.180,-129.883,0.000
1606135713.140,-162.598,-36.621,-32.227,-471.191,0.000
1606135713.144,-95.215,-40.527,-34.668,-253.418,0.000
1606135713.148,47.363,-28.320,-28.320,251.465,0.000
1606135713.151,66.406,-16.602,-17.578,359.863,0.000
1606135713.155,-56.152,-27.344,-24.414,-59.082,0.000
1606135713.159,-144.043,-41.016,-32.715,-432.129,0.000
1606135713.163,-90.332,-52.734,-24.902,-294.922,0.000
1606135713.167,33.203,-50.293,-18.555,196.777,0.000
1606135713.171,64.941,-31.250,-16.602,381.836,0.000
1606135713.175,-34.180,-38.574,-15.137,10.254,0.000
1606135713.179,-131.348,-45.898,-27.832,-412.109,0.000
1606135713.183,-91.309,-34.668,-30.273,-345.703,0.000
1606135713.187,47.363,-23.438,-19.043,141.602,0.000
1606135713.190,95.703,-16.113,-18.555,392.090,0.000
1606135713.194,-4.883,-23.438,-19.531,85.449,0.000
1606135713.198,-114.746,-30.273,-30.762,-366.699,0.000
1606135713.202,-101.562,-36.621,-42.969,-378.418,0.000
1606135713.206,31.738,-34.180,-30.762,89.844,0.000
1606135713.210,94.727,-18.066,-29.297,379.883,0.000
1606135713.214,10.254,-9.766,-37.109,125.488,0.000
1606135713.218,-106.934,-20.508,-38.086,-344.238,0.000
1606135713.222,-129.883,-28.320,-47.852,-437.012,0.000
1606135713.226,-7.324,-13.184,-48.340,0.977,0.000
1606135713.230,88.867,-12.207,-34.668,370.117,0.000
1606135713.233,14.648,-25.391,-32.227,181.641,0.000
1606135713.237,-114.258,-25.879,-41.992,-307.129,0.000
1606135713.241,-133.301,-14.648,-43.945,-436.035,0.000
1606135713.245,-22.949,-25.391,-41.016,-40.527,0.000
1606135713.249,79.102,-33.203,-31.738,353.027,0.000
1606135713.253,43.945,-27.832,-28.320,244.629,0.000
1606135713.257,-88.379,-24.902,-25.879,-246.582,0.000
1606135713.261,-137.695,-20.508,-33.691,-453.613,0.000
1606135713.265,-31.250,-23.926,-35.645,-97.168,0.000
1606135713.269,83.496,-24.414,-20.020,346.680,0.000
1606135713.273,56.641,-27.344,-16.113,309.082,0.000
1606135713.276,-72.754,-24.414,-23.438,-173.828,0.000
1606135713.280,-119.629,-17.578,-30.762,-439.941,0.000
1606135713.284,-27.344,-16.602,-18.555,-143.066,0.000
1606135713.288,86.426,-14.648,-15.625,315.918,0.000
1606135713.292,65.918,-13.184,-33.691,334.473,0.000
1606135713.296,-78.125,-19.043,-36.621,-130.371,0.000
1606135713.300,-147.949,-28.809,-32.227,-452.637,0.000
1606135713.304,-73.730,-27.832,-38.574,-222.656,0.000
1606135713.308,42.480,-20.996,-37.598,257.812,0.000
1606135713.312,61.523,-25.391,-28.809,360.352,0.000
1606135713.315,-57.129,-40.039,-30.273,-63.477,0.000
1606135713.319,-153.809,-46.875,-41.016,-440.918,0.000
1606135713.323,-90.332,-40.039,-45.410,-284.668,0.000
1606135713.327,58.594,-25.391,-30.762,219.727,0.000
1606135713.331,94.238,-17.578,-22.949,397.949,0.000
1606135713.335,-13.672,-23.438,-35.156,19.043,0.000
1606135713.339,-120.605,-33.691,-34.668,-395.996,0.000
1606135713.343,-100.098,-41.016,-31.250,-327.148,0.000
1606135713.347,36.621,-38.086,-26.855,151.367,0.000
1606135713.351,90.332,-29.297,-16.602,387.695,0.000
1606135713.355,-19.531,-38.574,-17.578,64.941,0.000
1606135713.358,-121.094,-42.969,-24.902,-378.418,0.000
1606135713.362,-99.121,-36.621,-30.273,-368.164,0.000
1606135713.366,24.902,-37.109,-22.949,111.816,0.000
1606135713.370,92.773,-34.180,-5.859,420.410,0.000
1606135713.374,-0.977,-36.621,-20.508,150.879,0.000
1606135713.378,-128.906,-40.039,-36.133,-334.473,0.000
1606135713.382,-125.488,-35.645,-26.367,-398.438,0.000
1606135713.386,-2.930,-33.691,-12.207,43.457,0.000
1606135713.390,76.172,-27.832,-5.371,388.672,0.000
1606135713.394,13.672,-23.438,-15.625,193.848,0.000
1606135713.398,-113.281,-29.297,-17.578,-295.898,0.000
1606135713.401,-135.742,-31.738,-23.438,-426.758,0.000
1606135713.405,-17.578,-27.832,-32.227,-25.391,0.000
1606135713.409,88.867,-24.414,-18.555,372.559,0.000
1606135713.413,52.734,-22.949,-7.324,260.742,0.000
1606135713.417,-78.125,-37.109,-20.996,-232.422,0.000
1606135713.421,-123.047,-42.969,-27.832,-434.082,0.000
1606135713.425,-26.367,-24.902,-25.879,-83.496,0.000
1606135713.429,80.078,-14.160,-27.344,344.238,0.000
1606135713.433,45.410,-20.020,-20.508,294.922,0.000
1606135713.437,-90.332,-27.832,-17.090,-195.801,0.000
1606135713.440,-147.461,-32.227,-19.043,-458.984,0.000
1606135713.444,-55.664,-19.043,-25.391,-155.762,0.000
1606135713.448,68.359,-6.836,-22.461,312.012,0.000
1606135713.452,66.895,-22.949,-18.555,343.262,0.000
1606135713.456,-60.547,-45.410,-23.438,-118.164,0.000
1606135713.460,-138.184,-47.852,-28.320,-433.105,0.000
1606135713.464,-65.430,-34.668,-34.180,-207.520,0.000
1606135713.468,51.270,-30.762,-32.227,260.254,0.000
1606135713.472,63.965,-17.578,-24.414,365.234,0.000
1606135713.476,-47.852,-19.531,-27.832,-57.617,0.000
1606135713.480,-146.973,-46.875,-26.367,-442.871,0.000
1606135713.483,-102.051,-26.855,-26.855,-282.715,0.000
1606135713.487,29.785,-4.883,-27.832,214.844,0.000
1606135713.491,61.523,-32.227,-29.297,375.488,0.000
1606135713.495,-43.457,-43.945,-38.086,1.953,0.000
1606135713.499,-130.371,-42.480,-36.621,-395.020,0.000
1606135713.503,-92.773,-39.551,-28.809,-313.477,0.000
1606135713.507,38.574,-32.715,-30.273,172.363,0.000
1606135713.511,96.680,-36.133,-36.133,398.926,0.000
1606135713.515,-10.254,-40.039,-49.316,63.965,0.000
1606135713.519,-125.977,-44.434,-50.293,-373.535,0.000
1606135713.523,-101.562,-28.320,-39.062,-346.680,0.000
1606135713.526,33.203,-8.301,-34.668,125.000,0.000
1606135713.530,92.773,-21.484,-39.551,398.438,0.000
1606135713.534,2.441,-28.320,-38.574,126.465,0.000
1606135713.538,-107.422,-39.062,-38.574,-333.496,0.000
1606135713.542,-111.816,-31.250,-41.504,-391.113,0.000
1606135713.546,16.602,-8.301,-32.715,59.570,0.000
1606135713.550,109.863,-23.926,-19.043,411.621,0.000
1606135713.554,24.902,-37.109,-24.414,200.195,0.000
1606135713.558,-112.305,-41.992,-37.598,-302.246,0.000
1606135713.562,-124.023,-35.156,-40.039,-429.688,0.000
1606135713.565,-5.859,-24.902,-37.598,-16.113,0.000
1606135713.569,89.355,-23.438,-23.438,379.883,0.000
1606135713.573,41.504,-24.902,-24.902,242.676,0.000
1606135713.577,-94.238,-40.527,-33.203,-263.672,0.000
1606135713.581,-145.020,-48.828,-35.156,-458.496,0.000
1606135713.585,-39.062,-20.996,-28.809,-92.773,0.000
1606135713.589,76.172,-19.043,-18.555,334.473,0.000
1606135713.593,48.828,-28.320,-23.926,276.367,0.000
1606135713.597,-87.891,-30.762,-20.996,-207.520,0.000
1606135713.601,-141.602,-43.945,-19.043,-450.684,0.000
1606135713.605,-43.457,-32.227,-27.344,-135.254,0.000
1606135713.608,80.078,-20.996,-28.809,321.777,0.000
1606135713.612,70.801,-27.344,-21.484,334.473,0.000
1606135713.616,-59.082,-31.738,-16.602,-114.746,0.000
1606135713.620,-142.578,-44.922,-19.531,-433.105,0.000
1606135713.624,-76.660,-10.742,-23.438,-210.938,0.000
1606135713.628,49.805,18.066,-20.508,266.113,0.000
1606135713.632,52.246,-25.879,-27.344,341.797,0.000
1606135713.636,-61.035,-36.133,-28.320,-94.238,0.000
1606135713.640,-142.578,-38.086,-30.762,-453.125,0.000
1606135713.644,-80.078,-45.410,-40.039,-281.250,0.000
1606135713.648,54.199,-29.785,-38.086,214.844,0.000
1606135713.651,81.543,-21.973,-29.785,379.395,0.000
1606135713.655,-26.855,-28.320,-27.344,-10.254,0.000
1606135713.659,-118.652,-38.086,-26.367,-412.109,0.000
1606135713.663,-93.262,-16.602,-29.297,-315.918,0.000
1606135713.667,31.250,6.836,-20.020,168.457,0.000
1606135713.671,83.008,-16.602,-21.484,379.395,0.000
1606135713.675,-20.020,-32.227,-38.086,37.109,0.000
1606135713.679,-134.277,-41.992,-35.645,-394.043,0.000
1606135713.683,-117.676,-36.621,-31.250,-372.559,0.000
1606135713.687,19.531,-27.832,-19.531,104.004,0.000
1606135713.690,80.566,-29.785,-17.090,381.348,0.000
1606135713.694,-2.441,-25.391,-31.250,103.516,0.000
1606135713.698,-100.586,-29.297,-31.250,-342.285,0.000
1606135713.702,-106.445,-37.109,-28.320,-389.648,0.000
1606135713.706,-0.488,-22.461,-18.555,49.805,0.000
1606135713.710,75.195,-24.414,-11.230,381.348,0.000
1606135713.714,6.836,-38.574,-24.902,167.969,0.000
1606135713.718,-128.418,-53.223,-34.668,-328.613,0.000
1606135713.722,-150.391,-56.641,-32.227,-458.496,0.000
1606135713.726,-43.457,-50.781,-24.414,-36.621,0.000
1606135713.730,47.363,-47.852,-18.555,348.633,0.000
1606135713.733,9.277,-42.480,-14.648,219.727,0.000
1606135713.737,-121.582,-51.758,-24.902,-271.484,0.000
1606135713.741,-153.809,-52.734,-29.297,-462.891,0.000
1606135713.745,-43.457,-39.551,-20.508,-85.449,0.000
1606135713.749,65.430,-34.180,-19.043,340.820,0.000
1606135713.753,43.457,-31.738,-13.672,282.227,0.000
1606135713.757,-72.754,-26.367,-17.578,-189.453,0.000
1606135713.761,-126.953,-25.879,-26.855,-441.406,0.000
1606135713.765,-42.969,-13.672,-26.855,-137.207,0.000
1606135713.769,81.543,-10.742,-21.973,321.777,0.000
1606135713.773,72.266,-21.484,-13.184,334.473,0.000
1606135713.776,-63.965,-26.855,-23.926,-138.672,0.000
1606135713.780,-133.301,-37.598,-32.715,-439.453,0.000
1606135713.784,-58.105,-47.363,-20.996,-194.824,0.000
1606135713.788,65.430,-37.109,-11.230,277.344,0.000
1606135713.792,73.242,-25.391,-12.207,362.305,0.000
1606135713.796,-40.039,-34.668,-20.508,-74.219,0.000
1606135713.800,-126.465,-41.992,-35.645,-430.176,0.000
1606135713.804,-82.031,-29.297,-35.156,-247.559,0.000
1606135713.808,53.223,-12.695,-26.367,245.117,0.000
1606135713.812,88.379,-21.973,-22.461,382.324,0.000
1606135713.815,-26.367,-41.504,-30.273,-23.926,0.000
1606135713.819,-138.672,-39.551,-33.691,-416.992,0.000
1606135713.823,-103.516,-27.344,-27.832,-300.293,0.000
1606135713.827,30.762,-25.879,-19.531,186.523,0.000
1606135713.831,76.660,-24.902,-10.254,393.066,0.000
1606135713.835,-25.879,-30.273,-15.625,49.316,0.000
1606135713.839,-145.996,-37.598,-20.508,-388.184,0.000
1606135713.843,-127.930,-37.598,-26.367,-357.422,0.000
1606135713.847,14.648,-28.809,-21.973,127.441,0.000
1606135713.851,76.660,-28.320,-20.508,398.926,0.000
1606135713.855,-15.625,-31.738,-29.785,105.957,0.000
1606135713.858,-136.719,-44.434,-38.086,-366.211,0.000
1606135713.862,-135.742,-41.504,-44.434,-414.062,0.000
1606135713.866,-5.371,-19.043,-38.574,47.363,0.000
1606135713.870,88.867,-19.043,-23.438,381.348,0.000
1606135713.874,14.648,-27.344,-19.043,167.969,0.000
1606135713.878,-117.188,-32.715,-29.297,-307.617,0.000
1606135713.882,-127.930,-39.551,-31.738,-418.457,0.000
1606135713.886,-2.930,-40.039,-27.344,3.418,0.000
1606135713.890,95.215,-20.508,-15.137,388.672,0.000
1606135713.894,38.574,-15.137,-10.742,236.328,0.000
1606135713.898,-85.938,-25.879,-21.973,-248.535,0.000
1606135713.901,-126.465,-30.273,-27.832,-426.758,0.000
1606135713.905,-26.855,0.000,-29.297,-68.359,0.000
1606135713.909,72.266,-0.488,-23.438,341.309,0.000
1606135713.913,54.688,-30.762,-20.996,276.855,0.000
1606135713.917,-72.266,-35.645,-27.832,-202.148,0.000
1606135713.921,-143.066,-44.922,-31.250,-436.035,0.000
1606135713.925,-40.039,-39.062,-33.203,-117.188,0.000
1606135713.929,85.938,-31.738,-32.227,330.566,0.000
1606135713.933,68.359,-30.762,-26.367,330.566,0.000
1606135713.937,-69.824,-31.738,-21.973,-152.344,0.000
1606135713.940,-133.301,-33.691,-23.438,-440.918,0.000
1606135713.944,-46.387,-12.207,-30.273,-169.922,0.000
1606135713.948,71.777,-14.160,-19.043,293.457,0.000
1606135713.952,63.477,-42.480,-15.625,356.445,0.000
1606135713.956,-74.707,-40.039,-30.273,-93.262,0.000
1606135713.960,-144.531,-36.621,-36.621,-441.895,0.000
1606135713.964,-81.543,-40.039,-32.715,-246.582,0.000
1606135713.968,45.898,-33.203,-27.344,244.141,0.000
1606135713.972,73.242,-30.762,-23.438,378.906,0.000
1606135713.976,-39.551,-36.133,-22.461,-23.438,0.000
1606135713.980,-136.230,-31.738,-30.762,-410.645,0.000
1606135713.983,-78.125,-22.949,-31.738,-290.039,0.000
1606135713.987,53.711,-20.508,-18.555,197.266,0.000
1606135713.991,77.637,-23.926,-12.695,402.832,0.000
1606135713.995,-29.297,-32.227,-26.855,44.434,0.000
1606135713.999,-138.672,-36.133,-39.551,-395.996,0.000
1606135714.003,-107.910,-32.715,-29.297,-347.168,0.000
1606135714.007,25.879,-12.695,-25.879,139.648,0.000
1606135714.011,96.191,-9.766,-27.344,400.879,0.000
1606135714.015,6.836,-26.855,-30.273,100.586,0.000
1606135714.019,-123.535,-32.227,-36.133,-366.699,0.000
1606135714.023,-122.559,-34.668,-33.203,-389.160,0.000
1606135714.026,7.812,-34.180,-22.461,75.684,0.000
1606135714.030,91.797,-24.414,-15.625,389.160,0.000
1606135714.034,25.879,-18.555,-20.996,164.551,0.000
1606135714.038,-112.793,-24.414,-28.809,-308.105,0.000
1606135714.042,-144.531,-29.785,-35.156,-417.480,0.000
1606135714.046,-21.484,-27.344,-28.809,2.441,0.000
1606135714.050,83.984,-22.461,-13.672,385.742,0.000
1606135714.054,31.250,-32.715,-9.277,243.164,0.000
1606135714.058,-90.332,-39.062,-19.531,-240.234,0.000
1606135714.062,-129.883,-29.785,-38.086,-422.852,0.000
1606135714.065,-41.504,-26.855,-35.156,-65.918,0.000
1606135714.069,69.824,-20.020,-24.902,349.121,0.000
1606135714.073,28.809,-18.555,-28.320,262.695,0.000
1606135714.077,-107.422,-39.551,-31.738,-232.422,0.000
1606135714.081,-156.738,-45.410,-25.879,-452.148,0.000
1606135714.085,-61.523,-7.324,-28.809,-113.281,0.000
1606135714.089,57.617,-5.371,-29.785,330.078,0.000
1606135714.093,37.598,-30.762,-17.090,315.430,0.000
1606135714.097,-89.844,-41.992,-23.438,-165.039,0.000
1606135714.101,-142.090,-56.152,-30.273,-453.125,0.000
1606135714.105,-62.988,-41.504,-27.832,-183.594,0.000
1606135714.108,57.129,-24.902,-35.156,282.227,0.000
1606135714.112,81.055,-27.832,-34.668,342.773,0.000
1606135714.116,-38.086,-39.551,-29.785,-90.820,0.000
1606135714.120,-138.672,-38.574,-37.109,-435.547,0.000
1606135714.124,-76.660,-35.645,-42.969,-249.512,0.000
1606135714.128,62.012,-43.457,-33.203,239.746,0.000
1606135714.132,82.031,-30.762,-33.203,369.141,0.000
1606135714.136,-45.898,-20.996,-38.086,-42.480,0.000
1606135714.140,-134.766,-28.320,-30.762,-429.688,0.000
1606135714.144,-91.797,-21.973,-30.762,-314.941,0.000
1606135714.148,30.273,-14.160,-22.461,174.805,0.000
1606135714.151,84.473,-19.531,-8.789,376.465,0.000
1606135714.155,-16.602,-21.484,-25.391,20.508,0.000
1606135714.159,-139.648,-39.551,-38.086,-411.133,0.000
1606135714.163,-114.258,-27.832,-32.715,-364.258,0.000
1606135714.167,24.414,-12.695,-29.785,126.465,0.000
1606135714.171,83.008,-28.809,-27.344,381.836,0.000
1606135714.175,-3.418,-29.297,-24.902,80.566,0.000
1606135714.179,-115.234,-33.203,-27.344,-361.328,0.000
1606135714.183,-115.723,-25.391,-38.086,-386.719,0.000
1606135714.187,7.812,13.672,-36.133,72.266,0.000
1606135714.190,80.566,1.953,-26.855,394.043,0.000
1606135714.194,3.418,-26.855,-27.832,157.227,0.000
1606135714.198,-120.605,-39.062,-42.480,-328.613,0.000
1606135714.202,-127.441,-41.504,-45.898,-419.434,0.000
1606135714.206,0.000,-33.691,-26.367,18.555,0.000
1606135714.210,90.820,-28.809,-13.184,379.395,0.000
1606135714.214,29.785,-24.414,-21.973,210.938,0.000
1606135714.218,-96.191,-47.363,-40.039,-277.344,0.000
1606135714.222,-123.047,-51.270,-43.945,-439.453,0.000
1606135714.226,-10.742,-6.836,-36.133,-46.875,0.000
1606135714.230,86.914,-3.906,-26.367,354.492,0.000
1606135714.233,42.480,-18.555,-31.250,254.395,0.000
1606135714.237,-90.332,-32.227,-49.805,-240.723,0.000
1606135714.241,-137.207,-43.945,-41.016,-455.566,0.000
1606135714.245,-42.969,-38.574,-28.809,-115.234,0.000
1606135714.249,89.844,-24.902,-25.879,319.336,0.000
1606135714.253,59.570,-28.320,-31.250,292.969,0.000
1606135714.257,-106.934,-41.504,-44.434,-183.105,0.000
1606135714.261,-150.879,-36.621,-35.156,-449.707,0.000
1606135714.265,-53.223,-29.785,-31.250,-168.945,0.000
1606135714.269,72.754,-28.320,-33.691,295.410,0.000
1606135714.273,78.125,-24.414,-29.297,347.656,0.000
1606135714.276,-58.594,-22.949,-36.621,-106.934,0.000
1606135714.280,-139.648,-33.203,-33.691,-438.965,0.000
1606135714.284,-61.523,-4.395,-26.855,-224.609,0.000
1606135714.288,66.895,20.020,-21.484,259.766,0.000
1606135714.292,82.520,-18.066,-19.043,379.395,0.000
1606135714.296,-23.926,-41.016,-24.902,-44.434,0.000
1606135714.300,-126.465,-47.852,-31.250,-434.082,0.000
1606135714.304,-109.375,-38.086,-30.273,-292.969,0.000
1606135714.308,16.602,-32.715,-26.855,194.824,0.000
1606135714.312,57.129,-38.086,-31.250,371.094,0.000
1606135714.315,-42.480,-34.180,-38.086,7.812,0.000
1606135714.319,-145.020,-39.062,-34.668,-403.809,0.000
1606135714.323,-118.652,-28.809,-29.297,-345.703,0.000
1606135714.327,19.043,-11.719,-19.531,135.742,0.000
1606135714.331,78.613,-21.973,-9.766,387.207,0.000
1606135714.335,-20.508,-27.344,-23.926,78.125,0.000
1606135714.339,-126.465,-40.527,-30.762,-376.953,0.000
1606135714.343,-121.094,-41.016,-32.715,-394.043,0.000
1606135714.347,-11.230,-32.715,-38.574,62.500,0.000
1606135714.351,82.520,-34.668,-37.109,368.164,0.000
1606135714.355,21.973,-35.645,-29.297,132.812,0.000
1606135714.358,-111.328,-46.875,-33.691,-337.402,0.000
1606135714.362,-126.465,-40.527,-41.016,-421.387,0.000
1606135714.366,0.000,-4.883,-34.180,26.855,0.000
1606135714.370,92.285,-11.230,-20.508,390.137,0.000
1606135714.374,21.484,-30.762,-20.508,190.918,0.000
1606135714.378,-103.027,-36.133,-32.227,-300.293,0.000
1606135714.382,-119.629,-23.926,-33.203,-431.152,0.000
1606135714.386,-9.277,-1.953,-24.414,-33.691,0.000
1606135714.390,96.680,-10.254,-20.996,364.258,0.000
1606135714.394,54.199,-16.602,-20.996,259.277,0.000
1606135714.398,-68.848,-27.344,-21.484,-225.098,0.000
1606135714.401,-118.164,-36.133,-23.926,-436.523,0.000
1606135714.405,-27.832,-28.809,-13.184,-89.844,0.000
1606135714.409,85.449,-20.020,-10.742,348.633,0.000
1606135714.413,58.594,-20.996,-22.461,314.941,0.000
1606135714.417,-63.965,-37.598,-24.414,-168.945,0.000
1606135714.421,-127.930,-43.945,-24.414,-449.707,0.000
1606135714.425,-54.199,-12.207,-32.227,-174.805,0.000
1606135714.429,71.777,-9.766,-28.809,288.574,0.000
1606135714.433,77.148,-22.461,-20.020,337.402,0.000
1606135714.437,-64.453,-28.320,-25.391,-124.512,0.000
1606135714.440,-154.785,-37.109,-23.926,-462.891,0.000
1606135714.444,-79.102,-29.785,-11.719,-232.910,0.000
1606135714.448,53.223,-29.785,-8.301,260.742,0.000
1606135714.452,80.078,-30.762,-15.137,374.023,0.000
1606135714.456,-40.039,-29.297,-16.602,-48.340,0.000
1606135714.460,-138.672,-35.645,-17.578,-431.152,0.000
1606135714.464,-99.609,-10.254,-14.648,-294.922,0.000
1606135714.468,29.785,12.695,-5.859,196.289,0.000
1606135714.472,76.660,-31.250,0.488,377.441,0.000
1606135714.476,-33.691,-55.176,-4.883,5.371,0.000
1606135714.480,-145.020,-52.246,-26.367,-410.156,0.000
1606135714.483,-110.840,-48.828,-28.320,-335.449,0.000
1606135714.487,24.414,-44.922,-14.648,157.227,0.000
1606135714.491,72.754,-38.574,-0.488,404.297,0.000
1606135714.495,-20.020,-34.180,3.418,91.797,0.000
1606135714.499,-134.277,-46.875,-14.648,-360.352,0.000
1606135714.503,-118.164,-22.949,-30.273,-362.305,0.000
1606135714.507,14.160,-2.441,-25.391,122.070,0.000
1606135714.511,82.031,-28.809,-11.230,425.781,0.000
1606135714.515,-4.883,-42.480,-14.648,158.691,0.000
1606135714.519,-127.930,-53.223,-28.320,-326.172,0.000
1606135714.523,-129.395,-36.133,-30.762,-388.672,0.000
1606135714.526,-5.371,-18.066,-23.926,56.641,0.000
1606135714.530,82.520,-26.367,-9.766,412.109,0.000
1606135714.534,19.043,-30.273,-11.230,224.121,0.000
1606135714.538,-118.164,-41.992,-25.879,-280.273,0.000
1606135714.542,-145.996,-47.852,-23.438,-425.293,0.000
1606135714.546,-25.391,-38.086,-14.160,-22.949,0.000
1606135714.550,88.867,-36.133,-7.324,381.348,0.000
1606135714.554,33.203,-41.992,-18.555,269.043,0.000
1606135714.558,-106.445,-47.852,-40.039,-235.840,0.000
1606135714.562,-143.066,-38.574,-42.480,-456.055,0.000
1606135714.565,-39.551,-28.320,-33.691,-106.445,0.000
1606135714.569,79.590,-25.879,-21.973,336.426,0.000
1606135714.573,56.152,-21.484,-21.973,294.434,0.000
1606135714.577,-72.754,-34.668,-31.250,-187.012,0.000
1606135714.581,-129.883,-40.039,-33.203,-449.219,0.000
1606135714.585,-34.180,-9.277,-25.391,-151.367,0.000
1606135714.589,77.148,-7.812,-26.367,307.617,0.000
1606135714.593,63.965,-39.062,-27.832,332.031,0.000
1606135714.597,-49.316,-40.527,-17.578,-118.652,0.000
1606135714.601,-134.277,-52.246,-19.531,-438.965,0.000
1606135714.605,-74.707,-27.344,-25.391,-219.727,0.000
1606135714.608,55.664,-10.742,-26.855,260.742,0.000
1606135714.612,70.312,-25.391,-27.344,357.910,0.000
1606135714.616,-45.898,-27.832,-26.367,-62.500,0.000
1606135714.620,-129.883,-38.574,-29.785,-432.129,0.000
1606135714.624,-77.148,-34.668,-22.461,-269.043,0.000
1606135714.628,56.152,-20.508,-12.695,233.887,0.000
1606135714.632,83.496,-23.438,-15.137,393.066,0.000
1606135714.636,-29.785,-33.691,-22.461,4.883,0.000
1606135714.640,-139.648,-47.852,-35.156,-412.109,0.000
1606135714.644,-108.398,-41.504,-33.203,-327.637,0.000
1606135714.648,35.645,-27.344,-19.531,174.316,0.000
1606135714.651,84.961,-34.180,-15.625,405.762,0.000
1606135714.655,-23.438,-44.434,-27.344,61.523,0.000
1606135714.659,-142.090,-47.363,-33.691,-394.043,0.000
1606135714.663,-118.164,-27.832,-28.809,-374.512,0.000
1606135714.667,20.508,-1.953,-24.902,108.887,0.000
1606135714.671,84.473,-21.973,-20.020,403.809,0.000
1606135714.675,-0.488,-42.969,-26.367,123.047,0.000
1606135714.679,-127.441,-43.945,-27.832,-350.586,0.000
1606135714.683,-132.324,-43.457,-25.879,-400.879,0.000
1606135714.687,-4.883,-36.621,-20.996,51.270,0.000
1606135714.690,81.543,-28.320,-22.461,399.414,0.000
1606135714.694,28.809,-27.344,-34.180,202.637,0.000
1606135714.698,-106.445,-39.551,-40.527,-287.598,0.000
1606135714.702,-143.555,-41.992,-36.133,-416.504,0.000
1606135714.706,-31.250,-28.809,-27.832,-12.207,0.000
1606135714.710,74.707,-21.973,-29.785,367.188,0.000
1606135714.714,34.668,-22.461,-22.461,247.070,0.000
1606135714.718,-100.586,-39.062,-15.137,-235.352,0.000
1606135714.722,-131.836,-43.945,-23.926,-424.316,0.000
1606135714.726,-23.926,-28.320,-23.926,-59.082,0.000
1606135714.730,84.961,-25.879,-19.043,363.770,0.000
1606135714.733,52.246,-28.320,-25.391,302.734,0.000
1606135714.737,-90.332,-36.133,-32.715,-175.293,0.000
1606135714.741,-149.902,-43.945,-34.668,-431.152,0.000
1606135714.745,-54.688,-24.414,-31.250,-137.207,0.000
1606135714.749,64.453,-22.949,-25.879,312.988,0.000
1606135714.753,55.664,-36.133,-23.926,325.195,0.000
1606135714.757,-67.871,-42.480,-28.809,-129.395,0.000
1606135714.761,-139.648,-44.434,-34.180,-439.941,0.000
1606135714.765,-57.617,-21.484,-32.227,-210.938,0.000
1606135714.769,72.754,-22.949,-27.832,265.137,0.000
1606135714.773,78.613,-29.297,-26.367,363.770,0.000
1606135714.776,-47.852,-33.203,-29.785,-63.965,0.000
1606135714.780,-135.254,-46.387,-38.574,-434.570,0.000
1606135714.784,-74.219,-41.992,-35.645,-261.719,0.000
1606135714.788,63.477,-36.621,-23.926,232.422,0.000
1606135714.792,90.332,-31.250,-21.973,378.418,0.000
1606135714.796,-31.250,-41.016,-33.691,-11.719,0.000
1606135714.800,-129.883,-56.641,-37.109,-420.898,0.000
1606135714.804,-79.102,-33.691,-26.855,-317.871,0.000
1606135714.808,59.082,-15.137,-20.020,179.688,0.000
1606135714.812,107.910,-26.367,-20.508,398.926,0.000
1606135714.815,-5.859,-26.367,-27.344,66.895,0.000
1606135714.819,-123.535,-30.273,-35.645,-372.070,0.000
1606135714.823,-99.121,-33.203,-28.809,-347.656,0.000
1606135714.827,29.297,-31.738,-18.555,127.441,0.000
1606135714.831,88.379,-32.227,-9.277,403.809,0.000
1606135714.835,-0.488,-29.297,-24.414,124.512,0.000
1606135714.839,-132.324,-41.992,-44.922,-355.469,0.000
1606135714.843,-137.695,-37.598,-39.062,-401.855,0.000
1606135714.847,-1.953,-21.484,-28.320,58.105,0.000
1606135714.851,77.637,-28.320,-26.855,386.719,0.000
1606135714.855,17.578,-36.621,-36.621,173.340,0.000
1606135714.858,-104.004,-49.316,-37.109,-313.477,0.000
1606135714.862,-129.883,-45.410,-31.250,-427.246,0.000
1606135714.866,-8.789,-31.250,-27.832,-11.719,0.000
1606135714.870,81.055,-29.785,-16.602,363.770,0.000
1606135714.874,23.926,-30.762,-14.648,218.750,0.000
1606135714.878,-106.934,-41.992,-25.391,-264.160,0.000
1606135714.882,-147.949,-39.062,-31.738,-437.012,0.000
1606135714.886,-37.109,-18.555,-27.832,-76.172,0.000
1606135714.890,73.730,-20.020,-17.578,344.727,0.000
1606135714.894,34.668,-30.762,-25.391,279.297,0.000
1606135714.898,-104.492,-39.551,-39.062,-204.102,0.000
1606135714.901,-165.527,-45.410,-41.016,-447.266,0.000
1606135714.905,-67.871,-44.922,-34.180,-140.625,0.000
1606135714.909,55.664,-37.598,-22.461,312.988,0.000
1606135714.913,41.016,-37.598,-24.902,324.219,0.000
1606135714.917,-87.891,-44.434,-33.691,-140.137,0.000
1606135714.921,-147.461,-30.273,-35.645,-427.734,0.000
1606135714.925,-69.336,-19.043,-33.203,-169.922,0.000
1606135714.929,60.059,-22.461,-30.273,290.527,0.000
1606135714.933,66.895,-21.484,-33.203,360.840,0.000
1606135714.937,-66.895,-30.273,-42.480,-84.473,0.000
1606135714.940,-152.832,-45.898,-41.992,-454.590,0.000
1606135714.944,-93.262,-27.832,-34.668,-286.133,0.000
1606135714.948,38.574,-8.301,-26.855,212.402,0.000
1606135714.952,73.242,-21.484,-20.020,372.559,0.000
1606135714.956,-29.785,-37.598,-27.832,-22.461,0.000
1606135714.960,-122.070,-33.691,-36.133,-416.016,0.000
1606135714.964,-79.590,-35.156,-39.551,-308.105,0.000
1606135714.968,47.363,-34.180,-38.086,170.898,0.000
1606135714.972,99.121,-20.020,-30.762,377.930,0.000
1606135714.976,4.395,-24.902,-24.902,41.992,0.000
1606135714.980,-121.094,-27.344,-21.484,-385.742,0.000
1606135714.983,-102.051,-14.160,-32.715,-361.816,0.000
1606135714.987,29.785,-5.859,-36.133,110.352,0.000
1606135714.991,87.891,-16.113,-22.949,388.184,0.000
1606135714.995,-7.812,-29.785,-25.879,101.074,0.000
1606135714.999,-140.137,-44.922,-33.691,-372.070,0.000
1606135715.003,-132.812,-45.410,-33.203,-413.086,0.000
1606135715.007,0.488,-36.621,-21.484,58.594,0.000
1606135715.011,71.289,-26.855,-23.438,390.625,0.000
1606135715.015,2.930,-25.879,-40.527,166.504,0.000
1606135715.019,-122.070,-38.086,-40.527,-313.477,0.000
1606135715.023,-132.812,-25.391,-33.691,-407.227,0.000
1606135715.026,-7.324,-1.465,-37.598,10.742,0.000
1606135715.030,85.449,-20.020,-29.785,368.164,0.000
1606135715.034,20.020,-41.016,-33.203,216.309,0.000
1606135715.038,-95.215,-41.504,-37.598,-258.789,0.000
1606135715.042,-117.188,-40.039,-32.227,-425.781,0.000
1606135715.046,-21.973,-33.691,-30.273,-57.617,0.000
1606135715.050,85.938,-20.508,-23.438,356.445,0.000
1606135715.054,61.523,-26.367,-20.996,284.668,0.000
1606135715.058,-75.195,-39.062,-21.973,-195.801,0.000
1606135715.062,-127.930,-29.297,-31.250,-435.547,0.000
1606135715.065,-20.020,-27.344,-30.273,-119.629,0.000
1606135715.069,82.031,-29.785,-27.832,326.172,0.000
1606135715.073,50.781,-28.320,-35.156,304.199,0.000
1606135715.077,-66.406,-35.156,-38.574,-172.852,0.000
1606135715.081,-128.418,-37.109,-36.621,-461.914,0.000
1606135715.085,-46.875,-20.996,-39.551,-198.730,0.000
1606135715.089,74.707,-19.531,-39.062,272.949,0.000
1606135715.093,66.406,-32.227,-39.062,324.707,0.000
1606135715.097,-61.523,-41.504,-41.016,-123.535,0.000
1606135715.101,-140.137,-46.875,-37.109,-464.844,0.000
1606135715.105,-72.754,-49.316,-36.621,-267.578,0.000
1606135715.108,54.688,-39.062,-35.156,229.980,0.000
1606135715.112,81.055,-32.715,-27.832,373.047,0.000
1606135715.116,-31.250,-38.086,-23.438,-18.555,0.000
1606135715.120,-138.672,-48.340,-25.879,-412.598,0.000
1606135715.124,-106.445,-40.527,-39.062,-304.199,0.000
1606135715.128,19.043,-27.832,-39.062,188.477,0.000
1606135715.132,62.988,-29.785,-22.461,403.320,0.000
1606135715.136,-49.316,-28.320,-28.320,40.527,0.000
1606135715.140,-155.273,-39.062,-37.109,-395.996,0.000
1606135715.144,-114.258,-42.480,-29.297,-337.891,0.000
1606135715.148,13.672,-36.133,-19.043,147.949,0.000
1606135715.151,69.336,-26.367,-15.137,409.668,0.000
1606135715.155,-12.695,-21.484,-18.555,115.723,0.000
1606135715.159,-113.770,-29.297,-30.273,-339.355,0.000
1606135715.163,-109.375,-32.227,-37.109,-366.211,0.000
1606135715.167,12.695,-21.973,-32.227,82.520,0.000
1606135715.171,102.051,-15.625,-19.043,397.949,0.000
1606135715.175,23.926,-24.414,-24.414,163.574,0.000
1606135715.179,-108.887,-29.297,-37.109,-320.312,0.000
1606135715.183,-112.305,-19.043,-26.367,-418.457,0.000
1606135715.187,13.672,-19.531,-17.090,7.812,0.000
1606135715.190,94.727,-24.414,-21.484,375.488,0.000
1606135715.194,40.527,-14.648,-30.762,212.891,0.000
1606135715.198,-101.562,-27.344,-33.691,-278.809,0.000
1606135715.202,-146.973,-41.016,-40.039,-449.707,0.000
1606135715.206,-28.320,-22.949,-41.504,-65.430,0.000
1606135715.210,73.730,-20.508,-30.762,348.145,0.000
1606135715.214,42.480,-27.344,-32.715,264.160,0.000
1606135715.218,-85.449,-40.039,-28.320,-218.262,0.000
1606135715.222,-132.324,-40.527,-31.738,-445.312,0.000
1606135715.226,-33.203,4.883,-41.504,-122.070,0.000
1606135715.230,70.801,14.160,-20.020,312.500,0.000
1606135715.233,53.711,-19.531,-16.602,296.875,0.000
1606135715.237,-87.891,-30.762,-40.039,-197.754,0.000
1606135715.241,-158.691,-28.809,-48.828,-491.211,0.000
1606135715.245,-71.777,-29.297,-42.969,-207.031,0.000
1606135715.249,48.828,-20.996,-41.016,261.230,0.000
1606135715.253,56.641,-9.766,-42.480,326.172,0.000
1606135715.257,-65.430,-19.043,-43.457,-115.723,0.000
1606135715.261,-157.227,-32.227,-45.898,-469.238,0.000
1606135715.265,-102.051,-6.836,-55.664,-265.625,0.000
1606135715.269,43.945,1.465,-54.199,228.027,0.000
1606135715.273,76.660,-7.812,-28.809,363.281,0.000
1606135715.276,-41.016,-12.695,-34.668,-38.574,0.000
1606135715.280,-125.488,-23.926,-47.852,-429.688,0.000
1606135715.284,-67.871,-26.367,-54.199,-298.340,0.000
1606135715.288,62.012,-32.715,-55.664,196.289,0.000
1606135715.292,109.863,-23.438,-32.715,397.461,0.000
1606135715.296,12.207,-18.066,-28.809,40.039,0.000
1606135715.300,-105.957,-30.273,-39.551,-390.137,0.000
1606135715.304,-90.820,-2.930,-34.180,-327.637,0.000
1606135715.308,34.668,15.137,-28.809,156.250,0.000
1606135715.312,92.773,-23.438,-29.785,403.320,0.000
1606135715.315,-3.418,-37.598,-37.109,84.961,0.000
1606135715.319,-121.094,-32.715,-30.273,-364.258,0.000
1606135715.323,-103.027,-27.832,-23.926,-365.234,0.000
1606135715.327,44.922,-32.227,-17.578,101.074,0.000
1606135715.331,104.980,-34.180,-25.879,399.414,0.000
1606135715.335,-6.836,-34.180,-49.805,146.484,0.000
1606135715.339,-132.812,-35.156,-46.387,-331.055,0.000
1606135715.343,-133.301,-30.762,-34.668,-412.598,0.000
1606135715.347,-7.812,-28.809,-28.809,25.391,0.000
1606135715.351,80.078,-26.855,-26.367,386.719,0.000
1606135715.355,28.320,-33.691,-24.902,211.426,0.000
1606135715.358,-101.562,-42.969,-30.273,-275.879,0.000
1606135715.362,-134.766,-28.320,-32.715,-435.059,0.000
1606135715.366,-24.414,-9.277,-32.715,-49.316,0.000
1606135715.370,75.684,-21.973,-34.180,357.422,0.000
1606135715.374,41.504,-31.250,-38.574,255.859,0.000
1606135715.378,-98.145,-35.156,-43.945,-241.699,0.000
1606135715.382,-139.648,-35.645,-42.480,-451.660,0.000
1606135715.386,-29.297,-24.414,-28.809,-106.934,0.000
1606135715.390,82.520,-22.949,-18.066,329.102,0.000
1606135715.394,71.289,-26.855,-20.996,311.035,0.000
1606135715.398,-58.594,-33.691,-31.738,-170.410,0.000
1606135715.401,-125.977,-36.621,-35.645,-455.566,0.000
1606135715.405,-43.945,-13.184,-35.645,-183.105,0.000
1606135715.409,82.520,-4.883,-29.297,274.414,0.000
1606135715.413,76.660,-31.738,-29.785,321.777,0.000
1606135715.417,-59.082,-44.922,-33.691,-126.465,0.000
1606135715.421,-110.840,-32.715,-41.992,-447.266,0.000
1606135715.425,-54.688,-26.855,-41.992,-230.957,0.000
1606135715.429,48.340,-31.738,-19.043,251.953,0.000
1606135715.433,74.219,-28.320,-23.438,364.258,0.000
1606135715.437,-49.316,-32.715,-42.969,-62.012,0.000
1606135715.440,-141.602,-41.504,-42.480,-437.500,0.000
1606135715.444,-80.078,-25.879,-34.668,-284.180,0.000
1606135715.448,47.852,-26.367,-23.926,200.195,0.000
1606135715.452,71.777,-41.992,-10.254,374.023,0.000
1606135715.456,-35.156,-51.758,-21.484,0.977,0.000
1606135715.460,-141.113,-54.199,-43.457,-412.109,0.000
1606135715.464,-101.562,-39.062,-38.086,-341.797,0.000
1606135715.468,38.086,-30.273,-29.297,148.438,0.000
1606135715.472,80.566,-23.926,-26.367,396.973,0.000
1606135715.476,-7.324,-23.438,-27.344,86.914,0.000
1606135715.480,-117.676,-34.180,-35.156,-362.305,0.000
1606135715.483,-108.398,-39.062,-32.715,-368.652,0.000
1606135715.487,15.137,-26.855,-25.879,100.586,0.000
1606135715.491,102.539,-18.066,-21.484,413.086,0.000
1606135715.495,15.625,-25.391,-26.367,153.809,0.000
1606135715.499,-142.578,-44.434,-34.180,-344.238,0.000
1606135715.503,-145.508,-31.738,-30.273,-414.062,0.000
1606135715.507,-16.113,-1.953,-31.738,34.180,0.000
1606135715.511,69.824,-12.207,-24.414,381.348,0.000
1606135715.515,3.906,-35.645,-27.344,188.477,0.000
1606135715.519,-126.465,-49.316,-35.645,-300.781,0.000
1606135715.523,-145.508,-39.062,-20.508,-432.617,0.000
1606135715.526,-29.297,-28.809,-15.137,-28.320,0.000
1606135715.530,83.008,-21.484,-14.160,372.559,0.000
1606135715.534,48.828,-19.043,-21.973,268.066,0.000
1606135715.538,-95.703,-32.227,-30.762,-224.609,0.000
1606135715.542,-126.953,-23.438,-25.879,-437.012,0.000
1606135715.546,-19.043,-6.836,-24.902,-95.703,0.000
1606135715.550,76.172,-14.160,-24.902,330.078,0.000
1606135715.554,51.758,-21.484,-20.508,296.387,0.000
1606135715.558,-70.312,-31.250,-25.391,-187.500,0.000
1606135715.562,-130.371,-38.086,-35.645,-459.961,0.000
1606135715.565,-41.016,-27.832,-26.855,-166.016,0.000
1606135715.569,90.332,-16.602,-15.625,296.387,0.000
1606135715.573,75.195,-17.090,-24.902,329.590,0.000
1606135715.577,-50.293,-32.227,-24.414,-125.000,0.000
1606135715.581,-124.023,-41.504,-22.461,-451.172,0.000
1606135715.585,-65.430,-10.254,-32.227,-227.539,0.000
1606135715.589,62.012,-0.977,-29.297,253.418,0.000
1606135715.593,68.359,-26.855,-20.996,347.168,0.000
1606135715.597,-58.105,-30.762,-24.902,-77.148,0.000
1606135715.601,-144.531,-34.668,-26.367,-440.430,0.000
1606135715.605,-92.773,-34.180,-25.879,-289.551,0.000
1606135715.608,41.016,-20.508,-23.438,195.801,0.000
1606135715.612,76.660,-22.949,-19.531,367.188,0.000
1606135715.616,-40.039,-33.691,-27.832,-4.883,0.000
1606135715.620,-140.137,-36.133,-37.109,-412.109,0.000
1606135715.624,-98.633,-33.203,-23.438,-322.754,0.000
1606135715.628,39.062,-28.320,-15.625,169.922,0.000
1606135715.632,107.422,-19.531,-21.973,409.668,0.000
1606135715.636,1.953,-39.551,-22.461,82.520,0.000
1606135715.640,-129.883,-52.734,-18.555,-377.930,0.000
1606135715.644,-123.047,-39.551,-17.578,-377.930,0.000
1606135715.648,0.488,-30.273,-7.812,99.121,0.000
1606135715.651,74.219,-30.273,-0.488,398.438,0.000
1606135715.655,-11.719,-40.039,-4.883,132.812,0.000
1606135715.659,-145.996,-53.223,-8.789,-341.797,0.000
1606135715.663,-138.184,-47.363,-2.441,-399.902,0.000
1606135715.667,2.441,-45.898,11.719,56.641,0.000
1606135715.671,73.730,-45.898,10.254,395.996,0.000
1606135715.675,5.371,-42.969,-3.418,189.453,0.000
1606135715.679,-113.770,-51.758,-9.277,-286.133,0.000
1606135715.683,-137.207,-37.598,-15.137,-417.480,0.000
1606135715.687,-8.789,-6.836,-18.066,-15.137,0.000
1606135715.690,86.914,-7.324,-23.438,369.629,0.000
1606135715.694,27.344,-26.855,-23.926,244.629,0.000
1606135715.698,-99.121,-42.969,-20.020,-246.582,0.000
1606135715.702,-137.207,-43.457,-30.273,-445.312,0.000
1606135715.706,-36.133,-37.109,-27.832,-80.566,0.000
1606135715.710,74.219,-30.273,-12.695,361.328,0.000
1606135715.714,51.270,-27.344,-13.184,310.547,0.000
1606135715.718,-84.473,-35.645,-24.902,-184.082,0.000
1606135715.722,-138.184,-36.621,-10.254,-433.594,0.000
1606135715.726,-46.387,-27.344,-8.301,-130.371,0.000
1606135715.730,69.336,-27.344,-14.160,326.172,0.000
1606135715.733,59.082,-33.691,-13.672,349.121,0.000
1606135715.737,-69.336,-32.715,-22.461,-117.676,0.000
1606135715.741,-138.184,-27.832,-21.973,-428.711,0.000
1606135715.745,-57.617,-27.344,-22.461,-190.918,0.000
1606135715.749,60.547,-27.832,-19.531,289.062,0.000
1606135715.753,58.594,-23.438,-18.555,374.512,0.000
1606135715.757,-60.547,-32.715,-25.879,-57.129,0.000
1606135715.761,-148.438,-46.875,-23.438,-417.480,0.000
1606135715.765,-89.844,-47.363,-22.461,-259.766,0.000
1606135715.769,42.969,-34.668,-22.949,232.422,0.000
1606135715.773,86.914,-12.695,-9.766,408.691,0.000
1606135715.776,-28.809,-28.320,-19.531,16.602,0.000
1606135715.780,-135.254,-58.105,-32.227,-412.598,0.000
1606135715.784,-84.473,-36.621,-28.320,-327.148,0.000
1606135715.788,42.969,-1.953,-25.879,169.434,0.000
1606135715.792,86.914,-7.324,-24.902,393.555,0.000
1606135715.796,-16.602,-19.531,-31.250,57.129,0.000
1606135715.800,-136.230,-31.250,-35.645,-386.719,0.000
1606135715.804,-109.375,-33.691,-36.621,-363.281,0.000
1606135715.808,21.484,-30.762,-34.668,106.445,0.000
1606135715.812,84.961,-20.996,-37.109,381.348,0.000
1606135715.815,7.324,-23.438,-27.344,125.000,0.000
1606135715.819,-113.281,-43.945,-22.949,-338.379,0.000
1606135715.823,-128.418,-17.090,-31.250,-407.715,0.000
1606135715.827,-10.742,4.395,-27.344,41.016,0.000
1606135715.831,80.566,-26.367,-18.066,383.301,0.000
1606135715.835,13.184,-40.039,-21.484,179.688,0.000
1606135715.839,-115.723,-42.480,-35.645,-296.387,0.000
1606135715.843,-122.559,-40.039,-40.527,-414.551,0.000
1606135715.847,-12.695,-36.621,-34.180,-2.930,0.000
1606135715.851,73.730,-34.180,-23.438,378.906,0.000
1606135715.855,40.039,-30.762,-17.578,253.418,0.000
1606135715.858,-92.285,-40.527,-23.926,-235.352,0.000
1606135715.862,-137.695,-27.344,-33.203,-430.664,0.000
1606135715.866,-32.227,-2.441,-25.391,-62.500,0.000
1606135715.870,76.660,-28.320,-12.207,366.211,0.000
1606135715.874,45.410,-38.086,-20.996,291.016,0.000
1606135715.878,-92.773,-44.434,-45.898,-210.938,0.000
1606135715.882,-149.902,-43.945,-49.316,-446.289,0.000
1606135715.886,-53.711,-6.348,-35.156,-129.395,0.000
1606135715.890,70.801,-12.207,-33.691,314.453,0.000
1606135715.894,67.383,-39.551,-34.668,324.219,0.000
1606135715.898,-52.734,-44.922,-27.344,-133.301,0.000
1606135715.901,-125.488,-39.062,-27.832,-437.500,0.000
1606135715.905,-55.176,-31.250,-25.391,-198.242,0.000
1606135715.909,70.801,-28.320,-16.113,271.973,0.000
1606135715.913,68.848,-31.250,-21.484,354.492,0.000
1606135715.917,-57.617,-37.598,-32.715,-88.867,0.000
1606135715.921,-133.789,-44.434,-39.551,-448.242,0.000
1606135715.925,-85.938,-21.973,-41.504,-270.020,0.000
1606135715.929,39.551,-12.695,-35.156,217.773,0.000
1606135715.933,71.777,-33.691,-26.855,362.793,0.000
1606135715.937,-44.434,-44.922,-29.785,-31.250,0.000
1606135715.940,-138.672,-57.129,-34.180,-428.711,0.000
1606135715.944,-103.027,-59.570,-25.391,-324.219,0.000
1606135715.948,13.184,-48.340,-21.973,161.621,0.000
1606135715.952,63.477,-27.832,-21.484,372.559,0.000
1606135715.956,-33.203,-21.973,-26.367,40.039,0.000
1606135715.960,-142.090,-35.645,-42.480,-383.789,0.000
1606135715.964,-116.699,-12.207,-37.109,-354.004,0.000
1606135715.968,7.324,11.230,-25.879,112.305,0.000
1606135715.972,76.172,-21.484,-27.344,383.789,0.000
1606135715.976,-8.789,-44.434,-31.738,110.840,0.000
1606135715.980,-124.023,-41.504,-29.297,-341.797,0.000
1606135715.983,-110.352,-40.527,-30.762,-380.859,0.000
1606135715.987,5.371,-46.875,-30.762,63.477,0.000
1606135715.991,74.707,-37.109,-18.066,390.625,0.000
1606135715.995,10.254,-31.738,-26.855,180.664,0.000
1606135715.999,-115.234,-38.086,-32.715,-300.293,0.000
1606135716.003,-131.836,-26.855,-26.855,-410.156,0.000
1606135716.007,-9.277,-24.414,-31.738,6.836,0.000
1606135716.011,68.359,-33.203,-34.180,370.117,0.000
1606135716.015,16.113,-29.785,-31.250,229.492,0.000
1606135716.019,-104.492,-39.551,-22.461,-256.836,0.000
1606135716.023,-143.555,-42.969,-22.461,-440.430,0.000
1606135716.026,-47.363,-19.531,-32.227,-72.266,0.000
1606135716.030,68.359,-17.090,-24.902,341.309,0.000
1606135716.034,37.109,-30.762,-24.414,270.996,0.000
1606135716.038,-94.238,-33.203,-28.320,-216.797,0.000
1606135716.042,-142.578,-25.879,-28.809,-462.891,0.000
1606135716.046,-58.105,-20.508,-27.832,-146.484,0.000
1606135716.050,62.012,-20.020,-24.902,307.617,0.000
1606135716.054,54.688,-21.484,-18.066,319.824,0.000
1606135716.058,-68.359,-31.250,-20.996,-148.926,0.000
1606135716.062,-146.973,-35.645,-35.645,-462.891,0.000
1606135716.065,-56.641,-7.812,-35.156,-209.961,0.000
1606135716.069,80.078,-7.812,-35.156,271.484,0.000
1606135716.073,58.594,-31.738,-35.645,344.238,0.000
1606135716.077,-66.406,-39.551,-35.156,-92.773,0.000
1606135716.081,-138.672,-37.598,-36.133,-428.223,0.000
1606135716.085,-73.242,-24.902,-34.180,-238.770,0.000
1606135716.089,56.152,-23.926,-23.438,241.699,0.000
1606135716.093,80.078,-28.809,-17.090,381.836,0.000
1606135716.097,-34.668,-32.715,-31.250,-12.207,0.000
1606135716.101,-126.953,-28.320,-26.855,-390.625,0.000
1606135716.105,-79.590,-19.531,-15.625,-275.391,0.000
1606135716.108,45.898,-26.367,-17.578,200.684,0.000
1606135716.112,93.262,-30.273,-8.789,408.203,0.000
1606135716.116,-9.277,-30.273,-12.207,59.570,0.000
1606135716.120,-116.699,-36.133,-19.043,-375.000,0.000
1606135716.124,-84.473,-41.504,-22.461,-332.031,0.000
1606135716.128,46.387,-40.527,-17.090,146.973,0.000
1606135716.132,105.957,-28.809,-11.230,415.527,0.000
1606135716.136,8.789,-25.879,-14.648,124.023,0.000
1606135716.140,-111.816,-32.227,-24.414,-344.238,0.000
1606135716.144,-103.516,-32.715,-30.762,-381.348,0.000
1606135716.148,16.602,-23.926,-23.438,86.914,0.000
1606135716.151,88.867,-14.648,-19.531,402.344,0.000
1606135716.155,24.902,-9.766,-20.508,160.156,0.000
1606135716.159,-100.586,-31.738,-39.551,-328.125,0.000
1606135716.163,-121.582,-28.809,-47.852,-438.965,0.000
1606135716.167,-5.859,0.977,-25.879,-12.207,0.000
1606135716.171,76.660,-11.230,-20.508,355.469,0.000
1606135716.175,19.043,-23.438,-16.602,203.613,0.000
1606135716.179,-108.398,-25.391,-8.789,-275.391,0.000
1606135716.183,-133.301,-37.109,-16.113,-441.406,0.000
1606135716.187,-24.902,-40.039,-25.879,-65.918,0.000
1606135716.190,64.453,-28.809,-23.926,339.844,0.000
1606135716.194,21.484,-27.344,-22.949,260.254,0.000
1606135716.198,-100.586,-38.086,-30.273,-231.445,0.000
1606135716.202,-141.113,-40.039,-27.832,-463.867,0.000
1606135716.206,-43.945,-34.668,-29.297,-121.094,0.000
1606135716.210,60.059,-24.414,-29.297,318.359,0.000
1606135716.214,32.227,-24.902,-21.973,294.922,0.000
1606135716.218,-99.121,-37.598,-24.414,-169.922,0.000
1606135716.222,-174.316,-43.457,-23.438,-461.914,0.000
1606135716.226,-95.215,-36.621,-15.137,-199.707,0.000
1606135716.230,34.668,-33.203,-10.254,271.973,0.000
1606135716.233,41.992,-35.156,-12.207,329.590,0.000
1606135716.237,-74.219,-40.039,-21.484,-109.375,0.000
1606135716.241,-150.879,-41.504,-23.926,-437.012,0.000
1606135716.245,-87.891,-21.973,-27.344,-240.723,0.000
1606135716.249,37.109,-24.414,-30.762,227.051,0.000
1606135716.253,70.312,-43.457,-19.531,355.957,0.000
1606135716.257,-41.016,-38.086,-22.949,-34.180,0.000
1606135716.261,-136.719,-31.738,-33.691,-414.062,0.000
1606135716.265,-92.773,-27.832,-31.738,-295.410,0.000
1606135716.269,39.551,-34.668,-20.508,192.871,0.000
1606135716.273,93.262,-36.621,-10.742,397.949,0.000
1606135716.276,-16.113,-25.879,-20.996,36.621,0.000
1606135716.280,-139.648,-26.855,-36.133,-403.320,0.000
1606135716.284,-115.234,-20.020,-39.551,-339.355,0.000
1606135716.288,17.090,-17.090,-36.621,148.926,0.000
1606135716.292,70.801,-27.344,-24.414,393.555,0.000
1606135716.296,-18.555,-30.273,-19.531,87.891,0.000
1606135716.300,-126.465,-29.297,-29.297,-375.000,0.000
1606135716.304,-115.234,-12.207,-41.992,-398.438,0.000
1606135716.308,10.742,-10.254,-35.156,69.824,0.000
1606135716.312,75.684,-26.855,-23.438,379.883,0.000
1606135716.315,-0.977,-39.062,-27.344,142.090,0.000
1606135716.319,-117.188,-44.922,-35.645,-331.543,0.000
1606135716.323,-138.672,-37.598,-31.250,-423.340,0.000
1606135716.327,-21.484,-29.785,-25.391,7.812,0.000
1606135716.331,75.195,-17.578,-25.879,376.953,0.000
1606135716.335,19.043,-19.043,-25.879,211.426,0.000
1606135716.339,-106.934,-38.574,-29.785,-278.320,0.000
1606135716.343,-129.883,-37.109,-37.109,-435.059,0.000
1606135716.347,-15.625,-1.465,-37.598,-53.223,0.000
1606135716.351,82.520,-5.859,-32.227,349.121,0.000
1606135716.355,35.645,-29.297,-41.504,246.582,0.000
1606135716.358,-100.586,-35.645,-45.410,-248.047,0.000
1606135716.362,-148.438,-35.645,-33.691,-464.844,0.000
1606135716.366,-47.852,-35.156,-27.344,-122.559,0.000
1606135716.370,68.359,-30.273,-26.855,314.453,0.000
1606135716.374,50.293,-23.926,-22.949,286.621,0.000
1606135716.378,-79.590,-36.621,-32.715,-187.500,0.000
1606135716.382,-132.324,-37.598,-41.504,-461.426,0.000
1606135716.386,-47.852,-20.508,-43.457,-185.547,0.000
1606135716.390,74.219,-20.996,-27.832,289.551,0.000
1606135716.394,68.848,-26.367,-22.949,334.961,0.000
1606135716.398,-64.941,-35.645,-35.645,-122.070,0.000
1606135716.401,-138.184,-42.480,-35.645,-449.219,0.000
1606135716.405,-67.871,-38.086,-32.227,-232.910,0.000
1606135716.409,56.152,-34.180,-22.949,262.695,0.000
1606135716.413,70.801,-36.621,-14.648,378.418,0.000
1606135716.417,-41.504,-36.133,-23.926,-40.527,0.000
1606135716.421,-140.137,-39.551,-35.156,-422.363,0.000
1606135716.425,-93.262,-41.016,-30.762,-271.484,0.000
1606135716.429,52.734,-22.461,-17.578,233.887,0.000
1606135716.433,86.914,-18.066,-24.414,406.250,0.000
1606135716.437,-22.949,-22.949,-43.945,25.879,0.000
1606135716.440,-122.559,-34.180,-34.180,-390.137,0.000
1606135716.444,-90.332,-9.277,-22.461,-313.477,0.000
1606135716.448,38.574,5.859,-21.973,175.781,0.000
1606135716.452,94.238,-25.391,-17.090,420.898,0.000
1606135716.456,-3.418,-35.645,-13.672,95.215,0.000
1606135716.460,-117.676,-38.574,-23.438,-366.211,0.000
1606135716.464,-112.305,-43.945,-28.809,-372.070,0.000
1606135716.468,20.020,-33.691,-16.602,97.168,0.000
1606135716.472,101.562,-17.090,-6.348,392.090,0.000
1606135716.476,-1.465,-23.926,-13.184,132.812,0.000
1606135716.480,-139.648,-37.109,-21.973,-342.773,0.000
1606135716.483,-135.254,-27.832,-18.066,-423.828,0.000
1606135716.487,-26.855,-17.090,-16.602,-2.930,0.000
1606135716.491,37.109,-14.160,-11.230,334.961,0.000
1606135716.495,-35.645,-16.113,-12.207,134.277,0.000
1606135716.499,-187.012,-29.785,-23.438,-375.977,0.000
1606135716.503,-223.145,-30.273,-23.926,-532.715,0.000
1606135716.507,-114.746,-21.973,-8.301,-135.742,0.000
1606135716.511,-38.086,-17.578,1.953,254.883,0.000
1606135716.515,-99.121,-23.438,-1.953,119.141,0.000
1606135716.519,-229.980,-38.086,-5.371,-372.070,0.000
1606135716.523,-278.320,-30.762,-11.230,-572.266,0.000
1606135716.526,-178.223,-6.348,-13.672,-234.375,0.000
1606135716.530,-73.730,-5.859,-13.184,191.406,0.000
1606135716.534,-109.863,-23.926,-11.230,141.113,0.000
1606135716.538,-230.957,-35.156,-12.207,-333.008,0.000
1606135716.542,-292.969,-38.086,-23.926,-596.680,0.000
1606135716.546,-205.566,-27.344,-21.484,-312.500,0.000
1606135716.550,-67.383,-16.602,-17.578,156.250,0.000
1606135716.554,-60.059,-20.020,-20.508,197.754,0.000
1606135716.558,-175.293,-27.344,-26.367,-250.488,0.000
1606135716.562,-235.840,-12.695,-33.203,-562.500,0.000
1606135716.565,-157.227,-1.465,-36.133,-340.820,0.000
1606135716.569,-21.973,2.930,-29.785,150.391,0.000
1606135716.573,-9.766,6.348,-33.691,254.395,0.000
1606135716.577,-131.836,1.465,-47.852,-171.875,0.000
1606135716.581,-211.426,-5.859,-59.570,-541.016,0.000
1606135716.585,-153.809,10.742,-57.129,-388.672,0.000
1606135716.589,-21.973,13.672,-40.527,104.492,0.000
1606135716.593,16.113,-6.348,-35.645,273.438,0.000
1606135716.597,-96.680,-7.812,-44.434,-109.375,0.000
1606135716.601,-203.613,-8.789,-57.617,-524.414,0.000
1606135716.605,-155.273,-12.207,-53.223,-427.734,0.000
1606135716.608,-29.785,-7.812,-42.969,68.359,0.000
1606135716.612,13.672,-3.418,-41.992,295.410,0.000
1606135716.616,-70.801,-1.465,-44.922,-17.578,0.000
1606135716.620,-197.266,-8.789,-59.082,-466.309,0.000
1606135716.624,-178.711,9.277,-62.012,-454.102,0.000
1606135716.628,-39.551,24.414,-45.898,32.715,0.000
1606135716.632,23.438,11.230,-41.016,320.801,0.000
1606135716.636,-46.875,3.418,-57.617,61.523,0.000
1606135716.640,-169.434,-14.648,-60.059,-393.066,0.000
1606135716.644,-190.918,-7.324,-48.828,-451.172,0.000
1606135716.648,-63.965,5.371,-43.457,-5.859,0.000
1606135716.651,23.438,-2.930,-33.203,346.680,0.000
1606135716.655,-41.504,-10.254,-40.527,153.320,0.000
1606135716.659,-166.504,-26.855,-50.781,-329.102,0.000
1606135716.663,-180.664,-10.254,-47.852,-452.637,0.000
1606135716.667,-54.688,10.742,-41.016,-43.945,0.000
1606135716.671,52.246,-14.648,-31.738,342.773,0.000
1606135716.675,8.789,-26.367,-31.250,213.379,0.000
1606135716.679,-112.793,-30.273,-39.551,-261.230,0.000
1606135716.683,-139.648,-30.273,-44.922,-446.777,0.000
1606135716.687,-13.184,-23.926,-35.645,-82.031,0.000
1606135716.690,97.168,-34.668,-30.273,343.750,0.000
1606135716.694,58.594,-43.945,-29.785,287.598,0.000
1606135716.698,-50.781,-42.480,-29.297,-184.570,0.000
1606135716.702,-100.586,-45.898,-33.203,-427.734,0.000
1606135716.706,-14.648,-41.992,-22.461,-108.887,0.000
1606135716.710,104.980,-44.922,-9.277,358.398,0.000
1606135716.714,96.680,-57.129,-9.766,376.953,0.000
1606135716.718,-29.785,-73.730,-25.879,-97.168,0.000
1606135716.722,-102.539,-82.031,-32.715,-410.645,0.000
1606135716.726,-16.113,-32.715,-28.809,-151.367,0.000
1606135716.730,122.070,-16.113,-19.043,336.426,0.000
1606135716.733,123.047,-51.758,-18.066,422.852,0.000
1606135716.737,-7.812,-54.688,-20.508,-6.348,0.000
1606135716.741,-87.891,-54.688,-27.344,-362.793,0.000
1606135716.745,-23.926,-58.594,-35.645,-180.664,0.000
1606135716.749,109.375,-42.969,-29.297,312.988,0.000
1606135716.753,146.973,-29.785,-17.090,462.402,0.000
1606135716.757,30.273,-41.992,-18.555,80.078,0.000
1606135716.761,-76.172,-57.617,-29.785,-324.219,0.000
1606135716.765,-32.227,-27.344,-26.367,-218.262,0.000
1606135716.769,94.727,-16.602,-14.648,275.879,0.000
1606135716.773,146.484,-43.457,-15.625,485.352,0.000
1606135716.776,45.898,-54.199,-23.438,144.531,0.000
1606135716.780,-67.383,-53.711,-29.297,-288.574,0.000
1606135716.784,-35.156,-46.387,-32.715,-261.230,0.000
1606135716.788,108.887,-41.504,-29.297,220.215,0.000
1606135716.792,179.199,-36.133,-29.297,497.559,0.000
