timestamps,TP9,AF7,AF8,TP10,Right AUX,Marker0
1606130959.857,0.000,0.000,0.000,-0.488,0.000,0
1606130959.861,-0.488,0.000,-0.488,-0.977,0.000,0
1606130959.865,0.977,-0.977,-0.977,4.883,0.000,0
1606130959.869,-2.441,1.953,1.465,-7.812,0.000,0
1606130959.872,3.906,-10.742,-10.742,25.391,0.000,0
1606130959.876,39.062,-26.367,-25.391,135.742,0.000,0
1606130959.880,15.625,-22.461,-29.785,86.426,0.000,0
1606130959.884,-67.871,-26.367,-35.156,-127.930,0.000,0
1606130959.888,-91.797,-26.367,-29.785,-204.590,0.000,0
1606130959.892,-34.180,-21.973,-22.461,-41.504,0.000,0
1606130959.896,28.809,-26.367,-19.531,132.812,0.000,0
1606130959.900,7.324,-30.273,-24.414,99.609,0.000,0
1606130959.904,-73.730,-33.203,-28.809,-106.934,0.000,0
1606130959.908,-106.934,-40.039,-28.809,-205.566,0.000,0
1606130959.912,-59.082,-42.480,-24.902,-67.871,0.000,0
1606130959.915,18.066,-31.250,-16.113,124.512,0.000,0
1606130959.919,19.531,-26.367,-20.508,126.465,0.000,0
1606130959.923,-64.453,-28.320,-28.320,-71.289,0.000,0
1606130959.927,-110.352,-33.691,-26.855,-184.082,0.000,0
1606130959.931,-66.895,-33.691,-25.391,-79.590,0.000,0
1606130959.935,10.254,-26.855,-19.531,105.957,0.000,0
1606130959.939,16.113,-29.297,-17.090,133.789,0.000,0
1606130959.943,-52.246,-35.645,-24.902,-57.129,0.000,0
1606130959.947,-85.938,-37.109,-29.785,-196.289,0.000,0
1606130959.951,-53.711,-39.062,-28.809,-108.398,0.000,0
1606130959.954,13.184,-36.621,-22.949,87.891,0.000,0
1606130959.958,35.645,-28.809,-18.066,145.020,0.000,0
1606130959.962,-33.203,-31.250,-21.484,-26.367,0.000,0
1606130959.966,-95.703,-38.574,-26.855,-192.383,0.000,0
1606130959.970,-63.965,-30.762,-26.855,-143.066,0.000,0
1606130959.974,13.672,17.090,-23.926,70.801,0.000,0
1606130959.978,32.227,28.320,-25.391,148.438,0.000,0
1606130959.982,-30.273,-17.578,-35.645,-23.926,0.000,0
1606130959.986,-90.820,-38.086,-37.598,-196.289,0.000,0
1606130959.990,-74.707,-38.086,-37.109,-165.039,0.000,0
1606130959.994,1.465,-36.133,-37.598,43.457,0.000,0
1606130959.997,42.480,-27.832,-30.273,150.879,0.000,0
1606130960.001,-9.766,-32.715,-37.598,13.672,0.000,0
1606130960.005,-81.543,-39.551,-41.504,-170.410,0.000,0
1606130960.009,-76.172,-37.109,-36.133,-167.480,0.000,0
1606130960.013,1.465,-34.180,-32.715,35.156,0.000,0
1606130960.017,46.875,-25.391,-20.020,161.621,0.000,0
1606130960.021,-3.418,-15.625,-19.043,53.711,0.000,0
1606130960.025,-86.914,-20.020,-29.785,-148.438,0.000,0
1606130960.029,-94.238,-32.715,-28.320,-185.547,0.000,0
1606130960.033,-20.508,-28.320,-21.973,-0.488,0.000,0
1606130960.037,31.250,-21.484,-18.066,147.461,0.000,0
1606130960.040,-9.766,-33.691,-20.996,73.242,0.000,0
1606130960.044,-96.680,-46.875,-27.344,-132.324,0.000,0
1606130960.048,-114.746,-42.969,-24.902,-196.289,0.000,0
1606130960.052,-34.668,-30.762,-12.207,-23.926,0.000,0
1606130960.056,27.832,-24.902,-8.301,138.184,0.000,0
1606130960.060,-1.953,-30.273,-18.066,87.402,0.000,0
1606130960.064,-71.289,-35.645,-26.367,-103.516,0.000,0
1606130960.068,-87.891,-24.902,-28.809,-181.152,0.000,0
1606130960.072,-34.668,-23.926,-28.809,-48.828,0.000,0
1606130960.076,20.996,-28.320,-27.344,114.746,0.000,0
1606130960.079,10.254,-18.555,-32.715,91.797,0.000,0
1606130960.083,-62.500,-20.020,-43.457,-112.793,0.000,0
1606130960.087,-93.262,-19.531,-50.293,-215.820,0.000,0
1606130960.091,-34.668,-15.625,-51.758,-84.961,0.000,0
1606130960.095,38.086,-11.230,-43.457,106.445,0.000,0
1606130960.099,40.527,-7.324,-36.621,114.746,0.000,0
1606130960.103,-30.273,-13.672,-41.504,-82.520,0.000,0
1606130960.107,-78.613,-18.066,-56.152,-201.660,0.000,0
1606130960.111,-36.133,-18.555,-51.758,-97.168,0.000,0
1606130960.115,37.598,-14.648,-40.039,98.145,0.000,0
1606130960.119,40.039,-19.043,-33.691,136.719,0.000,0
1606130960.122,-35.156,-25.391,-31.738,-46.875,0.000,0
1606130960.126,-91.309,-30.762,-39.551,-202.637,0.000,0
1606130960.130,-57.129,-33.203,-40.039,-125.977,0.000,0
1606130960.134,21.973,-22.949,-30.273,83.984,0.000,0
1606130960.138,39.551,-20.508,-29.297,142.578,0.000,0
1606130960.142,-24.902,-30.273,-37.109,-28.320,0.000,0
1606130960.146,-83.984,-31.250,-34.180,-187.988,0.000,0
1606130960.150,-56.152,-21.484,-32.715,-136.719,0.000,0
1606130960.154,20.508,-17.090,-35.645,68.848,0.000,0
1606130960.158,47.852,-16.602,-31.250,162.109,0.000,0
1606130960.162,-2.441,-17.090,-27.832,25.879,0.000,0
1606130960.165,-71.777,-26.855,-22.949,-153.809,0.000,0
1606130960.169,-65.430,-35.156,-21.973,-139.648,0.000,0
1606130960.173,8.789,-11.230,-19.043,60.547,0.000,0
1606130960.177,49.316,4.883,-16.113,172.852,0.000,0
1606130960.181,0.488,-16.602,-22.949,49.316,0.000,0
1606130960.185,-67.383,-22.461,-25.879,-141.602,0.000,0
1606130960.189,-55.176,-16.113,-20.020,-151.855,0.000,0
1606130960.193,17.578,-15.625,-18.066,38.574,0.000,0
1606130960.197,59.082,-17.090,-21.973,166.016,0.000,0
1606130960.201,18.066,-25.391,-30.273,64.941,0.000,0
1606130960.204,-59.570,-32.715,-35.156,-143.555,0.000,0
1606130960.208,-69.824,-32.227,-28.320,-181.641,0.000,0
1606130960.212,7.812,-25.391,-17.090,7.324,0.000,0
1606130960.216,62.012,-15.625,-19.531,158.203,0.000,0
1606130960.220,28.809,-13.184,-27.344,83.496,0.000,0
1606130960.224,-49.805,-16.602,-35.156,-117.188,0.000,0
1606130960.228,-72.754,-25.391,-33.203,-178.223,0.000,0
1606130960.232,-15.137,-27.344,-22.461,-16.602,0.000,0
1606130960.236,31.738,-30.273,-25.879,146.484,0.000,0
1606130960.240,7.812,-27.832,-31.738,102.539,0.000,0
1606130960.244,-65.918,-30.273,-35.645,-106.934,0.000,0
1606130960.247,-96.191,-34.668,-39.551,-200.195,0.000,0
1606130960.251,-37.598,-31.250,-28.809,-47.363,0.000,0
1606130960.255,32.715,-29.297,-25.391,138.184,0.000,0
1606130960.259,17.090,-30.762,-30.762,122.559,0.000,0
1606130960.263,-63.477,-34.668,-33.203,-83.008,0.000,0
1606130960.267,-101.562,-34.180,-29.785,-205.078,0.000,0
1606130960.271,-46.875,-21.973,-20.508,-88.867,0.000,0
1606130960.275,31.738,-8.301,-20.996,102.539,0.000,0
1606130960.279,26.367,-9.277,-24.902,123.047,0.000,0
1606130960.283,-51.758,-24.414,-28.809,-65.918,0.000,0
1606130960.287,-90.332,-35.645,-26.855,-212.402,0.000,0
1606130960.290,-48.828,-32.715,-25.879,-123.047,0.000,0
1606130960.294,25.391,-23.926,-30.762,92.285,0.000,0
1606130960.298,38.086,-19.043,-27.344,145.996,0.000,0
1606130960.302,-30.762,-31.250,-30.273,-36.133,0.000,0
1606130960.306,-83.984,-32.715,-28.320,-191.895,0.000,0
1606130960.310,-51.758,-18.066,-22.461,-123.535,0.000,0
1606130960.314,24.414,-12.207,-15.137,90.332,0.000,0
1606130960.318,41.992,-15.625,-18.555,174.316,0.000,0
1606130960.322,-25.391,-26.855,-29.297,1.953,0.000,0
1606130960.326,-87.402,-32.227,-32.715,-181.152,0.000,0
1606130960.329,-66.406,-26.367,-31.250,-138.184,0.000,0
1606130960.333,7.324,-18.066,-29.297,65.430,0.000,0
1606130960.337,51.270,-14.648,-25.391,171.387,0.000,0
1606130960.341,-2.930,-26.367,-23.926,35.156,0.000,0
1606130960.345,-85.938,-40.527,-28.320,-155.273,0.000,0
1606130960.349,-74.707,-39.062,-26.855,-147.461,0.000,0
1606130960.353,11.230,-9.277,-19.531,55.664,0.000,0
1606130960.357,53.223,2.441,-16.113,170.410,0.000,0
1606130960.361,2.441,-23.926,-25.391,41.992,0.000,0
1606130960.365,-75.195,-37.109,-29.297,-154.297,0.000,0
1606130960.369,-75.195,-40.527,-20.020,-163.086,0.000,0
1606130960.372,3.906,-36.621,-16.602,32.715,0.000,0
1606130960.376,49.316,-26.855,-17.090,167.969,0.000,0
1606130960.380,3.418,-29.785,-20.996,74.219,0.000,0
1606130960.384,-67.871,-39.551,-33.203,-130.371,0.000,0
1606130960.388,-79.590,-35.645,-31.738,-182.617,0.000,0
1606130960.392,-11.230,-23.438,-28.320,-3.906,0.000,0
1606130960.396,47.852,-20.508,-32.715,156.250,0.000,0
1606130960.400,20.020,-29.297,-25.879,91.797,0.000,0
1606130960.404,-53.223,-33.203,-20.996,-112.793,0.000,0
1606130960.408,-78.125,-36.621,-29.297,-191.895,0.000,0
1606130960.412,-13.672,-21.484,-33.203,-35.156,0.000,0
1606130960.415,53.711,-14.160,-24.414,139.160,0.000,0
1606130960.419,30.762,-25.391,-25.391,100.586,0.000,0
1606130960.423,-50.293,-34.668,-32.227,-110.352,0.000,0
1606130960.427,-81.055,-35.645,-28.809,-203.125,0.000,0
1606130960.431,-27.344,-25.879,-28.320,-61.035,0.000,0
1606130960.435,34.180,-24.902,-21.484,122.070,0.000,0
1606130960.439,19.531,-28.809,-13.184,119.629,0.000,0
1606130960.443,-56.152,-24.414,-26.855,-82.520,0.000,0
1606130960.447,-97.656,-31.738,-31.250,-210.449,0.000,0
1606130960.451,-63.965,-36.621,-30.273,-111.816,0.000,0
1606130960.454,0.000,-21.484,-32.227,66.895,0.000,0
1606130960.458,4.395,-22.461,-31.250,93.262,0.000,0
1606130960.462,-70.801,-34.180,-28.320,-93.750,0.000,0
1606130960.466,-117.676,-38.574,-21.973,-228.516,0.000,0
1606130960.470,-81.543,-33.203,-23.438,-152.344,0.000,0
1606130960.474,-27.344,-19.043,-21.484,23.438,0.000,0
1606130960.478,-36.621,-24.902,-17.090,64.941,0.000,0
1606130960.482,-106.445,-26.855,-15.137,-106.445,0.000,0
1606130960.486,-167.480,-28.809,-11.719,-260.742,0.000,0
1606130960.490,-148.926,-34.180,-11.719,-209.473,0.000,0
1606130960.494,-64.453,-8.301,-8.301,-1.953,0.000,0
1606130960.497,-30.273,-13.672,-2.441,93.750,0.000,0
1606130960.501,-95.703,-35.156,-3.418,-64.453,0.000,0
1606130960.505,-153.320,-36.621,-7.324,-237.305,0.000,0
1606130960.509,-120.117,-35.156,-9.766,-188.477,0.000,0
1606130960.513,-33.203,-25.391,-7.324,13.672,0.000,0
1606130960.517,10.742,-24.414,-12.207,118.652,0.000,0
1606130960.521,-26.855,-27.344,-16.113,3.906,0.000,0
1606130960.525,-95.215,-29.297,-15.625,-178.223,0.000,0
1606130960.529,-87.402,-31.250,-20.020,-174.805,0.000,0
1606130960.533,1.465,-24.902,-15.137,31.250,0.000,0
1606130960.537,46.387,-18.066,-7.324,157.227,0.000,0
1606130960.540,2.441,-18.555,-12.207,54.688,0.000,0
1606130960.544,-72.266,-25.879,-26.855,-143.555,0.000,0
1606130960.548,-83.496,-42.969,-30.762,-188.965,0.000,0
1606130960.552,-3.906,-13.184,-24.414,7.324,0.000,0
1606130960.556,54.688,16.113,-14.648,167.969,0.000,0
1606130960.560,22.461,-19.531,-11.719,89.355,0.000,0
1606130960.564,-51.270,-32.715,-25.879,-111.328,0.000,0
1606130960.568,-67.383,-28.320,-31.738,-170.898,0.000,0
1606130960.572,-5.859,-28.320,-29.297,-4.883,0.000,0
1606130960.576,48.828,-31.250,-25.391,155.273,0.000,0
1606130960.579,22.461,-33.691,-17.090,102.539,0.000,0
1606130960.583,-62.988,-34.668,-20.508,-104.492,0.000,0
1606130960.587,-88.379,-35.645,-29.297,-191.406,0.000,0
1606130960.591,-25.879,-10.254,-31.250,-42.969,0.000,0
1606130960.595,42.480,10.254,-30.762,143.555,0.000,0
1606130960.599,34.668,-12.207,-25.391,129.883,0.000,0
1606130960.603,-46.875,-24.414,-25.391,-76.172,0.000,0
1606130960.607,-84.961,-26.367,-29.785,-186.523,0.000,0
1606130960.611,-33.691,-19.531,-27.344,-61.035,0.000,0
1606130960.615,39.551,-19.531,-23.926,128.418,0.000,0
1606130960.619,36.621,-29.297,-18.066,155.273,0.000,0
1606130960.622,-39.062,-35.156,-26.367,-55.176,0.000,0
1606130960.626,-78.125,-31.250,-32.715,-210.938,0.000,0
1606130960.630,-34.180,-20.020,-22.461,-98.145,0.000,0
1606130960.634,30.273,-8.301,-24.414,110.352,0.000,0
1606130960.638,32.227,-12.695,-32.227,149.902,0.000,0
1606130960.642,-38.086,-26.367,-36.621,-46.387,0.000,0
1606130960.646,-83.496,-28.320,-33.691,-187.988,0.000,0
1606130960.650,-44.434,-30.762,-25.879,-98.633,0.000,0
1606130960.654,32.227,-33.691,-19.531,101.074,0.000,0
1606130960.658,50.781,-29.785,-18.066,158.691,0.000,0
1606130960.662,-15.625,-26.367,-20.996,-2.441,0.000,0
1606130960.665,-82.520,-33.203,-23.926,-171.387,0.000,0
1606130960.669,-67.871,-32.715,-22.949,-133.301,0.000,0
1606130960.673,11.230,-20.996,-22.461,79.590,0.000,0
1606130960.677,40.039,-21.484,-23.926,166.504,0.000,0
1606130960.681,-16.113,-30.762,-27.344,9.766,0.000,0
1606130960.685,-76.172,-30.273,-30.273,-169.922,0.000,0
1606130960.689,-61.035,-36.133,-28.320,-159.180,0.000,0
1606130960.693,11.719,-22.949,-25.879,42.969,0.000,0
1606130960.697,44.434,-18.066,-23.926,155.762,0.000,0
1606130960.701,-8.789,-35.156,-20.508,19.531,0.000,0
1606130960.704,-89.355,-35.156,-23.438,-171.875,0.000,0
1606130960.708,-83.496,-33.691,-29.785,-185.059,0.000,0
1606130960.712,0.488,-26.855,-25.879,12.695,0.000,0
1606130960.716,43.945,-23.438,-18.066,154.297,0.000,0
1606130960.720,2.930,-34.180,-22.461,52.734,0.000,0
1606130960.724,-69.824,-37.109,-30.273,-142.578,0.000,0
1606130960.728,-82.520,-45.898,-30.273,-177.246,0.000,0
1606130960.732,-14.160,-24.414,-26.367,1.953,0.000,0
1606130960.736,43.945,4.883,-26.367,149.414,0.000,0
1606130960.740,15.625,-26.855,-24.902,88.379,0.000,0
1606130960.744,-64.941,-54.199,-24.902,-113.770,0.000,0
1606130960.747,-81.543,-54.688,-22.461,-189.941,0.000,0
1606130960.751,-8.301,-35.645,-14.648,-22.949,0.000,0
1606130960.755,48.828,-21.973,-13.184,154.297,0.000,0
1606130960.759,25.391,-28.320,-18.066,111.816,0.000,0
1606130960.763,-55.664,-34.180,-19.531,-94.238,0.000,0
1606130960.767,-90.820,-44.922,-27.344,-185.059,0.000,0
1606130960.771,-31.738,-28.809,-30.762,-52.734,0.000,0
1606130960.775,35.156,-4.395,-21.973,118.652,0.000,0
1606130960.779,24.902,-27.832,-23.926,96.680,0.000,0
1606130960.783,-52.246,-41.504,-24.414,-102.539,0.000,0
1606130960.787,-87.402,-39.062,-25.391,-208.496,0.000,0
1606130960.790,-44.434,-36.133,-26.367,-84.961,0.000,0
1606130960.794,16.602,-31.738,-21.484,108.398,0.000,0
1606130960.798,17.090,-32.715,-25.391,120.117,0.000,0
1606130960.802,-51.758,-28.320,-29.785,-76.660,0.000,0
1606130960.806,-91.797,-23.926,-34.180,-210.449,0.000,0
1606130960.810,-34.668,-17.090,-34.668,-104.492,0.000,0
1606130960.814,40.527,-15.625,-23.438,104.492,0.000,0
1606130960.818,34.668,-25.391,-12.207,143.555,0.000,0
1606130960.822,-41.992,-29.785,-12.207,-41.992,0.000,0
1606130960.826,-97.168,-35.156,-18.555,-196.289,0.000,0
1606130960.829,-61.523,-38.086,-15.137,-121.582,0.000,0
1606130960.833,18.555,-2.930,-9.277,93.262,0.000,0
1606130960.837,39.551,1.465,-9.766,173.828,0.000,0
1606130960.841,-22.461,-36.133,-12.207,20.020,0.000,0
1606130960.845,-87.402,-44.922,-16.602,-158.691,0.000,0
1606130960.849,-71.289,-40.039,-8.789,-120.605,0.000,0
1606130960.853,8.301,-30.762,-0.977,82.031,0.000,0
1606130960.857,39.551,-33.203,-1.465,168.945,0.000,0
1606130960.861,-14.648,-41.992,-9.766,41.504,0.000,0
1606130960.865,-76.660,-49.316,-18.066,-128.906,0.000,0
1606130960.869,-72.266,-53.711,-16.602,-128.906,0.000,0
1606130960.872,-1.953,-28.320,-15.137,57.617,0.000,0
1606130960.876,39.062,-18.066,-9.766,172.363,0.000,0
1606130960.880,-12.695,-39.551,-15.137,52.734,0.000,0
1606130960.884,-83.496,-40.039,-23.438,-137.207,0.000,0
1606130960.888,-76.660,-31.738,-23.438,-147.949,0.000,0
1606130960.892,-1.465,-28.320,-23.926,36.133,0.000,0
1606130960.896,47.363,-32.715,-17.090,169.434,0.000,0
1606130960.900,2.441,-37.598,-19.043,80.566,0.000,0
1606130960.904,-80.078,-37.598,-23.438,-126.953,0.000,0
1606130960.908,-91.797,-41.016,-17.090,-173.828,0.000,0
1606130960.912,-22.461,-24.414,-17.090,8.301,0.000,0
1606130960.915,28.809,-1.953,-21.484,160.156,0.000,0
1606130960.919,0.977,-24.414,-28.320,91.309,0.000,0
1606130960.923,-75.684,-48.828,-32.715,-120.117,0.000,0
1606130960.927,-99.121,-46.387,-28.320,-200.684,0.000,0
1606130960.931,-29.785,-31.738,-21.484,-39.062,0.000,0
1606130960.935,31.250,-33.203,-22.949,132.324,0.000,0
1606130960.939,13.672,-48.828,-27.832,92.285,0.000,0
1606130960.943,-63.477,-47.852,-31.738,-115.234,0.000,0
1606130960.947,-98.633,-47.363,-37.598,-215.820,0.000,0
1606130960.951,-40.527,-42.480,-37.109,-76.172,0.000,0
1606130960.954,39.551,-35.645,-23.926,123.047,0.000,0
1606130960.958,34.668,-43.945,-21.484,128.906,0.000,0
1606130960.962,-46.387,-43.945,-34.668,-75.195,0.000,0
1606130960.966,-86.426,-41.992,-29.297,-196.777,0.000,0
1606130960.970,-37.109,-30.762,-20.508,-84.961,0.000,0
1606130960.974,36.621,-9.766,-22.949,113.770,0.000,0
1606130960.978,34.180,-24.414,-25.391,137.207,0.000,0
1606130960.982,-50.293,-44.922,-25.391,-58.105,0.000,0
1606130960.986,-94.727,-44.434,-26.367,-187.012,0.000,0
1606130960.990,-53.711,-37.109,-24.414,-98.145,0.000,0
1606130960.994,18.066,-32.715,-23.926,101.074,0.000,0
1606130960.997,30.273,-36.133,-23.438,158.691,0.000,0
1606130961.001,-42.969,-42.480,-21.484,-15.625,0.000,0
1606130961.005,-97.656,-42.969,-32.715,-180.664,0.000,0
1606130961.009,-68.848,-49.805,-33.203,-139.160,0.000,0
1606130961.013,2.930,-16.113,-23.926,58.594,0.000,0
1606130961.017,30.762,2.441,-20.996,145.508,0.000,0
1606130961.021,-25.391,-36.133,-23.926,-9.766,0.000,0
1606130961.025,-89.844,-49.805,-30.273,-186.523,0.000,0
1606130961.029,-78.613,-48.828,-27.832,-151.367,0.000,0
1606130961.033,0.977,-44.922,-24.902,45.410,0.000,0
1606130961.037,45.410,-37.598,-24.902,146.973,0.000,0
1606130961.040,-7.812,-40.527,-30.762,19.531,0.000,0
1606130961.044,-80.566,-48.828,-31.738,-170.898,0.000,0
1606130961.048,-74.219,-42.969,-27.832,-171.387,0.000,0
1606130961.052,5.859,-30.273,-27.832,29.785,0.000,0
1606130961.056,46.387,-33.203,-27.832,148.438,0.000,0
1606130961.060,-3.906,-39.062,-25.391,38.574,0.000,0
1606130961.064,-73.242,-38.574,-26.855,-152.344,0.000,0
1606130961.068,-79.102,-38.574,-34.180,-187.012,0.000,0
1606130961.072,-6.836,-23.926,-28.809,4.883,0.000,0
1606130961.076,44.922,-19.043,-21.973,156.738,0.000,0
1606130961.079,7.324,-28.809,-18.555,73.730,0.000,0
1606130961.083,-70.801,-36.133,-20.020,-126.465,0.000,0
1606130961.087,-88.379,-43.457,-28.320,-191.895,0.000,0
1606130961.091,-23.926,-37.109,-24.902,-28.809,0.000,0
1606130961.095,33.203,-25.879,-14.648,140.137,0.000,0
1606130961.099,15.625,-25.879,-16.602,96.191,0.000,0
1606130961.103,-68.359,-34.668,-26.855,-111.328,0.000,0
1606130961.107,-102.539,-39.551,-27.832,-192.871,0.000,0
1606130961.111,-40.527,-35.645,-24.902,-46.387,0.000,0
1606130961.115,24.902,-29.785,-24.902,122.559,0.000,0
1606130961.119,12.207,-28.809,-20.996,102.539,0.000,0
1606130961.122,-67.383,-34.180,-28.320,-100.586,0.000,0
1606130961.126,-108.398,-40.527,-39.062,-210.449,0.000,0
1606130961.130,-58.594,-33.691,-31.738,-85.449,0.000,0
1606130961.134,17.090,-25.391,-22.461,106.934,0.000,0
1606130961.138,16.602,-28.320,-26.367,115.723,0.000,0
1606130961.142,-60.059,-34.180,-34.180,-79.590,0.000,0
1606130961.146,-99.121,-38.574,-33.203,-197.266,0.000,0
1606130961.150,-61.523,-33.691,-34.668,-96.191,0.000,0
1606130961.154,11.230,-8.301,-26.855,94.727,0.000,0
1606130961.158,23.438,-13.184,-23.438,115.723,0.000,0
1606130961.162,-50.293,-32.227,-32.715,-73.242,0.000,0
1606130961.165,-102.051,-33.691,-41.016,-208.008,0.000,0
1606130961.169,-67.383,-34.668,-40.527,-137.695,0.000,0
1606130961.173,8.789,-29.297,-31.250,58.105,0.000,0
1606130961.177,24.414,-25.879,-31.250,125.488,0.000,0
1606130961.181,-34.668,-29.297,-28.809,-28.809,0.000,0
1606130961.185,-91.309,-32.227,-30.762,-189.941,0.000,0
1606130961.189,-72.754,-36.133,-32.715,-145.996,0.000,0
1606130961.193,7.324,-4.395,-23.926,65.430,0.000,0
1606130961.197,43.945,16.602,-31.250,155.273,0.000,0
1606130961.201,-15.625,-20.508,-39.062,10.254,0.000,0
1606130961.204,-85.449,-39.062,-26.367,-166.016,0.000,0
1606130961.208,-86.914,-41.504,-15.137,-152.832,0.000,0
1606130961.212,-25.391,-42.480,-12.207,39.062,0.000,0
1606130961.216,8.301,-37.598,-11.230,145.996,0.000,0
1606130961.220,-42.969,-40.527,-11.230,28.320,0.000,0
1606130961.224,-117.188,-42.969,-14.648,-159.668,0.000,0
1606130961.228,-114.746,-41.992,-12.207,-172.363,0.000,0
1606130961.232,-30.273,-37.109,0.977,27.832,0.000,0
1606130961.236,14.648,-34.668,2.930,159.668,0.000,0
1606130961.240,-22.949,-41.992,-9.766,60.059,0.000,0
1606130961.244,-90.820,-48.828,-12.695,-141.113,0.000,0
1606130961.247,-98.633,-54.688,-4.883,-182.129,0.000,0
1606130961.251,-29.297,-30.762,-1.953,-2.930,0.000,0
1606130961.255,22.461,-12.695,-3.418,148.438,0.000,0
1606130961.259,-9.277,-34.668,-7.324,79.102,0.000,0
1606130961.263,-87.402,-42.480,-12.695,-127.930,0.000,0
1606130961.267,-104.004,-38.086,-17.090,-196.289,0.000,0
1606130961.271,-33.203,-29.785,-13.184,-35.156,0.000,0
1606130961.275,38.086,-20.996,-1.953,132.324,0.000,0
1606130961.279,17.090,-23.438,-12.207,87.402,0.000,0
1606130961.283,-62.988,-32.715,-23.438,-110.840,0.000,0
1606130961.287,-84.961,-35.156,-20.508,-198.242,0.000,0
1606130961.290,-29.297,-24.414,-16.113,-59.082,0.000,0
1606130961.294,31.250,10.742,-15.625,127.930,0.000,0
1606130961.298,18.555,-1.953,-19.043,118.652,0.000,0
1606130961.302,-57.129,-36.133,-25.391,-90.820,0.000,0
1606130961.306,-92.773,-38.574,-26.367,-204.590,0.000,0
1606130961.310,-47.852,-41.016,-20.996,-89.844,0.000,0
1606130961.314,21.973,-35.156,-10.742,101.074,0.000,0
1606130961.318,24.414,-34.668,-11.230,127.441,0.000,0
1606130961.322,-60.059,-36.621,-20.508,-63.477,0.000,0
1606130961.326,-106.934,-42.480,-19.531,-199.219,0.000,0
1606130961.329,-56.152,-46.875,-14.160,-111.328,0.000,0
1606130961.333,21.484,-20.020,-7.812,91.309,0.000,0
1606130961.337,27.832,-23.438,-14.648,141.602,0.000,0
1606130961.341,-43.945,-51.270,-22.949,-35.645,0.000,0
1606130961.345,-94.238,-53.711,-21.484,-195.312,0.000,0
1606130961.349,-65.430,-41.504,-12.695,-122.559,0.000,0
1606130961.353,6.836,-28.809,-7.812,88.867,0.000,0
1606130961.357,30.273,-29.297,-17.090,145.996,0.000,0
1606130961.361,-36.621,-30.273,-23.926,-21.973,0.000,0
1606130961.365,-107.422,-39.062,-24.414,-187.012,0.000,0
1606130961.369,-85.449,-49.316,-24.902,-150.879,0.000,0
1606130961.372,-1.465,-31.738,-18.555,56.152,0.000,0
1606130961.376,29.785,-20.508,-18.555,159.180,0.000,0
1606130961.380,-28.320,-25.391,-23.438,20.996,0.000,0
1606130961.384,-99.609,-31.250,-29.297,-176.758,0.000,0
1606130961.388,-94.238,-37.598,-27.832,-176.270,0.000,0
1606130961.392,-14.160,-26.855,-18.555,31.738,0.000,0
1606130961.396,24.902,-17.090,-20.996,148.438,0.000,0
1606130961.400,-26.855,-31.250,-25.879,28.809,0.000,0
1606130961.404,-96.680,-45.410,-25.391,-170.898,0.000,0
1606130961.408,-98.145,-39.551,-22.949,-192.383,0.000,0
1606130961.412,-20.020,-26.855,-26.855,0.000,0.000,0
1606130961.415,30.273,-20.996,-22.461,135.254,0.000,0
1606130961.419,-12.695,-25.879,-24.902,41.504,0.000,0
1606130961.423,-91.309,-32.715,-30.273,-155.273,0.000,0
1606130961.427,-103.516,-35.645,-26.367,-198.242,0.000,0
1606130961.431,-33.691,-24.414,-29.785,-28.809,0.000,0
1606130961.435,23.926,-14.160,-25.391,123.535,0.000,0
1606130961.439,-11.719,-33.203,-23.438,61.035,0.000,0
1606130961.443,-91.797,-42.969,-26.855,-132.812,0.000,0
1606130961.447,-110.840,-46.875,-25.391,-201.172,0.000,0
1606130961.451,-49.805,-45.898,-20.508,-47.852,0.000,0
1606130961.454,12.695,-36.621,-14.648,122.559,0.000,0
1606130961.458,-0.488,-32.227,-16.113,89.844,0.000,0
1606130961.462,-72.754,-34.668,-17.090,-105.469,0.000,0
1606130961.466,-101.562,-41.504,-19.043,-202.637,0.000,0
1606130961.470,-46.387,-33.691,-20.508,-52.734,0.000,0
1606130961.474,23.438,-20.020,-14.160,145.508,0.000,0
1606130961.478,19.043,-29.785,-11.719,128.906,0.000,0
1606130961.482,-61.035,-32.715,-21.973,-78.125,0.000,0
1606130961.486,-102.051,-32.227,-30.273,-205.566,0.000,0
1606130961.490,-50.781,-29.785,-23.438,-88.379,0.000,0
1606130961.494,21.484,-12.207,-14.648,113.281,0.000,0
1606130961.497,24.902,-13.672,-13.184,137.695,0.000,0
1606130961.501,-49.805,-27.832,-20.508,-46.387,0.000,0
1606130961.505,-96.680,-24.902,-29.785,-187.988,0.000,0
1606130961.509,-58.105,-21.973,-22.461,-106.445,0.000,0
1606130961.513,12.695,-20.996,-8.301,98.145,0.000,0
1606130961.517,24.414,-22.461,-14.648,145.020,0.000,0
1606130961.521,-42.480,-27.832,-17.578,-27.832,0.000,0
1606130961.525,-97.656,-31.250,-21.484,-191.895,0.000,0
1606130961.529,-73.730,-32.715,-28.320,-149.902,0.000,0
1606130961.533,4.883,-10.742,-24.902,51.270,0.000,0
1606130961.537,32.715,-3.906,-23.926,132.324,0.000,0
1606130961.540,-28.320,-26.855,-26.367,-16.113,0.000,0
1606130961.544,-86.914,-36.621,-30.273,-190.430,0.000,0
1606130961.548,-77.148,-36.621,-37.109,-165.527,0.000,0
1606130961.552,-1.465,-26.367,-34.668,45.410,0.000,0
1606130961.556,34.668,-23.438,-21.484,150.391,0.000,0
1606130961.560,-19.043,-31.738,-19.043,23.926,0.000,0
1606130961.564,-86.914,-32.227,-26.855,-157.715,0.000,0
1606130961.568,-83.008,-26.367,-26.855,-162.109,0.000,0
1606130961.572,-2.441,-21.973,-22.461,34.668,0.000,0
1606130961.576,40.039,-16.602,-21.973,153.320,0.000,0
1606130961.579,-6.348,-28.809,-26.367,43.945,0.000,0
1606130961.583,-82.031,-34.180,-33.203,-153.320,0.000,0
1606130961.587,-92.285,-32.715,-33.691,-187.012,0.000,0
1606130961.591,-16.602,-23.926,-31.738,0.977,0.000,0
1606130961.595,36.621,-16.602,-34.180,141.602,0.000,0
1606130961.599,-3.906,-25.879,-32.227,51.270,0.000,0
1606130961.603,-86.426,-33.203,-31.250,-156.250,0.000,0
1606130961.607,-99.121,-38.574,-32.227,-215.332,0.000,0
1606130961.611,-26.855,-27.832,-28.809,-41.504,0.000,0
1606130961.615,33.691,-12.207,-26.367,121.582,0.000,0
1606130961.619,4.395,-21.973,-31.250,60.547,0.000,0
1606130961.622,-76.660,-32.715,-32.715,-148.926,0.000,0
1606130961.626,-102.539,-40.527,-36.621,-228.027,0.000,0
1606130961.630,-42.969,-28.809,-35.156,-72.754,0.000,0
1606130961.634,19.531,-15.625,-20.508,114.746,0.000,0
1606130961.638,4.883,-22.461,-13.184,97.168,0.000,0
1606130961.642,-73.730,-30.762,-19.531,-110.352,0.000,0
1606130961.646,-111.816,-38.574,-28.320,-216.309,0.000,0
1606130961.650,-58.594,-35.645,-27.832,-90.332,0.000,0
1606130961.654,2.441,-29.297,-22.949,94.238,0.000,0
1606130961.658,-6.348,-27.344,-19.531,104.492,0.000,0
1606130961.662,-79.102,-24.414,-24.902,-94.727,0.000,0
1606130961.665,-129.883,-30.273,-28.320,-229.980,0.000,0
1606130961.669,-87.891,-43.457,-23.926,-130.859,0.000,0
1606130961.673,-2.930,-25.879,-23.926,80.566,0.000,0
1606130961.677,13.184,-11.719,-29.785,124.512,0.000,0
1606130961.681,-72.266,-24.902,-36.621,-80.566,0.000,0
1606130961.685,-135.254,-23.438,-41.016,-245.117,0.000,0
1606130961.689,-98.633,-20.508,-44.922,-179.199,0.000,0
1606130961.693,-15.625,-14.648,-48.340,20.020,0.000,0
1606130961.697,10.254,-9.277,-50.781,87.402,0.000,0
1606130961.701,-63.477,-9.277,-57.129,-82.031,0.000,0
1606130961.704,-122.070,-10.742,-67.871,-245.117,0.000,0
1606130961.708,-77.148,-6.348,-71.289,-187.500,0.000,0
1606130961.712,21.973,-1.465,-67.871,27.832,0.000,0
1606130961.716,65.918,1.465,-72.266,125.977,0.000,0
1606130961.720,21.973,7.324,-77.148,-2.930,0.000,0
1606130961.724,-32.227,-1.953,-83.008,-168.945,0.000,0
1606130961.728,-13.672,-9.277,-84.473,-146.973,0.000,0
1606130961.732,65.918,-7.324,-70.312,64.453,0.000,0
1606130961.736,101.562,-10.254,-66.895,176.270,0.000,0
1606130961.740,55.664,-6.348,-65.430,56.152,0.000,0
1606130961.744,-16.113,-8.789,-67.871,-142.578,0.000,0
1606130961.747,-15.625,-6.836,-67.871,-160.156,0.000,0
1606130961.751,61.523,2.441,-57.129,44.922,0.000,0
1606130961.755,108.398,1.465,-50.293,184.082,0.000,0
1606130961.759,61.523,-9.277,-56.152,86.426,0.000,0
1606130961.763,-21.484,-28.320,-70.312,-121.582,0.000,0
1606130961.767,-24.414,-30.273,-63.965,-164.062,0.000,0
1606130961.771,55.664,-12.207,-51.270,30.273,0.000,0
1606130961.775,105.469,4.883,-50.293,177.246,0.000,0
1606130961.779,67.383,-10.742,-56.152,93.750,0.000,0
1606130961.783,-12.207,-28.320,-55.176,-107.422,0.000,0
1606130961.787,-32.227,-22.461,-43.945,-159.668,0.000,0
1606130961.790,32.715,-14.648,-39.062,9.766,0.000,0
1606130961.794,88.379,-15.625,-34.180,167.969,0.000,0
1606130961.798,68.848,-18.066,-30.273,129.395,0.000,0
1606130961.802,-8.301,-17.090,-38.574,-65.430,0.000,0
1606130961.806,-43.945,-23.926,-42.480,-161.621,0.000,0
1606130961.810,11.719,-17.090,-36.621,-20.508,0.000,0
1606130961.814,80.078,12.207,-34.668,165.527,0.000,0
1606130961.818,69.336,-0.977,-38.574,149.902,0.000,0
1606130961.822,-12.207,-27.832,-43.457,-57.129,0.000,0
1606130961.826,-54.199,-31.250,-44.922,-172.852,0.000,0
1606130961.829,-4.395,-28.320,-43.945,-55.176,0.000,0
1606130961.833,64.453,-21.973,-39.551,135.742,0.000,0
1606130961.837,57.129,-22.949,-36.621,149.414,0.000,0
1606130961.841,-16.602,-26.367,-41.504,-41.504,0.000,0
1606130961.845,-62.012,-29.297,-43.945,-169.434,0.000,0
1606130961.849,-23.438,-25.879,-37.598,-74.707,0.000,0
1606130961.853,58.105,-2.441,-34.668,119.629,0.000,0
1606130961.857,70.312,4.395,-35.156,160.156,0.000,0
1606130961.861,-4.395,-19.043,-38.086,-26.367,0.000,0
1606130961.865,-63.965,-29.785,-41.504,-182.129,0.000,0
1606130961.869,-31.250,-24.902,-34.668,-105.469,0.000,0
1606130961.872,48.828,-14.160,-29.297,98.145,0.000,0
1606130961.876,61.523,-18.555,-30.273,162.598,0.000,0
1606130961.880,-8.301,-24.414,-33.203,2.930,0.000,0
1606130961.884,-68.359,-24.414,-28.809,-165.527,0.000,0
1606130961.888,-43.945,-26.855,-20.508,-123.047,0.000,0
1606130961.892,38.574,-11.719,-18.555,81.543,0.000,0
1606130961.896,62.988,-9.766,-23.438,169.434,0.000,0
1606130961.900,-9.277,-23.926,-28.320,24.414,0.000,0
1606130961.904,-80.078,-20.996,-29.785,-153.320,0.000,0
1606130961.908,-65.918,-20.996,-27.344,-146.484,0.000,0
1606130961.912,8.301,-8.301,-23.926,40.039,0.000,0
1606130961.915,47.363,-3.906,-22.461,155.273,0.000,0
1606130961.919,1.465,-20.996,-19.043,44.922,0.000,0
1606130961.923,-73.242,-31.250,-21.484,-151.367,0.000,0
1606130961.927,-77.637,-33.691,-27.832,-172.363,0.000,0
1606130961.931,1.465,-21.484,-22.461,20.508,0.000,0
1606130961.935,48.340,-19.043,-18.555,156.738,0.000,0
1606130961.939,9.277,-26.855,-23.438,66.895,0.000,0
1606130961.943,-62.012,-31.738,-34.180,-129.883,0.000,0
1606130961.947,-74.707,-35.645,-31.250,-172.852,0.000,0
1606130961.951,-13.184,-29.785,-23.926,-14.648,0.000,0
1606130961.954,42.480,-2.930,-24.414,143.066,0.000,0
1606130961.958,21.484,-9.766,-26.367,96.680,0.000,0
1606130961.962,-52.246,-32.715,-33.203,-117.188,0.000,0
1606130961.966,-83.008,-28.320,-37.598,-212.891,0.000,0
1606130961.970,-30.273,-18.066,-35.645,-72.266,0.000,0
1606130961.974,32.715,-11.230,-39.062,98.633,0.000,0
1606130961.978,13.184,-13.184,-46.875,67.383,0.000,0
1606130961.982,-59.570,-14.648,-53.711,-133.789,0.000,0
1606130961.986,-84.961,-13.184,-62.012,-221.680,0.000,0
1606130961.990,-17.090,-10.254,-56.641,-77.637,0.000,0
1606130961.994,54.688,-8.789,-48.340,106.934,0.000,0
1606130961.997,28.809,-17.578,-46.387,98.633,0.000,0
1606130962.001,-53.223,-26.367,-47.363,-100.098,0.000,0
1606130962.005,-87.891,-26.855,-49.316,-212.402,0.000,0
1606130962.009,-41.504,-25.879,-50.781,-97.168,0.000,0
1606130962.013,29.785,-20.508,-44.922,91.797,0.000,0
1606130962.017,38.574,-18.555,-35.645,116.699,0.000,0
1606130962.021,-22.949,-24.414,-31.738,-60.059,0.000,0
1606130962.025,-85.938,-30.762,-40.039,-197.266,0.000,0
1606130962.029,-65.430,-24.902,-47.852,-119.629,0.000,0
1606130962.033,24.414,-10.742,-34.180,87.891,0.000,0
1606130962.037,48.340,-9.277,-25.879,145.996,0.000,0
1606130962.040,-26.855,-20.996,-35.645,-36.133,0.000,0
1606130962.044,-87.402,-32.715,-38.086,-193.848,0.000,0
1606130962.048,-58.594,-36.133,-31.250,-133.301,0.000,0
1606130962.052,16.602,-18.555,-26.367,68.359,0.000,0
1606130962.056,44.922,-13.184,-27.344,146.973,0.000,0
1606130962.060,-20.508,-28.809,-34.668,-12.207,0.000,0
1606130962.064,-92.285,-31.738,-39.551,-186.035,0.000,0
1606130962.068,-68.848,-34.180,-32.227,-153.320,0.000,0
1606130962.072,8.301,-18.066,-35.156,41.504,0.000,0
1606130962.076,37.598,0.977,-41.016,133.301,0.000,0
1606130962.079,-13.184,-14.160,-37.109,8.301,0.000,0
1606130962.083,-74.219,-26.367,-42.480,-178.711,0.000,0
1606130962.087,-62.988,-33.691,-42.480,-186.035,0.000,0
1606130962.091,5.371,-20.996,-31.738,14.648,0.000,0
1606130962.095,46.875,-10.742,-27.344,142.090,0.000,0
1606130962.099,0.000,-26.367,-28.809,35.156,0.000,0
1606130962.103,-78.613,-31.250,-32.227,-157.227,0.000,0
1606130962.107,-82.031,-30.273,-36.621,-187.012,0.000,0
1606130962.111,-11.230,-28.320,-30.273,-5.371,0.000,0
1606130962.115,37.598,-20.996,-25.391,139.648,0.000,0
1606130962.119,2.930,-22.949,-30.762,57.617,0.000,0
1606130962.122,-75.195,-28.809,-38.086,-139.648,0.000,0
1606130962.126,-86.426,-27.832,-36.621,-191.406,0.000,0
1606130962.130,-15.137,-20.996,-31.738,-16.113,0.000,0
1606130962.134,30.762,-7.324,-30.762,142.090,0.000,0
1606130962.138,1.465,-14.648,-33.691,80.078,0.000,0
1606130962.142,-81.055,-33.203,-38.574,-124.512,0.000,0
1606130962.146,-106.934,-34.668,-31.250,-192.871,0.000,0
1606130962.150,-39.062,-27.832,-22.461,-41.016,0.000,0
1606130962.154,22.461,-23.438,-20.508,126.465,0.000,0
1606130962.158,9.277,-32.227,-26.367,100.098,0.000,0
1606130962.162,-60.547,-40.527,-35.645,-99.121,0.000,0
1606130962.165,-92.773,-38.574,-39.551,-197.754,0.000,0
1606130962.169,-38.086,-32.227,-34.668,-73.242,0.000,0
1606130962.173,32.227,-19.531,-28.809,107.910,0.000,0
1606130962.177,21.973,-21.484,-30.273,115.234,0.000,0
1606130962.181,-51.758,-31.250,-27.344,-75.684,0.000,0
1606130962.185,-93.750,-35.645,-24.902,-201.172,0.000,0
1606130962.189,-54.688,-40.039,-28.809,-96.680,0.000,0
1606130962.193,18.555,-16.113,-29.297,97.656,0.000,0
1606130962.197,26.855,-9.277,-28.809,129.883,0.000,0
1606130962.201,-42.480,-32.227,-23.438,-49.805,0.000,0
1606130962.204,-98.145,-38.574,-19.043,-196.289,0.000,0
1606130962.208,-71.777,-37.598,-23.438,-125.488,0.000,0
1606130962.212,8.789,-33.691,-26.367,72.266,0.000,0
1606130962.216,28.809,-26.367,-27.344,124.512,0.000,0
1606130962.220,-42.969,-28.809,-33.691,-43.945,0.000,0
1606130962.224,-98.633,-28.809,-38.574,-201.660,0.000,0
1606130962.228,-71.289,-29.785,-31.738,-148.926,0.000,0
1606130962.232,1.953,-16.602,-30.762,52.246,0.000,0
1606130962.236,21.484,-0.488,-33.203,124.023,0.000,0
1606130962.240,-43.457,-26.367,-35.645,-23.926,0.000,0
1606130962.244,-104.980,-41.992,-43.945,-196.777,0.000,0
1606130962.247,-86.914,-36.621,-40.527,-171.387,0.000,0
1606130962.251,-6.836,-30.273,-22.461,35.156,0.000,0
1606130962.255,23.926,-26.367,-19.043,143.066,0.000,0
1606130962.259,-29.297,-29.297,-27.344,15.625,0.000,0
1606130962.263,-92.285,-28.809,-38.086,-178.711,0.000,0
1606130962.267,-80.566,-35.645,-37.598,-166.992,0.000,0
1606130962.271,-7.324,-26.367,-23.926,42.969,0.000,0
1606130962.275,15.625,-11.719,-17.090,150.391,0.000,0
1606130962.279,-43.457,-34.180,-11.230,29.785,0.000,0
1606130962.283,-119.141,-49.316,-9.766,-175.293,0.000,0
1606130962.287,-126.465,-50.781,-6.836,-208.008,0.000,0
1606130962.290,-62.988,-47.852,5.859,-30.273,0.000,0
1606130962.294,-15.625,-44.434,16.602,113.281,0.000,0
1606130962.298,-40.039,-47.363,20.996,55.664,0.000,0
1606130962.302,-116.211,-57.129,17.578,-144.531,0.000,0
1606130962.306,-142.578,-70.312,16.113,-213.379,0.000,0
1606130962.310,-75.684,-66.895,23.438,-39.062,0.000,0
1606130962.314,-12.207,-48.340,28.320,126.953,0.000,0
1606130962.318,-33.203,-53.223,28.320,85.449,0.000,0
1606130962.322,-103.516,-62.500,24.414,-108.887,0.000,0
1606130962.326,-129.395,-64.941,23.438,-195.312,0.000,0
1606130962.329,-74.707,-64.453,25.391,-49.805,0.000,0
1606130962.333,-2.441,-18.066,19.531,129.395,0.000,0
1606130962.337,-10.742,-9.277,16.602,110.840,0.000,0
1606130962.341,-92.285,-59.570,7.812,-87.402,0.000,0
1606130962.345,-128.418,-68.848,-0.977,-193.359,0.000,0
1606130962.349,-69.336,-59.570,10.254,-66.406,0.000,0
1606130962.353,11.230,-48.340,21.973,133.301,0.000,0
1606130962.357,13.672,-49.805,13.672,138.184,0.000,0
1606130962.361,-58.105,-50.781,5.859,-57.617,0.000,0
1606130962.365,-99.609,-45.410,2.930,-182.617,0.000,0
1606130962.369,-66.406,-55.664,-1.465,-95.215,0.000,0
1606130962.372,4.395,-25.391,0.488,91.797,0.000,0
1606130962.376,17.090,-13.672,7.324,124.512,0.000,0
1606130962.380,-52.734,-54.688,2.441,-56.152,0.000,0
1606130962.384,-105.469,-64.941,-6.836,-199.707,0.000,0
1606130962.388,-70.312,-54.688,1.953,-120.117,0.000,0
1606130962.392,10.742,-45.410,5.859,78.125,0.000,0
1606130962.396,29.297,-44.922,0.488,136.719,0.000,0
1606130962.400,-37.598,-50.781,1.465,-16.602,0.000,0
1606130962.404,-102.539,-56.152,-8.301,-186.035,0.000,0
1606130962.408,-80.566,-53.711,-11.719,-148.438,0.000,0
1606130962.412,3.418,-28.320,-5.371,61.523,0.000,0
1606130962.415,23.438,-7.812,-6.348,148.926,0.000,0
1606130962.419,-40.039,-33.691,-4.883,8.789,0.000,0
1606130962.423,-100.098,-54.688,-9.277,-168.457,0.000,0
1606130962.427,-87.402,-52.734,-14.160,-163.086,0.000,0
1606130962.431,-7.812,-47.363,-10.254,38.574,0.000,0
1606130962.435,33.691,-41.016,-7.812,153.809,0.000,0
1606130962.439,-18.066,-41.504,-17.090,27.344,0.000,0
1606130962.443,-92.773,-43.457,-23.926,-171.387,0.000,0
1606130962.447,-97.168,-43.457,-18.066,-180.664,0.000,0
1606130962.451,-19.531,-37.109,-7.324,25.391,0.000,0
1606130962.454,26.855,-32.227,-4.395,157.715,0.000,0
1606130962.458,-18.555,-36.133,-13.672,61.523,0.000,0
1606130962.462,-91.797,-35.156,-22.949,-144.531,0.000,0
1606130962.466,-103.027,-38.086,-22.461,-193.848,0.000,0
1606130962.470,-28.809,-30.762,-15.137,-7.812,0.000,0
1606130962.474,28.809,-17.090,-11.230,144.531,0.000,0
1606130962.478,-2.930,-28.320,-11.719,79.590,0.000,0
1606130962.482,-87.891,-38.086,-20.508,-126.465,0.000,0
1606130962.486,-109.375,-41.016,-26.855,-197.754,0.000,0
1606130962.490,-38.086,-34.180,-21.973,-34.180,0.000,0
1606130962.494,25.879,-25.391,-15.625,137.695,0.000,0
1606130962.497,15.625,-27.344,-10.742,103.027,0.000,0
1606130962.501,-53.223,-29.297,-15.625,-100.098,0.000,0
1606130962.505,-84.473,-27.832,-24.414,-197.754,0.000,0
1606130962.509,-37.598,-32.227,-23.438,-64.453,0.000,0
1606130962.513,21.484,-22.949,-23.926,108.398,0.000,0
1606130962.517,7.324,-16.602,-25.391,104.980,0.000,0
1606130962.521,-74.219,-30.273,-22.949,-77.148,0.000,0
1606130962.525,-115.234,-36.621,-17.090,-195.312,0.000,0
1606130962.529,-62.988,-36.621,-15.625,-80.566,0.000,0
1606130962.533,14.648,-27.344,-16.113,109.863,0.000,0
1606130962.537,28.320,-18.555,-14.160,118.652,0.000,0
1606130962.540,-39.062,-27.832,-22.461,-71.777,0.000,0
1606130962.544,-92.773,-33.691,-22.461,-204.590,0.000,0
1606130962.548,-57.129,-30.273,-17.090,-116.699,0.000,0
1606130962.552,17.578,-25.391,-22.461,81.543,0.000,0
1606130962.556,29.785,-25.879,-25.391,130.371,0.000,0
1606130962.560,-31.738,-37.598,-29.785,-38.574,0.000,0
1606130962.564,-93.750,-43.457,-29.785,-198.730,0.000,0
1606130962.568,-89.355,-42.480,-22.461,-147.949,0.000,0
1606130962.572,-12.695,-34.180,-17.578,47.852,0.000,0
1606130962.576,19.043,-24.414,-16.113,111.816,0.000,0
1606130962.579,-54.199,-32.227,-21.484,-49.316,0.000,0
1606130962.583,-114.258,-37.598,-26.855,-218.262,0.000,0
1606130962.587,-83.984,-29.785,-25.879,-179.199,0.000,0
1606130962.591,0.000,-23.438,-20.508,27.344,0.000,0
1606130962.595,40.039,-21.484,-13.672,130.371,0.000,0
1606130962.599,-11.230,-27.832,-16.113,7.324,0.000,0
1606130962.603,-90.820,-40.527,-29.785,-179.688,0.000,0
1606130962.607,-92.773,-47.363,-26.855,-184.082,0.000,0
1606130962.611,-13.672,-28.320,-16.602,20.996,0.000,0
1606130962.615,25.391,5.371,-15.137,144.531,0.000,0
1606130962.619,-22.461,-13.184,-17.090,30.273,0.000,0
1606130962.622,-88.379,-41.992,-20.996,-162.109,0.000,0
1606130962.626,-88.867,-40.039,-23.438,-191.406,0.000,0
1606130962.630,-21.973,-31.250,-18.066,-5.859,0.000,0
1606130962.634,25.879,-21.973,-11.230,138.672,0.000,0
1606130962.638,-6.348,-27.832,-15.625,54.199,0.000,0
1606130962.642,-84.473,-34.668,-22.461,-141.113,0.000,0
1606130962.646,-98.145,-37.109,-26.367,-191.406,0.000,0
1606130962.650,-34.180,-34.180,-24.902,-25.391,0.000,0
1606130962.654,19.043,-11.230,-20.996,136.230,0.000,0
1606130962.658,-2.930,-14.160,-23.438,79.590,0.000,0
1606130962.662,-75.684,-29.785,-29.297,-125.000,0.000,0
1606130962.665,-100.098,-27.344,-32.227,-200.195,0.000,0
1606130962.669,-35.645,-20.996,-24.902,-47.852,0.000,0
1606130962.673,37.109,-17.090,-13.672,131.348,0.000,0
1606130962.677,15.625,-21.484,-17.090,103.027,0.000,0
1606130962.681,-72.266,-28.320,-26.367,-105.957,0.000,0
1606130962.685,-101.562,-31.738,-29.785,-202.637,0.000,0
1606130962.689,-41.504,-33.691,-22.461,-68.359,0.000,0
1606130962.693,33.203,-2.930,-17.578,117.188,0.000,0
1606130962.697,31.250,6.348,-20.996,122.559,0.000,0
1606130962.701,-52.734,-37.109,-28.809,-90.332,0.000,0
1606130962.704,-103.516,-47.363,-31.738,-235.840,0.000,0
1606130962.708,-55.664,-39.062,-27.344,-124.023,0.000,0
1606130962.712,22.949,-31.738,-24.414,83.496,0.000,0
1606130962.716,22.461,-34.668,-21.973,114.258,0.000,0
1606130962.720,-55.176,-42.480,-25.879,-72.754,0.000,0
1606130962.724,-102.539,-38.574,-29.297,-209.961,0.000,0
1606130962.728,-64.941,-31.738,-23.438,-127.930,0.000,0
1606130962.732,10.254,-29.297,-17.578,78.125,0.000,0
1606130962.736,28.809,-28.809,-17.578,136.719,0.000,0
1606130962.740,-36.133,-31.250,-23.438,-32.227,0.000,0
1606130962.744,-93.262,-37.109,-29.297,-197.266,0.000,0
1606130962.747,-64.453,-43.457,-27.344,-153.320,0.000,0
1606130962.751,18.555,-31.738,-21.484,50.781,0.000,0
1606130962.755,42.480,-20.020,-21.484,133.301,0.000,0
1606130962.759,-24.414,-32.715,-25.879,-13.672,0.000,0
1606130962.763,-93.262,-40.039,-27.832,-182.129,0.000,0
1606130962.767,-80.566,-38.574,-25.391,-159.180,0.000,0
1606130962.771,1.953,-36.133,-21.973,42.480,0.000,0
1606130962.775,35.645,-32.715,-21.484,138.184,0.000,0
1606130962.779,-15.625,-36.133,-25.391,3.906,0.000,0
1606130962.783,-76.660,-33.691,-28.809,-176.270,0.000,0
1606130962.787,-68.359,-25.391,-27.344,-180.176,0.000,0
1606130962.790,8.789,-18.066,-26.367,16.113,0.000,0
1606130962.794,49.316,3.418,-27.344,144.043,0.000,0
1606130962.798,4.395,-2.930,-22.949,39.062,0.000,0
1606130962.802,-75.195,-27.832,-29.297,-159.668,0.000,0
1606130962.806,-86.426,-36.621,-40.527,-195.312,0.000,0
1606130962.810,-14.160,-35.645,-37.598,-9.277,0.000,0
1606130962.814,32.227,-27.344,-31.250,132.812,0.000,0
1606130962.818,-4.883,-35.156,-33.691,46.387,0.000,0
1606130962.822,-87.891,-43.457,-36.621,-153.320,0.000,0
1606130962.826,-108.887,-38.574,-36.621,-206.055,0.000,0
1606130962.829,-39.062,-35.156,-31.738,-32.715,0.000,0
1606130962.833,19.043,-16.602,-28.320,129.395,0.000,0
1606130962.837,-10.742,-23.926,-29.297,69.336,0.000,0
1606130962.841,-88.379,-41.016,-34.668,-130.859,0.000,0
1606130962.845,-110.840,-36.133,-37.109,-210.938,0.000,0
1606130962.849,-55.176,-35.156,-28.320,-72.754,0.000,0
1606130962.853,13.184,-30.762,-21.973,99.121,0.000,0
1606130962.857,1.465,-28.809,-25.391,85.938,0.000,0
1606130962.861,-78.125,-34.180,-26.367,-104.492,0.000,0
1606130962.865,-112.305,-42.480,-24.414,-209.961,0.000,0
1606130962.869,-62.988,-39.062,-30.762,-91.309,0.000,0
1606130962.872,10.742,-27.344,-28.320,96.680,0.000,0
1606130962.876,14.160,-23.438,-21.973,112.793,0.000,0
1606130962.880,-57.129,-26.855,-24.414,-72.266,0.000,0
1606130962.884,-102.539,-30.273,-22.949,-201.660,0.000,0
1606130962.888,-62.988,-37.598,-21.484,-111.328,0.000,0
1606130962.892,1.953,-20.508,-29.785,76.172,0.000,0
1606130962.896,3.418,-2.441,-32.227,112.305,0.000,0
1606130962.900,-62.500,-28.809,-26.367,-60.059,0.000,0
1606130962.904,-111.816,-43.457,-28.320,-205.566,0.000,0
1606130962.908,-77.148,-36.133,-31.738,-135.254,0.000,0
1606130962.912,1.465,-26.367,-21.484,64.941,0.000,0
1606130962.915,20.020,-27.832,-21.973,127.930,0.000,0
1606130962.919,-47.363,-33.203,-34.668,-29.297,0.000,0
1606130962.923,-100.098,-36.133,-34.180,-187.988,0.000,0
1606130962.927,-78.125,-40.039,-34.180,-144.043,0.000,0
1606130962.931,-2.930,-28.320,-32.715,53.711,0.000,0
1606130962.935,27.344,-29.785,-27.832,139.160,0.000,0
1606130962.939,-41.016,-46.875,-32.227,-8.301,0.000,0
1606130962.943,-103.516,-43.457,-27.344,-182.617,0.000,0
1606130962.947,-88.867,-38.574,-25.879,-172.852,0.000,0
1606130962.951,-12.695,-29.785,-25.391,16.602,0.000,0
1606130962.954,23.926,-30.273,-26.855,129.395,0.000,0
1606130962.958,-36.621,-34.180,-35.645,15.137,0.000,0
1606130962.962,-107.910,-33.691,-36.133,-171.875,0.000,0
1606130962.966,-103.516,-38.086,-30.762,-186.523,0.000,0
1606130962.970,-25.879,-32.227,-28.320,12.207,0.000,0
1606130962.974,24.414,-11.719,-24.902,151.855,0.000,0
1606130962.978,-11.719,-20.996,-23.438,53.223,0.000,0
1606130962.982,-85.449,-42.480,-27.832,-157.227,0.000,0
1606130962.986,-96.680,-44.434,-33.691,-203.613,0.000,0
1606130962.990,-24.414,-34.668,-29.785,-16.602,0.000,0
1606130962.994,27.344,-15.137,-17.578,139.160,0.000,0
1606130962.997,-8.789,-18.555,-13.672,71.777,0.000,0
1606130963.001,-88.379,-38.574,-24.414,-131.348,0.000,0
1606130963.005,-105.469,-40.039,-26.855,-197.754,0.000,0
1606130963.009,-33.203,-33.691,-19.531,-33.203,0.000,0
1606130963.013,32.715,-28.809,-20.020,135.742,0.000,0
1606130963.017,11.719,-25.879,-18.555,96.680,0.000,0
1606130963.021,-67.383,-34.668,-20.020,-104.492,0.000,0
1606130963.025,-98.633,-39.551,-31.250,-206.055,0.000,0
1606130963.029,-41.504,-35.156,-29.297,-78.613,0.000,0
1606130963.033,18.555,-23.438,-27.832,101.562,0.000,0
1606130963.037,15.625,-17.578,-29.297,101.074,0.000,0
1606130963.040,-57.129,-30.273,-30.762,-91.309,0.000,0
1606130963.044,-102.539,-38.574,-33.691,-206.055,0.000,0
1606130963.048,-58.105,-36.133,-32.715,-97.168,0.000,0
1606130963.052,12.695,-30.273,-27.832,89.844,0.000,0
1606130963.056,21.973,-25.391,-20.020,115.234,0.000,0
1606130963.060,-49.316,-26.855,-19.043,-72.754,0.000,0
1606130963.064,-95.215,-27.832,-22.461,-204.102,0.000,0
1606130963.068,-55.664,-24.902,-23.926,-105.957,0.000,0
1606130963.072,20.996,-24.902,-22.461,93.750,0.000,0
1606130963.076,30.762,-27.832,-23.926,134.277,0.000,0
1606130963.079,-40.039,-31.250,-28.320,-41.016,0.000,0
1606130963.083,-97.168,-33.203,-30.762,-198.242,0.000,0
1606130963.087,-73.242,-30.762,-28.320,-144.531,0.000,0
1606130963.091,11.230,-20.508,-23.926,61.523,0.000,0
1606130963.095,36.621,-19.531,-21.973,139.648,0.000,0
1606130963.099,-28.809,-29.297,-21.973,-16.602,0.000,0
1606130963.103,-84.961,-28.320,-20.020,-181.152,0.000,0
1606130963.107,-69.336,-25.391,-24.414,-151.367,0.000,0
1606130963.111,1.953,-26.367,-24.902,48.828,0.000,0
1606130963.115,32.227,-28.320,-24.414,144.043,0.000,0
1606130963.119,-22.461,-32.715,-27.344,10.742,0.000,0
1606130963.122,-93.262,-38.574,-31.250,-173.828,0.000,0
1606130963.126,-86.426,-40.039,-29.297,-172.363,0.000,0
1606130963.130,-6.348,-33.203,-25.879,30.273,0.000,0
1606130963.134,39.551,-20.508,-23.926,152.344,0.000,0
1606130963.138,-11.230,-23.926,-23.438,39.062,0.000,0
1606130963.142,-87.891,-35.156,-31.738,-164.062,0.000,0
1606130963.146,-90.332,-30.762,-26.855,-186.523,0.000,0
1606130963.150,-13.672,-29.297,-19.531,5.371,0.000,0
1606130963.154,36.621,-36.621,-22.949,139.160,0.000,0
1606130963.158,6.348,-34.180,-27.344,69.824,0.000,0
1606130963.162,-68.848,-29.785,-38.086,-124.023,0.000,0
1606130963.165,-90.820,-29.785,-37.109,-180.176,0.000,0
1606130963.169,-14.648,-26.855,-33.203,-2.930,0.000,0
1606130963.173,40.527,-20.020,-35.645,145.020,0.000,0
1606130963.177,6.348,-20.508,-37.598,85.938,0.000,0
1606130963.181,-61.523,-36.621,-38.574,-107.422,0.000,0
1606130963.185,-79.590,-42.969,-37.598,-184.570,0.000,0
1606130963.189,-14.160,-34.180,-33.203,-28.809,0.000,0
1606130963.193,50.781,-22.949,-32.715,147.461,0.000,0
1606130963.197,29.785,-23.926,-38.574,114.746,0.000,0
1606130963.201,-50.293,-33.203,-43.457,-86.426,0.000,0
1606130963.204,-82.520,-28.809,-37.109,-183.594,0.000,0
1606130963.208,-23.926,-22.949,-30.273,-49.316,0.000,0
1606130963.212,41.016,-23.438,-33.691,132.812,0.000,0
1606130963.216,29.297,-28.320,-38.574,127.930,0.000,0
1606130963.220,-49.316,-39.551,-42.969,-78.125,0.000,0
1606130963.224,-87.891,-43.945,-39.062,-192.383,0.000,0
1606130963.228,-39.062,-33.203,-34.180,-72.754,0.000,0
1606130963.232,26.367,-27.344,-25.391,118.652,0.000,0
1606130963.236,29.297,-32.715,-20.020,144.043,0.000,0
1606130963.240,-44.922,-39.551,-26.855,-41.016,0.000,0
1606130963.244,-92.773,-42.969,-30.273,-177.246,0.000,0
1606130963.247,-49.805,-35.156,-27.832,-91.797,0.000,0
1606130963.251,36.133,-21.484,-23.438,110.352,0.000,0
1606130963.255,56.152,-20.508,-29.297,165.039,0.000,0
1606130963.259,-10.742,-31.738,-37.109,-14.648,0.000,0
1606130963.263,-69.824,-37.598,-33.691,-178.223,0.000,0
1606130963.267,-52.734,-37.109,-31.738,-119.629,0.000,0
1606130963.271,30.762,-27.344,-22.461,93.750,0.000,0
1606130963.275,54.199,-20.508,-15.137,161.133,0.000,0
1606130963.279,-18.555,-27.344,-26.855,-5.859,0.000,0
1606130963.283,-84.473,-36.133,-35.645,-175.293,0.000,0
1606130963.287,-70.312,-39.062,-33.691,-153.809,0.000,0
1606130963.290,15.625,-27.832,-26.855,56.641,0.000,0
1606130963.294,50.781,-20.020,-20.508,150.879,0.000,0
1606130963.298,-4.883,-21.973,-21.973,19.043,0.000,0
1606130963.302,-71.777,-30.273,-25.879,-148.926,0.000,0
1606130963.306,-74.219,-37.109,-36.133,-165.527,0.000,0
1606130963.310,-0.488,-31.250,-30.273,20.508,0.000,0
1606130963.314,43.457,-24.414,-24.902,144.531,0.000,0
1606130963.318,1.465,-28.809,-31.250,37.109,0.000,0
1606130963.322,-69.336,-35.156,-29.297,-161.133,0.000,0
1606130963.326,-79.590,-36.621,-32.227,-191.406,0.000,0
1606130963.329,-8.789,-32.227,-29.297,-2.441,0.000,0
1606130963.333,40.527,-21.973,-22.949,138.184,0.000,0
1606130963.337,-2.441,-28.809,-25.391,58.105,0.000,0
1606130963.341,-81.055,-39.551,-33.691,-143.066,0.000,0
1606130963.345,-94.238,-36.133,-40.527,-199.707,0.000,0
1606130963.349,-24.902,-31.250,-32.227,-25.391,0.000,0
1606130963.353,30.273,-25.879,-25.391,135.254,0.000,0
1606130963.357,-3.906,-27.344,-29.785,76.660,0.000,0
1606130963.361,-81.055,-36.621,-29.785,-131.836,0.000,0
1606130963.365,-102.051,-37.598,-32.227,-214.844,0.000,0
1606130963.369,-42.969,-30.273,-29.785,-65.918,0.000,0
1606130963.372,25.391,-24.414,-28.320,108.887,0.000,0
1606130963.376,12.207,-30.273,-29.785,95.703,0.000,0
1606130963.380,-63.477,-40.039,-37.109,-107.910,0.000,0
1606130963.384,-93.750,-40.039,-47.363,-226.562,0.000,0
1606130963.388,-39.551,-34.180,-33.691,-105.957,0.000,0
1606130963.392,29.297,-25.879,-22.949,96.191,0.000,0
1606130963.396,20.996,-22.461,-25.391,114.258,0.000,0
1606130963.400,-57.129,-31.250,-32.715,-96.191,0.000,0
1606130963.404,-103.516,-40.039,-39.062,-226.562,0.000,0
1606130963.408,-68.848,-35.645,-33.691,-117.188,0.000,0
1606130963.412,8.301,-25.391,-22.949,89.355,0.000,0
1606130963.415,15.137,-28.809,-21.973,127.930,0.000,0
1606130963.419,-58.594,-33.203,-27.344,-53.711,0.000,0
1606130963.423,-97.656,-31.738,-34.180,-196.289,0.000,0
1606130963.427,-66.406,-38.086,-36.133,-127.930,0.000,0
1606130963.431,3.418,-38.086,-33.691,58.594,0.000,0
1606130963.435,30.273,-24.414,-30.273,128.906,0.000,0
1606130963.439,-30.762,-20.996,-29.785,-28.320,0.000,0
1606130963.443,-93.750,-25.391,-30.762,-189.453,0.000,0
1606130963.447,-79.102,-28.809,-27.832,-149.414,0.000,0
1606130963.451,0.488,-26.855,-18.555,52.734,0.000,0
1606130963.454,34.668,-17.578,-16.602,142.090,0.000,0
1606130963.458,-20.020,-19.043,-19.531,5.371,0.000,0
1606130963.462,-82.520,-30.273,-20.996,-165.039,0.000,0
1606130963.466,-70.801,-32.227,-18.066,-150.879,0.000,0
1606130963.470,6.348,-25.391,-19.531,45.898,0.000,0
1606130963.474,42.969,-21.973,-20.996,145.020,0.000,0
1606130963.478,-4.395,-22.461,-22.949,23.926,0.000,0
1606130963.482,-76.172,-29.785,-24.414,-162.109,0.000,0
1606130963.486,-79.590,-35.645,-21.484,-168.945,0.000,0
1606130963.490,-7.812,-26.855,-18.066,23.438,0.000,0
1606130963.494,28.809,-25.391,-11.230,144.531,0.000,0
1606130963.497,-17.578,-32.227,-6.836,52.734,0.000,0
1606130963.501,-90.332,-34.668,-15.137,-142.578,0.000,0
1606130963.505,-95.215,-36.621,-23.438,-193.359,0.000,0
1606130963.509,-22.461,-37.598,-22.461,-20.508,0.000,0
1606130963.513,28.809,-30.762,-17.090,122.559,0.000,0
1606130963.517,2.930,-27.832,-20.508,57.617,0.000,0
1606130963.521,-64.941,-28.320,-22.949,-127.930,0.000,0
1606130963.525,-83.984,-30.273,-29.785,-192.871,0.000,0
1606130963.529,-22.461,-32.227,-32.227,-40.527,0.000,0
1606130963.533,34.668,-21.484,-27.832,126.953,0.000,0
1606130963.537,14.648,-14.160,-29.297,98.145,0.000,0
1606130963.540,-56.152,-24.414,-25.879,-98.633,0.000,0
1606130963.544,-85.449,-28.809,-28.809,-194.824,0.000,0
1606130963.548,-30.762,-28.320,-29.297,-58.105,0.000,0
1606130963.552,25.879,-17.090,-25.879,115.234,0.000,0
1606130963.556,11.230,-6.348,-29.785,102.539,0.000,0
1606130963.560,-64.453,-25.879,-32.227,-95.215,0.000,0
1606130963.564,-102.051,-36.133,-32.715,-205.078,0.000,0
1606130963.568,-49.316,-30.273,-29.785,-83.496,0.000,0
1606130963.572,24.902,-21.973,-23.438,106.934,0.000,0
1606130963.576,30.762,-17.578,-27.832,126.465,0.000,0
1606130963.579,-42.480,-25.391,-32.715,-67.383,0.000,0
1606130963.583,-87.402,-27.832,-29.785,-206.055,0.000,0
1606130963.587,-45.898,-27.344,-24.902,-116.211,0.000,0
1606130963.591,22.461,-19.043,-27.832,75.195,0.000,0
1606130963.595,36.133,-14.648,-35.645,117.676,0.000,0
1606130963.599,-30.762,-31.738,-35.645,-56.152,0.000,0
1606130963.603,-79.590,-32.715,-35.156,-205.078,0.000,0
1606130963.607,-42.969,-30.273,-26.855,-135.254,0.000,0
1606130963.611,26.367,-20.996,-23.926,66.406,0.000,0
1606130963.615,53.223,-7.324,-24.414,134.277,0.000,0
1606130963.619,-0.488,-23.438,-24.414,-29.297,0.000,0
1606130963.622,-86.426,-37.109,-29.785,-195.801,0.000,0
1606130963.626,-79.590,-38.086,-24.902,-154.785,0.000,0
1606130963.630,8.301,-32.227,-19.531,43.457,0.000,0
1606130963.634,50.293,-29.785,-23.926,152.344,0.000,0
1606130963.638,-0.488,-29.297,-36.621,15.137,0.000,0
1606130963.642,-76.660,-31.250,-41.992,-182.617,0.000,0
1606130963.646,-65.918,-26.855,-39.551,-179.688,0.000,0
1606130963.650,17.090,-16.602,-45.410,15.137,0.000,0
1606130963.654,67.383,-10.254,-45.898,141.113,0.000,0
1606130963.658,34.668,-12.695,-48.828,47.852,0.000,0
1606130963.662,-50.293,-24.414,-53.223,-143.555,0.000,0
1606130963.665,-61.035,-28.809,-54.688,-168.457,0.000,0
1606130963.669,12.695,-22.949,-46.387,31.738,0.000,0
1606130963.673,54.688,-16.602,-40.039,166.504,0.000,0
1606130963.677,10.742,-22.461,-45.410,82.031,0.000,0
1606130963.681,-62.500,-35.156,-44.434,-118.164,0.000,0
1606130963.685,-75.684,-41.016,-42.969,-179.199,0.000,0
1606130963.689,-6.836,-32.715,-36.133,-10.254,0.000,0
1606130963.693,60.547,-15.137,-33.203,147.461,0.000,0
1606130963.697,31.250,-23.926,-41.504,91.309,0.000,0
1606130963.701,-46.387,-34.668,-37.109,-105.469,0.000,0
1606130963.704,-66.895,-28.320,-39.551,-181.152,0.000,0
1606130963.708,-8.789,-22.461,-45.898,-24.414,0.000,0
1606130963.712,61.035,-20.508,-37.598,146.973,0.000,0
1606130963.716,37.598,-29.297,-27.832,120.117,0.000,0
1606130963.720,-54.688,-31.250,-33.691,-81.055,0.000,0
1606130963.724,-78.613,-25.391,-39.551,-182.129,0.000,0
1606130963.728,-23.926,-25.391,-35.156,-46.387,0.000,0
1606130963.732,37.598,-19.531,-36.621,132.324,0.000,0
1606130963.736,26.855,-20.996,-39.062,125.000,0.000,0
1606130963.740,-43.945,-31.738,-42.480,-81.055,0.000,0
1606130963.744,-78.125,-33.203,-45.410,-200.684,0.000,0
1606130963.747,-36.621,-28.320,-37.109,-85.449,0.000,0
1606130963.751,37.598,-21.973,-29.785,116.211,0.000,0
1606130963.755,47.363,-23.438,-29.297,140.625,0.000,0
1606130963.759,-31.250,-30.273,-34.180,-55.664,0.000,0
1606130963.763,-81.543,-31.250,-37.109,-197.754,0.000,0
1606130963.767,-38.086,-23.438,-28.809,-113.281,0.000,0
1606130963.771,30.762,-20.020,-22.461,87.891,0.000,0
1606130963.775,31.738,-24.902,-26.367,129.883,0.000,0
1606130963.779,-31.250,-28.809,-30.273,-40.039,0.000,0
1606130963.783,-77.637,-30.273,-33.203,-190.918,0.000,0
1606130963.787,-54.688,-27.832,-34.180,-139.648,0.000,0
1606130963.790,23.926,-27.832,-29.297,66.406,0.000,0
1606130963.794,57.129,-24.902,-25.879,145.996,0.000,0
1606130963.798,-3.906,-27.832,-28.320,-8.789,0.000,0
1606130963.802,-68.359,-34.180,-28.809,-176.270,0.000,0
1606130963.806,-58.105,-34.668,-20.996,-142.578,0.000,0
1606130963.810,17.090,-21.484,-18.555,61.035,0.000,0
1606130963.814,51.758,-13.184,-17.090,163.086,0.000,0
1606130963.818,1.953,-20.508,-14.648,35.645,0.000,0
1606130963.822,-69.336,-29.785,-19.531,-150.879,0.000,0
1606130963.826,-67.871,-30.762,-19.531,-163.086,0.000,0
1606130963.829,12.695,-24.414,-15.137,27.832,0.000,0
1606130963.833,44.922,-14.648,-18.555,149.414,0.000,0
1606130963.837,-2.930,-20.020,-23.926,41.992,0.000,0
1606130963.841,-68.848,-40.527,-30.762,-148.438,0.000,0
1606130963.845,-74.707,-40.527,-31.738,-178.223,0.000,0
1606130963.849,-4.395,-28.809,-25.879,3.418,0.000,0
1606130963.853,44.922,-24.414,-25.391,141.602,0.000,0
1606130963.857,6.836,-31.738,-28.320,60.547,0.000,0
1606130963.861,-71.777,-40.039,-34.668,-142.578,0.000,0
1606130963.865,-83.496,-34.668,-35.645,-194.824,0.000,0
1606130963.869,-15.625,-30.273,-26.855,-26.367,0.000,0
1606130963.872,41.016,-25.879,-25.879,122.559,0.000,0
1606130963.876,18.555,-23.438,-30.762,70.312,0.000,0
1606130963.880,-58.105,-34.668,-30.273,-122.559,0.000,0
1606130963.884,-83.008,-33.691,-30.273,-183.105,0.000,0
1606130963.888,-21.484,-26.367,-27.832,-37.109,0.000,0
1606130963.892,44.922,-15.625,-23.926,118.164,0.000,0
1606130963.896,29.297,-14.648,-19.531,96.191,0.000,0
1606130963.900,-53.223,-24.414,-25.391,-105.469,0.000,0
1606130963.904,-90.332,-29.785,-40.039,-209.961,0.000,0
1606130963.908,-26.855,-25.391,-35.645,-68.359,0.000,0
1606130963.912,41.992,-16.602,-26.367,122.070,0.000,0
1606130963.915,27.832,-19.531,-27.832,114.258,0.000,0
1606130963.919,-53.711,-28.809,-28.809,-84.961,0.000,0
1606130963.923,-102.051,-34.668,-33.691,-205.566,0.000,0
1606130963.927,-50.293,-29.297,-32.227,-95.703,0.000,0
1606130963.931,27.832,-16.113,-20.508,100.586,0.000,0
1606130963.935,30.273,-14.648,-24.902,122.070,0.000,0
1606130963.939,-28.320,-32.227,-30.273,-50.293,0.000,0
1606130963.943,-72.754,-35.156,-20.020,-174.805,0.000,0
1606130963.947,-68.359,-31.738,-15.625,-129.883,0.000,0
1606130963.951,-9.277,-23.926,-19.531,47.363,0.000,0
1606130963.954,4.395,-16.602,-22.461,114.746,0.000,0
1606130963.958,-80.078,-36.133,-18.066,-67.871,0.000,0
1606130963.962,-148.926,-49.805,-8.301,-241.211,0.000,0
1606130963.966,-124.512,-48.340,-4.883,-189.941,0.000,0
1606130963.970,-53.711,-41.992,-7.324,6.836,0.000,0
1606130963.974,-33.203,-35.645,-5.371,89.355,0.000,0
1606130963.978,-92.773,-47.363,-5.371,-52.246,0.000,0
1606130963.982,-147.461,-56.641,-8.301,-216.309,0.000,0
1606130963.986,-124.512,-49.805,-9.766,-199.707,0.000,0
1606130963.990,-44.922,-38.086,-3.906,-5.371,0.000,0
1606130963.994,-12.695,-39.062,-3.906,105.957,0.000,0
1606130963.997,-55.176,-46.387,-11.230,-8.789,0.000,0
1606130964.001,-107.910,-43.457,-19.043,-183.594,0.000,0
1606130964.005,-95.215,-33.691,-21.484,-183.105,0.000,0
1606130964.009,-21.973,-34.668,-18.555,10.742,0.000,0
1606130964.013,20.020,-26.367,-20.508,135.742,0.000,0
1606130964.017,-19.531,-26.367,-23.926,30.762,0.000,0
1606130964.021,-93.750,-41.016,-26.367,-168.945,0.000,0
1606130964.025,-99.121,-44.434,-28.809,-201.172,0.000,0
1606130964.029,-25.391,-39.062,-20.996,-17.090,0.000,0
1606130964.033,28.320,-31.250,-18.066,125.977,0.000,0
1606130964.037,-1.465,-32.715,-19.531,58.105,0.000,0
1606130964.040,-74.707,-33.691,-16.602,-134.277,0.000,0
1606130964.044,-87.402,-34.180,-14.648,-193.359,0.000,0
1606130964.048,-24.902,-28.809,-14.160,-29.785,0.000,0
1606130964.052,30.273,-29.297,-11.230,129.883,0.000,0
1606130964.056,1.465,-38.574,-15.625,79.590,0.000,0
1606130964.060,-80.078,-37.109,-24.414,-119.629,0.000,0
1606130964.064,-107.910,-33.691,-24.902,-210.449,0.000,0
1606130964.068,-49.805,-29.297,-20.996,-73.242,0.000,0
1606130964.072,22.461,-26.367,-17.578,110.352,0.000,0
1606130964.076,13.184,-26.367,-17.578,98.145,0.000,0
1606130964.079,-68.359,-30.762,-19.531,-106.934,0.000,0
1606130964.083,-96.191,-31.250,-17.090,-208.984,0.000,0
1606130964.087,-47.363,-32.715,-19.531,-82.520,0.000,0
1606130964.091,9.277,-34.668,-19.531,102.539,0.000,0
1606130964.095,15.625,-24.902,-12.207,117.188,0.000,0
1606130964.099,-62.012,-26.855,-14.160,-76.660,0.000,0
1606130964.103,-112.305,-40.527,-25.879,-212.402,0.000,0
1606130964.107,-67.383,-41.016,-21.973,-119.141,0.000,0
1606130964.111,5.859,-33.203,-9.277,76.172,0.000,0
1606130964.115,13.672,-7.324,-11.719,118.652,0.000,0
1606130964.119,-58.594,-15.137,-16.113,-65.430,0.000,0
1606130964.122,-109.375,-39.551,-20.020,-216.797,0.000,0
1606130964.126,-68.848,-38.086,-21.973,-141.113,0.000,0
1606130964.130,18.066,-31.250,-13.184,69.824,0.000,0
1606130964.134,39.062,-28.320,-12.695,144.043,0.000,0
1606130964.138,-26.367,-33.203,-26.367,-19.043,0.000,0
1606130964.142,-80.566,-35.645,-28.809,-187.012,0.000,0
1606130964.146,-57.129,-30.762,-23.926,-136.230,0.000,0
1606130964.150,16.113,-23.926,-21.973,69.336,0.000,0
1606130964.154,39.062,-7.324,-17.578,154.297,0.000,0
1606130964.158,-20.508,-22.461,-15.625,8.789,0.000,0
1606130964.162,-83.008,-39.062,-19.531,-166.504,0.000,0
1606130964.165,-76.172,-32.227,-22.461,-154.297,0.000,0
1606130964.169,10.742,-29.785,-14.648,40.039,0.000,0
1606130964.173,57.617,-23.926,-4.395,152.344,0.000,0
1606130964.177,-6.348,-21.484,-9.766,32.227,0.000,0
1606130964.181,-78.613,-24.414,-17.578,-157.227,0.000,0
1606130964.185,-81.543,-26.367,-21.484,-174.805,0.000,0
1606130964.189,-8.301,-18.066,-20.508,15.625,0.000,0
1606130964.193,40.527,-4.395,-13.672,155.273,0.000,0
1606130964.197,-6.348,-9.277,-21.973,52.734,0.000,0
1606130964.201,-84.961,-29.297,-31.738,-154.785,0.000,0
1606130964.204,-97.656,-29.297,-27.344,-194.824,0.000,0
1606130964.208,-24.414,-22.949,-18.555,-11.719,0.000,0
1606130964.212,30.273,-23.926,-15.137,141.113,0.000,0
1606130964.216,-2.930,-28.809,-19.043,72.754,0.000,0
1606130964.220,-81.055,-33.203,-19.531,-127.441,0.000,0
1606130964.224,-93.262,-34.180,-20.508,-192.871,0.000,0
1606130964.228,-16.113,-29.297,-25.879,-35.156,0.000,0
1606130964.232,39.062,-15.137,-24.902,125.977,0.000,0
1606130964.236,12.695,-12.695,-20.508,86.426,0.000,0
1606130964.240,-68.359,-25.879,-26.855,-115.234,0.000,0
1606130964.244,-105.469,-33.691,-34.180,-213.867,0.000,0
1606130964.247,-45.410,-29.297,-29.297,-79.102,0.000,0
1606130964.251,21.484,-19.531,-27.832,106.934,0.000,0
1606130964.255,8.789,-15.137,-34.180,99.609,0.000,0
1606130964.259,-67.383,-30.762,-40.039,-96.680,0.000,0
1606130964.263,-97.168,-36.133,-39.062,-203.613,0.000,0
1606130964.267,-35.645,-29.785,-37.109,-91.797,0.000,0
1606130964.271,24.902,-23.438,-36.621,94.727,0.000,0
1606130964.275,15.625,-25.879,-37.109,114.746,0.000,0
1606130964.279,-54.199,-34.668,-42.969,-66.406,0.000,0
1606130964.283,-102.051,-34.180,-43.457,-193.848,0.000,0
1606130964.287,-51.758,-25.391,-39.062,-108.887,0.000,0
1606130964.290,22.461,-21.973,-36.621,82.520,0.000,0
1606130964.294,20.996,-22.461,-33.203,126.465,0.000,0
1606130964.298,-46.387,-23.438,-34.180,-47.852,0.000,0
1606130964.302,-99.609,-27.832,-35.645,-191.895,0.000,0
1606130964.306,-72.266,-28.809,-36.621,-136.230,0.000,0
1606130964.310,10.254,-21.973,-33.691,56.152,0.000,0
1606130964.314,39.551,-18.555,-31.738,130.859,0.000,0
1606130964.318,-31.738,-23.438,-31.250,-21.484,0.000,0
1606130964.322,-105.957,-26.367,-31.738,-189.453,0.000,0
1606130964.326,-90.332,-31.738,-34.180,-163.086,0.000,0
1606130964.329,-7.812,-27.344,-28.809,44.434,0.000,0
1606130964.333,25.391,-3.906,-27.344,143.066,0.000,0
1606130964.337,-31.738,-1.465,-27.832,-1.465,0.000,0
1606130964.341,-92.773,-23.926,-28.809,-176.270,0.000,0
1606130964.345,-83.008,-28.320,-35.645,-172.852,0.000,0
1606130964.349,-2.441,-15.625,-31.738,23.438,0.000,0
1606130964.353,37.598,-14.160,-26.367,148.926,0.000,0
1606130964.357,-7.812,-22.949,-31.738,34.180,0.000,0
1606130964.361,-78.613,-24.414,-34.668,-170.410,0.000,0
1606130964.365,-87.402,-20.508,-31.250,-191.895,0.000,0
1606130964.369,-15.625,-20.996,-27.832,0.488,0.000,0
1606130964.372,30.273,-21.484,-30.273,134.277,0.000,0
1606130964.376,-12.207,-21.973,-31.250,46.387,0.000,0
1606130964.380,-82.520,-26.367,-33.691,-137.695,0.000,0
1606130964.384,-89.844,-21.484,-32.227,-187.500,0.000,0
1606130964.388,-20.020,-19.043,-30.762,-25.879,0.000,0
1606130964.392,38.086,-8.301,-27.832,127.930,0.000,0
1606130964.396,5.371,2.930,-26.367,73.242,0.000,0
1606130964.400,-75.684,-19.531,-32.227,-124.512,0.000,0
1606130964.404,-89.844,-34.180,-34.668,-198.242,0.000,0
1606130964.408,-21.973,-28.320,-22.461,-47.363,0.000,0
1606130964.412,40.527,-20.508,-14.648,127.441,0.000,0
1606130964.415,28.809,-22.949,-20.996,107.422,0.000,0
1606130964.419,-47.363,-34.668,-24.902,-104.004,0.000,0
1606130964.423,-87.402,-32.715,-20.508,-202.637,0.000,0
1606130964.427,-32.715,-25.879,-19.531,-57.617,0.000,0
1606130964.431,37.109,-15.625,-21.973,120.117,0.000,0
1606130964.435,36.133,-2.930,-23.926,116.211,0.000,0
1606130964.439,-37.598,-18.555,-31.738,-89.844,0.000,0
1606130964.443,-84.473,-29.297,-32.227,-214.355,0.000,0
1606130964.447,-45.410,-30.273,-27.832,-105.469,0.000,0
1606130964.451,21.484,-33.203,-32.227,80.566,0.000,0
1606130964.454,18.555,-31.738,-29.785,105.957,0.000,0
1606130964.458,-61.035,-34.180,-30.273,-74.219,0.000,0
1606130964.462,-102.539,-41.504,-36.621,-215.820,0.000,0
1606130964.466,-62.500,-40.527,-40.527,-144.531,0.000,0
1606130964.470,9.277,-32.715,-40.527,62.500,0.000,0
1606130964.474,30.762,-13.672,-31.738,131.348,0.000,0
1606130964.478,-42.480,-22.949,-27.344,-52.246,0.000,0
1606130964.482,-103.516,-36.621,-27.832,-220.215,0.000,0
1606130964.486,-79.590,-30.762,-31.738,-176.758,0.000,0
1606130964.490,-3.906,-26.367,-30.273,26.367,0.000,0
1606130964.494,35.645,-21.973,-24.414,117.188,0.000,0
1606130964.497,-34.180,-32.715,-20.996,-29.785,0.000,0
1606130964.501,-104.980,-41.992,-20.020,-186.523,0.000,0
1606130964.505,-77.637,-39.062,-25.879,-164.551,0.000,0
1606130964.509,1.465,-30.273,-23.926,37.598,0.000,0
1606130964.513,40.527,-24.414,-23.926,143.066,0.000,0
1606130964.517,-14.160,-31.250,-31.738,3.906,0.000,0
1606130964.521,-97.656,-39.551,-38.574,-176.270,0.000,0
1606130964.525,-89.355,-37.109,-31.250,-186.035,0.000,0
1606130964.529,-2.441,-31.738,-27.344,1.953,0.000,0
1606130964.533,30.762,-8.789,-34.668,122.070,0.000,0
1606130964.537,-9.277,-8.301,-36.621,21.973,0.000,0
1606130964.540,-73.730,-39.062,-36.621,-156.738,0.000,0
1606130964.544,-88.379,-46.387,-39.551,-201.660,0.000,0
1606130964.548,-20.020,-39.551,-35.156,-28.320,0.000,0
1606130964.552,41.504,-30.273,-26.367,129.883,0.000,0
1606130964.556,9.277,-29.785,-28.320,56.641,0.000,0
1606130964.560,-79.102,-37.109,-35.156,-147.949,0.000,0
1606130964.564,-96.680,-38.086,-35.156,-204.102,0.000,0
1606130964.568,-28.809,-32.715,-27.344,-34.180,0.000,0
1606130964.572,31.738,-26.855,-25.391,126.953,0.000,0
1606130964.576,10.254,-24.414,-27.344,78.613,0.000,0
1606130964.579,-68.848,-39.551,-30.273,-125.000,0.000,0
1606130964.583,-93.750,-40.527,-29.297,-197.754,0.000,0
1606130964.587,-31.738,-29.297,-25.391,-45.410,0.000,0
1606130964.591,35.645,-23.438,-20.996,129.395,0.000,0
1606130964.595,16.113,-26.855,-22.949,104.004,0.000,0
1606130964.599,-67.871,-33.691,-30.762,-101.074,0.000,0
1606130964.603,-99.121,-28.809,-31.250,-208.008,0.000,0
1606130964.607,-48.828,-32.227,-28.320,-88.379,0.000,0
1606130964.611,23.926,-24.414,-22.461,106.934,0.000,0
1606130964.615,31.250,-2.930,-21.484,128.418,0.000,0
1606130964.619,-51.758,-18.066,-34.180,-80.078,0.000,0
1606130964.622,-107.910,-27.344,-39.062,-220.215,0.000,0
1606130964.626,-67.383,-24.902,-31.738,-120.117,0.000,0
1606130964.630,1.465,-18.066,-23.926,67.871,0.000,0
1606130964.634,6.836,-13.184,-27.344,109.863,0.000,0
1606130964.638,-56.641,-25.391,-33.691,-61.035,0.000,0
1606130964.642,-108.887,-35.645,-35.156,-207.520,0.000,0
1606130964.646,-74.219,-34.180,-34.180,-134.277,0.000,0
1606130964.650,10.254,-24.902,-34.668,79.102,0.000,0
1606130964.654,29.785,-22.461,-36.133,145.020,0.000,0
1606130964.658,-33.691,-30.273,-35.645,-21.484,0.000,0
1606130964.662,-89.355,-30.762,-36.133,-183.594,0.000,0
1606130964.665,-63.477,-26.367,-33.691,-138.184,0.000,0
1606130964.669,15.625,-25.879,-20.508,67.383,0.000,0
1606130964.673,38.574,-12.695,-19.043,152.344,0.000,0
1606130964.677,-19.531,-12.695,-31.250,11.230,0.000,0
1606130964.681,-80.078,-28.809,-32.227,-163.574,0.000,0
1606130964.685,-72.266,-29.785,-29.297,-147.949,0.000,0
1606130964.689,5.371,-23.926,-22.949,49.316,0.000,0
1606130964.693,42.480,-18.555,-20.020,150.391,0.000,0
1606130964.697,-11.719,-24.414,-23.926,24.414,0.000,0
1606130964.701,-83.008,-27.344,-24.414,-159.180,0.000,0
1606130964.704,-83.496,-28.809,-25.391,-170.410,0.000,0
1606130964.708,-7.812,-30.273,-24.414,24.414,0.000,0
1606130964.712,40.527,-12.695,-20.508,158.691,0.000,0
1606130964.716,-3.418,-15.625,-25.879,54.688,0.000,0
1606130964.720,-83.496,-40.527,-30.273,-148.926,0.000,0
1606130964.724,-83.984,-37.109,-20.996,-185.059,0.000,0
1606130964.728,-4.395,-30.762,-12.695,1.465,0.000,0
1606130964.732,37.598,-29.785,-21.973,149.902,0.000,0
1606130964.736,1.953,-31.250,-31.250,69.824,0.000,0
1606130964.740,-74.219,-36.621,-35.645,-139.648,0.000,0
1606130964.744,-100.098,-37.109,-38.086,-203.125,0.000,0
1606130964.747,-25.879,-31.250,-33.691,-42.480,0.000,0
1606130964.751,40.527,-12.695,-27.344,127.930,0.000,0
1606130964.755,20.996,-6.836,-30.273,95.703,0.000,0
1606130964.759,-55.664,-27.344,-33.203,-116.699,0.000,0
1606130964.763,-91.797,-35.645,-37.109,-214.844,0.000,0
1606130964.767,-38.574,-38.086,-32.227,-69.824,0.000,0
1606130964.771,34.180,-16.113,-24.414,115.723,0.000,0
1606130964.775,27.832,4.883,-22.949,108.398,0.000,0
1606130964.779,-53.711,-23.926,-24.902,-88.379,0.000,0
1606130964.783,-91.309,-39.062,-32.715,-206.543,0.000,0
1606130964.787,-40.039,-39.062,-36.621,-92.285,0.000,0
1606130964.790,28.320,-35.645,-29.785,104.004,0.000,0
1606130964.794,26.855,-23.438,-25.391,127.441,0.000,0
1606130964.798,-51.758,-25.391,-27.344,-57.617,0.000,0
1606130964.802,-96.191,-32.715,-26.855,-190.918,0.000,0
1606130964.806,-52.734,-34.180,-24.414,-112.305,0.000,0
1606130964.810,21.484,-29.297,-26.855,83.496,0.000,0
1606130964.814,22.461,-23.926,-30.762,133.301,0.000,0
1606130964.818,-49.316,-29.297,-32.715,-47.363,0.000,0
1606130964.822,-96.191,-36.133,-34.180,-199.707,0.000,0
1606130964.826,-67.383,-33.691,-26.367,-132.812,0.000,0
1606130964.829,17.090,-23.438,-19.043,71.777,0.000,0
1606130964.833,45.898,-17.578,-25.391,151.367,0.000,0
1606130964.837,-19.043,-26.855,-29.297,-12.207,0.000,0
1606130964.841,-91.797,-37.109,-27.832,-193.359,0.000,0
1606130964.845,-79.102,-33.203,-22.949,-158.691,0.000,0
1606130964.849,2.441,-25.879,-13.672,48.828,0.000,0
1606130964.853,28.809,-27.344,-10.254,152.344,0.000,0
1606130964.857,-23.926,-30.762,-18.555,19.043,0.000,0
1606130964.861,-82.520,-36.133,-19.043,-165.527,0.000,0
1606130964.865,-76.660,-35.645,-15.625,-169.922,0.000,0
1606130964.869,0.977,-27.832,-17.090,28.320,0.000,0
1606130964.872,40.527,-26.855,-18.066,142.578,0.000,0
1606130964.876,-14.648,-31.250,-21.484,21.484,0.000,0
1606130964.880,-89.355,-32.227,-22.461,-164.551,0.000,0
1606130964.884,-87.891,-39.551,-22.949,-183.105,0.000,0
1606130964.888,-7.324,-36.133,-20.020,10.254,0.000,0
1606130964.892,43.457,-22.461,-22.461,154.297,0.000,0
1606130964.896,4.883,-23.438,-28.320,73.730,0.000,0
1606130964.900,-69.336,-32.715,-31.250,-126.465,0.000,0
1606130964.904,-81.055,-36.133,-39.062,-178.711,0.000,0
1606130964.908,-10.254,-31.738,-31.250,-6.348,0.000,0
1606130964.912,46.387,-27.832,-26.367,145.996,0.000,0
1606130964.915,12.207,-30.762,-32.715,83.008,0.000,0
1606130964.919,-68.848,-33.691,-31.250,-117.188,0.000,0
1606130964.923,-89.844,-33.691,-29.297,-188.965,0.000,0
1606130964.927,-24.902,-24.414,-20.996,-31.250,0.000,0
1606130964.931,40.039,-16.602,-15.137,139.648,0.000,0
1606130964.935,20.020,-21.484,-22.461,110.352,0.000,0
1606130964.939,-57.129,-27.832,-26.855,-94.727,0.000,0
1606130964.943,-83.008,-28.320,-28.809,-194.336,0.000,0
1606130964.947,-24.902,-21.484,-25.391,-51.758,0.000,0
1606130964.951,38.574,-15.625,-20.996,125.488,0.000,0
1606130964.954,25.879,-9.277,-25.879,115.234,0.000,0
1606130964.958,-47.363,-18.066,-27.832,-79.102,0.000,0
1606130964.962,-87.402,-24.414,-29.785,-199.707,0.000,0
1606130964.966,-42.969,-20.508,-29.785,-90.820,0.000,0
1606130964.970,25.879,-20.020,-23.438,98.633,0.000,0
1606130964.974,28.320,-17.090,-26.367,118.652,0.000,0
1606130964.978,-47.852,-26.855,-30.273,-62.988,0.000,0
1606130964.982,-104.980,-38.086,-30.762,-195.801,0.000,0
1606130964.986,-66.895,-33.203,-25.879,-112.793,0.000,0
1606130964.990,13.184,-21.484,-15.137,88.867,0.000,0
1606130964.994,26.367,-11.719,-19.043,139.160,0.000,0
1606130964.997,-40.039,-20.508,-23.438,-32.715,0.000,0
1606130965.001,-92.285,-34.668,-16.602,-182.617,0.000,0
1606130965.005,-65.918,-34.668,-20.508,-124.512,0.000,0
1606130965.009,9.766,-32.715,-23.438,74.707,0.000,0
1606130965.013,34.180,-27.344,-20.020,148.926,0.000,0
1606130965.017,-23.926,-30.762,-23.926,-12.695,0.000,0
1606130965.021,-80.078,-38.086,-25.391,-187.500,0.000,0
1606130965.025,-51.270,-39.062,-25.391,-149.414,0.000,0
1606130965.029,25.879,-35.156,-25.391,57.617,0.000,0
1606130965.033,56.641,-23.438,-15.625,154.297,0.000,0
1606130965.037,10.742,-21.484,-15.137,24.902,0.000,0
1606130965.040,-64.453,-33.691,-24.414,-160.645,0.000,0
1606130965.044,-63.965,-30.762,-27.344,-164.062,0.000,0
1606130965.048,13.672,-29.297,-22.461,30.762,0.000,0
1606130965.052,54.688,-14.648,-16.602,158.691,0.000,0
1606130965.056,8.301,-1.465,-27.344,52.734,0.000,0
1606130965.060,-71.289,-29.297,-39.551,-153.320,0.000,0
1606130965.064,-82.031,-34.668,-37.109,-187.988,0.000,0
1606130965.068,-8.301,-22.461,-31.738,3.906,0.000,0
1606130965.072,37.598,-26.367,-26.855,149.902,0.000,0
1606130965.076,0.488,-34.180,-26.855,65.918,0.000,0
1606130965.079,-83.496,-40.039,-31.738,-138.672,0.000,0
1606130965.083,-102.051,-39.062,-30.273,-189.941,0.000,0
1606130965.087,-29.785,-38.574,-23.926,-23.438,0.000,0
1606130965.091,22.949,-27.344,-29.297,127.441,0.000,0
1606130965.095,-2.441,-16.602,-38.086,75.195,0.000,0
1606130965.099,-82.031,-37.109,-34.668,-128.418,0.000,0
1606130965.103,-105.957,-47.363,-32.715,-206.055,0.000,0
1606130965.107,-39.551,-43.457,-32.227,-45.410,0.000,0
1606130965.111,25.879,-35.156,-30.273,124.512,0.000,0
1606130965.115,11.719,-31.738,-33.203,86.426,0.000,0
1606130965.119,-70.312,-37.109,-40.039,-117.676,0.000,0
1606130965.122,-101.562,-31.738,-41.992,-223.145,0.000,0
1606130965.126,-41.504,-28.809,-34.180,-83.984,0.000,0
1606130965.130,31.738,-28.809,-27.832,113.770,0.000,0
1606130965.134,32.227,-19.043,-29.297,115.723,0.000,0
1606130965.138,-51.758,-24.414,-35.156,-85.938,0.000,0
1606130965.142,-97.656,-42.480,-41.992,-217.773,0.000,0
1606130965.146,-36.133,-36.133,-34.668,-108.887,0.000,0
1606130965.150,41.016,-24.414,-24.414,93.262,0.000,0
1606130965.154,34.668,-32.227,-24.414,131.348,0.000,0
1606130965.158,-42.480,-42.480,-32.227,-52.734,0.000,0
1606130965.162,-93.262,-41.992,-39.551,-194.336,0.000,0
1606130965.165,-58.105,-39.062,-32.715,-113.281,0.000,0
1606130965.169,14.648,-33.691,-22.461,79.102,0.000,0
1606130965.173,26.367,-28.809,-23.926,136.719,0.000,0
1606130965.177,-48.340,-38.574,-29.297,-31.738,0.000,0
1606130965.181,-113.281,-46.387,-33.691,-197.754,0.000,0
1606130965.185,-85.449,-41.992,-32.715,-143.066,0.000,0
1606130965.189,-9.277,-37.598,-26.367,55.664,0.000,0
1606130965.193,15.137,-36.133,-22.949,134.766,0.000,0
1606130965.197,-40.039,-38.086,-28.809,-16.602,0.000,0
1606130965.201,-104.004,-43.457,-34.180,-193.359,0.000,0
1606130965.204,-94.727,-45.898,-29.297,-168.457,0.000,0
1606130965.208,-8.789,-34.180,-21.973,36.133,0.000,0
1606130965.212,34.180,-29.785,-18.555,145.508,0.000,0
1606130965.216,-18.555,-31.738,-20.996,15.137,0.000,0
1606130965.220,-84.473,-35.156,-26.855,-168.457,0.000,0
1606130965.224,-74.707,-34.668,-26.855,-165.527,0.000,0
1606130965.228,-0.977,-30.273,-29.297,23.438,0.000,0
1606130965.232,39.062,-18.066,-33.691,140.137,0.000,0
1606130965.236,-3.418,-8.301,-31.738,32.227,0.000,0
1606130965.240,-73.730,-26.855,-25.879,-166.992,0.000,0
1606130965.244,-78.125,-36.621,-20.508,-198.242,0.000,0
1606130965.247,0.000,-28.809,-14.160,-4.395,0.000,0
1606130965.251,50.781,-22.949,-13.672,147.461,0.000,0
1606130965.255,10.254,-28.320,-20.508,69.336,0.000,0
1606130965.259,-69.824,-41.016,-21.484,-128.418,0.000,0
1606130965.263,-91.797,-43.457,-18.555,-188.477,0.000,0
1606130965.267,-27.344,-32.227,-22.461,-27.344,0.000,0
1606130965.271,35.156,-17.090,-20.508,135.742,0.000,0
1606130965.275,12.207,-8.789,-14.160,89.355,0.000,0
1606130965.279,-69.824,-26.367,-19.531,-113.770,0.000,0
1606130965.283,-99.609,-39.551,-27.832,-201.660,0.000,0
1606130965.287,-47.852,-37.598,-23.438,-55.664,0.000,0
1606130965.290,15.137,-27.832,-13.672,123.535,0.000,0
1606130965.294,8.301,-20.996,-16.602,102.539,0.000,0
1606130965.298,-65.918,-30.273,-20.020,-96.680,0.000,0
1606130965.302,-94.727,-36.621,-21.484,-200.195,0.000,0
1606130965.306,-44.922,-33.203,-27.832,-80.566,0.000,0
1606130965.310,21.484,-24.902,-25.879,105.469,0.000,0
1606130965.314,24.902,-15.137,-17.578,126.465,0.000,0
1606130965.318,-43.945,-19.043,-23.438,-62.012,0.000,0
1606130965.322,-91.309,-30.762,-31.250,-191.895,0.000,0
1606130965.326,-47.363,-29.297,-27.344,-91.797,0.000,0
1606130965.329,32.715,-21.484,-23.926,102.051,0.000,0
1606130965.333,40.527,-10.254,-21.484,132.812,0.000,0
1606130965.337,-27.832,-16.113,-27.832,-49.805,0.000,0
1606130965.341,-76.172,-34.180,-34.180,-202.637,0.000,0
1606130965.345,-47.363,-33.691,-28.809,-136.230,0.000,0
1606130965.349,24.902,-26.855,-24.902,65.430,0.000,0
1606130965.353,47.363,-21.973,-23.926,135.254,0.000,0
1606130965.357,-16.113,-28.809,-28.809,-27.344,0.000,0
1606130965.361,-80.566,-32.227,-33.691,-193.848,0.000,0
1606130965.365,-63.965,-29.297,-32.715,-152.344,0.000,0
1606130965.369,11.230,-22.461,-28.320,49.316,0.000,0
1606130965.372,36.133,0.977,-27.344,139.648,0.000,0
1606130965.376,-19.531,2.930,-27.344,0.000,0.000,0
1606130965.380,-84.473,-29.297,-29.297,-176.758,0.000,0
1606130965.384,-79.102,-36.621,-27.832,-162.598,0.000,0
1606130965.388,-1.953,-27.832,-20.996,39.062,0.000,0
1606130965.392,34.668,-23.438,-17.090,141.113,0.000,0
1606130965.396,-15.625,-29.297,-20.508,19.043,0.000,0
1606130965.400,-75.684,-37.109,-27.344,-147.461,0.000,0
1606130965.404,-65.918,-28.809,-32.715,-158.203,0.000,0
1606130965.408,2.930,-20.508,-24.414,24.902,0.000,0
1606130965.412,43.457,-4.883,-23.926,153.320,0.000,0
1606130965.415,7.812,15.625,-40.527,55.664,0.000,0
1606130965.419,-75.195,-10.742,-38.574,-146.484,0.000,0
1606130965.423,-90.820,-32.227,-34.668,-196.777,0.000,0
1606130965.427,-13.184,-20.996,-32.227,-21.484,0.000,0
1606130965.431,47.363,-18.066,-20.996,140.137,0.000,0
1606130965.435,20.020,-26.855,-27.832,78.125,0.000,0
1606130965.439,-53.711,-35.156,-35.156,-130.859,0.000,0
1606130965.443,-74.707,-33.203,-30.762,-198.730,0.000,0
1606130965.447,-3.418,-26.367,-28.809,-36.621,0.000,0
1606130965.451,58.594,-19.531,-30.273,121.094,0.000,0
1606130965.454,39.551,-20.508,-31.738,92.285,0.000,0
1606130965.458,-37.598,-30.273,-32.227,-93.750,0.000,0
1606130965.462,-68.848,-37.109,-36.621,-192.871,0.000,0
1606130965.466,-5.859,-38.086,-35.645,-58.594,0.000,0
1606130965.470,61.523,-26.855,-27.344,124.023,0.000,0
1606130965.474,46.875,-13.184,-31.738,114.258,0.000,0
1606130965.478,-36.621,-23.926,-39.551,-86.914,0.000,0
1606130965.482,-80.078,-34.180,-41.016,-208.008,0.000,0
1606130965.486,-41.992,-31.250,-35.156,-98.145,0.000,0
1606130965.490,32.227,-23.438,-26.367,103.516,0.000,0
1606130965.494,39.551,-20.020,-25.391,128.906,0.000,0
1606130965.497,-38.574,-28.809,-30.273,-66.895,0.000,0
1606130965.501,-82.031,-32.715,-29.785,-198.242,0.000,0
1606130965.505,-37.598,-23.926,-28.809,-99.121,0.000,0
1606130965.509,35.156,-26.367,-28.320,93.750,0.000,0
1606130965.513,40.527,-11.719,-26.367,132.812,0.000,0
1606130965.517,-40.527,-0.488,-35.156,-46.387,0.000,0
1606130965.521,-97.168,-25.879,-37.109,-196.777,0.000,0
1606130965.525,-65.918,-35.156,-30.762,-129.395,0.000,0
1606130965.529,2.441,-37.598,-29.785,70.801,0.000,0
1606130965.533,19.043,-36.621,-29.297,143.066,0.000,0
1606130965.537,-41.992,-32.715,-29.785,-9.277,0.000,0
1606130965.540,-100.586,-40.039,-29.785,-182.617,0.000,0
1606130965.544,-83.008,-42.969,-26.855,-148.438,0.000,0
1606130965.548,1.465,-28.320,-21.484,65.918,0.000,0
1606130965.552,33.203,-25.391,-23.438,157.227,0.000,0
1606130965.556,-31.250,-37.109,-32.227,7.812,0.000,0
1606130965.560,-93.262,-36.621,-33.691,-176.270,0.000,0
1606130965.564,-82.031,-32.715,-30.273,-169.922,0.000,0
1606130965.568,-1.953,-28.320,-25.391,33.203,0.000,0
1606130965.572,43.945,-23.926,-25.879,152.344,0.000,0
1606130965.576,-1.465,-28.809,-24.414,40.039,0.000,0
1606130965.579,-70.801,-37.109,-27.344,-151.855,0.000,0
1606130965.583,-79.590,-36.621,-28.320,-175.781,0.000,0
1606130965.587,-12.207,-28.320,-25.391,15.137,0.000,0
1606130965.591,42.480,-23.926,-23.438,156.250,0.000,0
1606130965.595,8.789,-23.926,-20.020,78.613,0.000,0
1606130965.599,-68.848,-24.902,-27.832,-126.953,0.000,0
1606130965.603,-79.102,-26.367,-38.086,-190.918,0.000,0
1606130965.607,-6.348,-22.461,-29.785,-13.672,0.000,0
1606130965.611,49.805,-13.184,-19.043,151.855,0.000,0
1606130965.615,17.090,-1.465,-25.879,96.191,0.000,0
1606130965.619,-60.547,-17.578,-29.297,-101.074,0.000,0
1606130965.622,-79.590,-35.156,-28.809,-178.711,0.000,0
1606130965.626,-14.648,-29.785,-28.320,-31.250,0.000,0
1606130965.630,49.316,-19.043,-22.461,144.531,0.000,0
1606130965.634,29.297,-13.184,-19.043,120.605,0.000,0
1606130965.638,-57.129,-28.320,-24.902,-90.332,0.000,0
1606130965.642,-89.355,-31.250,-32.715,-189.453,0.000,0
1606130965.646,-32.227,-23.438,-31.738,-54.199,0.000,0
1606130965.650,30.273,-23.438,-25.391,120.117,0.000,0
1606130965.654,22.461,-17.578,-25.879,123.535,0.000,0
1606130965.658,-50.293,-24.902,-27.344,-64.941,0.000,0
1606130965.662,-88.867,-33.691,-26.855,-180.664,0.000,0
1606130965.665,-43.945,-31.250,-26.367,-73.242,0.000,0
1606130965.669,27.344,-24.902,-23.926,116.211,0.000,0
1606130965.673,25.391,-25.879,-26.855,138.184,0.000,0
1606130965.677,-55.664,-32.715,-33.203,-58.594,0.000,0
1606130965.681,-105.957,-34.180,-36.133,-198.730,0.000,0
1606130965.685,-64.941,-29.297,-28.809,-115.234,0.000,0
1606130965.689,14.648,-26.367,-18.066,85.449,0.000,0
1606130965.693,34.180,-24.414,-22.949,139.648,0.000,0
1606130965.697,-34.180,-29.297,-29.785,-29.785,0.000,0
1606130965.701,-93.750,-45.898,-37.598,-187.012,0.000,0
1606130965.704,-65.918,-43.945,-37.598,-139.648,0.000,0
1606130965.708,16.602,-35.156,-30.273,59.570,0.000,0
1606130965.712,44.922,-29.785,-27.344,147.949,0.000,0
1606130965.716,-20.020,-31.250,-33.691,-1.953,0.000,0
1606130965.720,-82.031,-36.621,-42.969,-186.523,0.000,0
1606130965.724,-62.500,-32.227,-38.086,-160.645,0.000,0
1606130965.728,11.230,-31.250,-31.250,52.246,0.000,0
1606130965.732,42.969,-28.320,-28.809,160.156,0.000,0
1606130965.736,-10.254,-25.391,-29.297,22.461,0.000,0
1606130965.740,-78.613,-31.738,-31.250,-165.527,0.000,0
1606130965.744,-77.637,-37.109,-29.297,-168.457,0.000,0
1606130965.747,-2.930,-29.297,-22.461,22.949,0.000,0
1606130965.751,38.574,-25.879,-20.996,148.438,0.000,0
1606130965.755,-10.742,-32.227,-23.926,36.621,0.000,0
1606130965.759,-93.262,-38.574,-24.902,-164.062,0.000,0
1606130965.763,-101.074,-41.504,-26.855,-193.848,0.000,0
1606130965.767,-20.508,-34.180,-29.785,-4.395,0.000,0
1606130965.771,40.039,-25.879,-29.297,145.020,0.000,0
1606130965.775,8.301,-29.785,-27.344,68.848,0.000,0
1606130965.779,-77.148,-33.203,-30.273,-131.348,0.000,0
1606130965.783,-100.098,-32.715,-32.227,-191.406,0.000,0
1606130965.787,-22.949,-28.320,-27.344,-18.555,0.000,0
1606130965.790,44.922,-21.484,-20.020,142.578,0.000,0
1606130965.794,13.184,-27.344,-24.902,81.543,0.000,0
1606130965.798,-72.266,-37.109,-35.156,-124.023,0.000,0
1606130965.802,-95.703,-38.086,-31.738,-200.195,0.000,0
1606130965.806,-28.320,-29.785,-20.020,-41.016,0.000,0
1606130965.810,39.062,-22.949,-15.625,140.625,0.000,0
1606130965.814,21.973,-26.855,-10.742,117.676,0.000,0
1606130965.818,-56.641,-33.691,-12.207,-89.844,0.000,0
1606130965.822,-88.379,-32.715,-28.809,-196.777,0.000,0
1606130965.826,-29.785,-27.344,-33.203,-61.523,0.000,0
1606130965.829,42.969,-22.461,-24.414,131.836,0.000,0
1606130965.833,44.434,-15.625,-21.484,135.254,0.000,0
1606130965.837,-37.598,-22.461,-28.320,-65.430,0.000,0
1606130965.841,-90.820,-33.691,-32.715,-198.730,0.000,0
1606130965.845,-46.387,-35.645,-29.297,-96.191,0.000,0
1606130965.849,36.133,-33.203,-24.902,106.934,0.000,0
1606130965.853,40.527,-29.297,-20.508,147.461,0.000,0
1606130965.857,-33.203,-29.785,-15.137,-32.715,0.000,0
1606130965.861,-86.426,-32.715,-21.484,-182.617,0.000,0
1606130965.865,-59.570,-34.180,-26.367,-104.980,0.000,0
1606130965.869,24.414,-28.809,-18.066,99.121,0.000,0
1606130965.872,41.016,-31.738,-22.461,146.973,0.000,0
1606130965.876,-30.762,-35.156,-28.809,-23.926,0.000,0
1606130965.880,-80.566,-31.738,-31.250,-178.711,0.000,0
1606130965.884,-68.359,-37.598,-33.203,-132.812,0.000,0
1606130965.888,19.043,-40.039,-25.391,83.496,0.000,0
1606130965.892,80.566,-17.578,-24.414,175.781,0.000,0
1606130965.896,-14.648,-0.488,-34.180,-2.930,0.000,0
1606130965.900,-125.488,-16.602,-41.016,-215.332,0.000,0
1606130965.904,-121.582,-21.484,-41.992,-221.191,0.000,0
1606130965.908,-57.617,-17.090,-37.109,-38.086,0.000,0
1606130965.912,-39.062,-17.090,-27.344,53.223,0.000,0
1606130965.915,-112.305,-23.438,-29.785,-93.262,0.000,0
1606130965.919,-195.801,-30.273,-34.180,-285.645,0.000,0
1606130965.923,-208.496,-21.973,-29.297,-310.059,0.000,0
1606130965.927,-148.438,-12.695,-25.879,-135.254,0.000,0
1606130965.931,-103.027,-11.230,-25.391,-9.277,0.000,0
1606130965.935,-160.645,-14.648,-30.762,-133.301,0.000,0
1606130965.939,-240.234,-20.508,-25.391,-344.238,0.000,0
1606130965.943,-253.418,-18.555,-16.602,-381.348,0.000,0
1606130965.947,-196.777,-15.625,-17.578,-198.730,0.000,0
1606130965.951,-132.324,-23.926,-20.508,-36.621,0.000,0
1606130965.954,-148.926,-24.902,-16.602,-113.281,0.000,0
1606130965.958,-219.727,-26.367,-17.578,-314.941,0.000,0
1606130965.962,-225.586,-25.391,-23.438,-356.934,0.000,0
1606130965.966,-138.184,-20.996,-23.438,-175.293,0.000,0
1606130965.970,-63.965,-14.160,-21.973,7.324,0.000,0
1606130965.974,-75.195,7.324,-20.508,-17.090,0.000,0
1606130965.978,-135.742,-8.301,-22.949,-198.730,0.000,0
1606130965.982,-161.133,-37.598,-34.180,-279.297,0.000,0
1606130965.986,-92.285,-28.809,-33.691,-122.559,0.000,0
1606130965.990,-3.906,-23.926,-26.855,89.355,0.000,0
1606130965.994,-13.672,-29.297,-38.574,73.242,0.000,0
1606130965.997,-93.750,-42.969,-47.363,-125.000,0.000,0
1606130966.001,-117.676,-44.922,-37.598,-216.797,0.000,0
1606130966.005,-58.594,-38.574,-34.180,-90.332,0.000,0
1606130966.009,26.855,-36.621,-40.039,103.027,0.000,0
1606130966.013,47.852,-35.156,-46.387,124.023,0.000,0
1606130966.017,-30.762,-34.180,-51.270,-54.199,0.000,0
1606130966.021,-76.172,-31.738,-48.340,-175.293,0.000,0
1606130966.025,-24.902,-39.551,-39.062,-80.566,0.000,0
1606130966.029,50.781,-48.828,-29.785,112.305,0.000,0
1606130966.033,57.129,-23.438,-31.738,154.785,0.000,0
1606130966.037,-16.602,-13.672,-39.551,-24.902,0.000,0
1606130966.040,-62.988,-38.086,-42.969,-175.293,0.000,0
1606130966.044,-23.926,-40.527,-46.875,-106.934,0.000,0
1606130966.048,43.457,-32.227,-42.480,103.516,0.000,0
1606130966.052,62.988,-29.785,-35.156,169.434,0.000,0
1606130966.056,-0.488,-39.062,-40.527,2.441,0.000,0
1606130966.060,-64.453,-48.828,-46.875,-156.250,0.000,0
1606130966.064,-38.574,-42.480,-44.434,-115.723,0.000,0
1606130966.068,40.527,-29.785,-41.992,78.613,0.000,0
1606130966.072,68.359,-27.344,-41.992,166.504,0.000,0
1606130966.076,7.812,-26.855,-45.898,37.109,0.000,0
1606130966.079,-63.477,-40.039,-50.781,-141.113,0.000,0
1606130966.083,-52.246,-44.922,-51.270,-147.949,0.000,0
1606130966.087,36.133,-33.691,-37.598,54.688,0.000,0
1606130966.091,74.219,-28.809,-31.738,178.711,0.000,0
1606130966.095,21.973,-28.809,-36.621,77.637,0.000,0
1606130966.099,-43.945,-33.691,-42.480,-117.188,0.000,0
1606130966.103,-46.875,-35.645,-44.434,-146.973,0.000,0
1606130966.107,24.414,-31.250,-40.527,47.363,0.000,0
1606130966.111,67.871,-26.367,-36.621,187.012,0.000,0
1606130966.115,31.738,-19.531,-37.109,90.332,0.000,0
1606130966.119,-44.922,-32.227,-42.480,-118.164,0.000,0
1606130966.122,-59.082,-39.551,-39.551,-161.621,0.000,0
1606130966.126,8.301,-31.738,-29.297,20.508,0.000,0
1606130966.130,67.383,-25.879,-29.297,177.734,0.000,0
1606130966.134,37.109,-31.738,-38.086,101.562,0.000,0
1606130966.138,-48.340,-39.551,-37.109,-108.887,0.000,0
1606130966.142,-63.965,-35.645,-27.832,-180.664,0.000,0
1606130966.146,9.277,-25.879,-19.531,-14.160,0.000,0
1606130966.150,69.824,-18.555,-23.438,155.273,0.000,0
1606130966.154,39.062,-25.879,-26.855,116.699,0.000,0
1606130966.158,-39.551,-33.691,-29.785,-67.383,0.000,0
1606130966.162,-71.289,-29.785,-33.691,-172.363,0.000,0
1606130966.165,-19.043,-27.832,-30.762,-55.176,0.000,0
1606130966.169,37.109,-28.320,-29.785,125.000,0.000,0
1606130966.173,16.602,-21.973,-30.762,108.887,0.000,0
1606130966.177,-55.664,-22.949,-29.785,-90.332,0.000,0
1606130966.181,-98.145,-39.551,-37.598,-204.590,0.000,0
1606130966.185,-48.828,-37.598,-34.180,-82.031,0.000,0
1606130966.189,35.645,-26.367,-21.973,111.816,0.000,0
1606130966.193,49.316,-20.996,-22.461,128.418,0.000,0
1606130966.197,-22.949,-29.297,-29.785,-70.801,0.000,0
1606130966.201,-73.242,-35.645,-35.645,-208.984,0.000,0
1606130966.204,-40.527,-33.203,-32.227,-104.980,0.000,0
1606130966.208,33.203,-26.855,-26.367,94.238,0.000,0
1606130966.212,41.504,-20.996,-24.902,133.301,0.000,0
1606130966.216,-28.809,-27.344,-29.297,-34.180,0.000,0
1606130966.220,-83.008,-37.109,-33.203,-189.941,0.000,0
1606130966.224,-59.570,-37.109,-29.297,-128.418,0.000,0
1606130966.228,12.695,-31.250,-26.367,85.938,0.000,0
1606130966.232,39.062,-26.855,-19.043,168.457,0.000,0
1606130966.236,-4.395,-34.668,-21.484,17.578,0.000,0
1606130966.240,-61.035,-42.480,-39.062,-150.879,0.000,0
1606130966.244,-69.336,-31.250,-41.504,-149.414,0.000,0
1606130966.247,-13.672,-16.602,-36.133,20.508,0.000,0
1606130966.251,29.297,-11.719,-34.668,135.254,0.000,0
1606130966.255,-23.438,-21.484,-34.668,7.324,0.000,0
1606130966.259,-113.770,-27.832,-46.875,-202.148,0.000,0
1606130966.263,-103.027,-22.461,-46.387,-200.684,0.000,0
1606130966.267,-25.879,-18.066,-34.668,-1.465,0.000,0
1606130966.271,9.766,-24.414,-37.598,111.816,0.000,0
1606130966.275,-29.785,-30.762,-41.504,8.789,0.000,0
1606130966.279,-94.727,-28.809,-33.203,-174.805,0.000,0
1606130966.283,-92.285,-30.273,-34.668,-194.824,0.000,0
1606130966.287,-14.160,-25.391,-34.180,-9.277,0.000,0
1606130966.290,37.109,-21.973,-28.320,136.719,0.000,0
1606130966.294,0.000,-26.367,-35.156,48.828,0.000,0
1606130966.298,-77.148,-31.738,-40.039,-151.367,0.000,0
1606130966.302,-82.520,-34.668,-45.410,-197.266,0.000,0
1606130966.306,-10.742,-33.691,-44.922,-31.250,0.000,0
1606130966.310,50.293,-27.344,-33.203,135.742,0.000,0
1606130966.314,25.391,-20.508,-36.133,75.684,0.000,0
1606130966.318,-59.082,-27.344,-44.922,-134.766,0.000,0
1606130966.322,-83.008,-31.250,-41.504,-197.754,0.000,0
1606130966.326,-14.160,-23.438,-35.645,-50.293,0.000,0
1606130966.329,52.246,-18.066,-27.832,111.328,0.000,0
1606130966.333,32.715,-24.902,-22.949,89.844,0.000,0
1606130966.337,-41.504,-29.297,-25.879,-100.098,0.000,0
1606130966.341,-69.336,-29.785,-29.297,-197.266,0.000,0
1606130966.345,-19.043,-26.855,-26.855,-65.918,0.000,0
1606130966.349,52.246,-16.602,-26.855,131.836,0.000,0
1606130966.353,47.363,-28.320,-27.832,130.371,0.000,0
1606130966.357,-33.691,-45.410,-26.855,-65.430,0.000,0
1606130966.361,-76.172,-33.203,-29.785,-181.152,0.000,0
1606130966.365,-28.809,-25.391,-27.832,-85.449,0.000,0
1606130966.369,40.527,-22.461,-23.926,109.375,0.000,0
1606130966.372,40.527,-23.926,-29.297,138.184,0.000,0
1606130966.376,-31.738,-29.785,-29.297,-54.688,0.000,0
1606130966.380,-83.496,-29.785,-24.902,-187.500,0.000,0
1606130966.384,-52.734,-30.762,-27.344,-102.539,0.000,0
1606130966.388,21.484,-28.809,-29.297,90.820,0.000,0
1606130966.392,35.645,-13.184,-19.531,146.484,0.000,0
1606130966.396,-33.203,-17.578,-19.043,-20.996,0.000,0
1606130966.400,-91.797,-34.668,-30.273,-187.500,0.000,0
1606130966.404,-62.012,-30.273,-32.715,-138.184,0.000,0
1606130966.408,18.555,-22.461,-33.203,63.965,0.000,0
1606130966.412,39.551,-24.414,-33.691,142.578,0.000,0
1606130966.415,-24.414,-30.762,-31.250,-8.789,0.000,0
1606130966.419,-86.914,-29.785,-33.691,-174.805,0.000,0
1606130966.423,-62.500,-25.391,-37.598,-145.020,0.000,0
1606130966.427,19.531,-18.066,-33.203,52.734,0.000,0
1606130966.431,40.527,-17.090,-31.738,155.762,0.000,0
1606130966.435,-20.508,-30.273,-35.156,25.879,0.000,0
1606130966.439,-85.449,-34.668,-41.016,-160.156,0.000,0
1606130966.443,-72.754,-28.809,-37.109,-158.203,0.000,0
1606130966.447,6.348,-26.367,-27.832,24.902,0.000,0
1606130966.451,46.387,-26.855,-25.879,133.301,0.000,0
1606130966.454,0.977,-48.340,-25.391,33.691,0.000,0
1606130966.458,-75.684,-53.223,-32.227,-153.320,0.000,0
1606130966.462,-84.473,-39.551,-34.668,-186.035,0.000,0
1606130966.466,-10.742,-33.691,-26.855,-2.441,0.000,0
1606130966.470,44.434,-26.855,-19.531,147.461,0.000,0
1606130966.474,20.508,-22.949,-17.578,79.102,0.000,0
1606130966.478,-60.547,-27.344,-27.832,-125.488,0.000,0
1606130966.482,-83.008,-30.762,-30.762,-190.918,0.000,0
1606130966.486,-8.789,-28.809,-20.508,-17.090,0.000,0
1606130966.490,45.410,-25.879,-15.137,154.297,0.000,0
1606130966.494,12.695,-40.527,-25.879,96.680,0.000,0
1606130966.497,-63.477,-40.527,-31.250,-116.211,0.000,0
1606130966.501,-88.379,-31.250,-29.785,-200.195,0.000,0
1606130966.505,-33.691,-27.832,-20.508,-47.852,0.000,0
1606130966.509,35.645,-18.555,-12.695,138.184,0.000,0
1606130966.513,33.691,-22.461,-21.973,117.676,0.000,0
1606130966.517,-62.988,-29.297,-24.902,-110.840,0.000,0
1606130966.521,-125.977,-32.227,-25.879,-240.234,0.000,0
1606130966.525,-71.289,-28.809,-23.438,-108.398,0.000,0
1606130966.529,-7.324,-25.879,-22.949,74.707,0.000,0
1606130966.533,-18.066,-31.250,-20.508,91.309,0.000,0
1606130966.537,-91.309,-40.039,-24.902,-97.168,0.000,0
1606130966.540,-131.348,-46.875,-30.273,-246.582,0.000,0
1606130966.544,-79.590,-41.504,-19.531,-134.277,0.000,0
1606130966.548,4.395,-27.344,-18.066,65.430,0.000,0
1606130966.552,16.602,-14.160,-23.438,93.750,0.000,0
1606130966.556,-59.082,-13.184,-28.809,-81.543,0.000,0
1606130966.560,-108.887,-24.414,-33.691,-222.656,0.000,0
1606130966.564,-66.895,-27.344,-27.832,-140.137,0.000,0
1606130966.568,13.184,-18.555,-15.137,70.312,0.000,0
1606130966.572,33.691,-16.602,-17.578,133.789,0.000,0
1606130966.576,-28.809,-30.273,-25.391,-22.461,0.000,0
1606130966.579,-81.543,-35.645,-28.320,-180.664,0.000,0
1606130966.583,-51.758,-32.227,-22.461,-136.230,0.000,0
1606130966.587,19.043,-26.855,-18.066,67.871,0.000,0
1606130966.591,46.875,-23.926,-18.555,144.531,0.000,0
1606130966.595,-9.277,-23.926,-19.043,0.488,0.000,0
1606130966.599,-82.520,-30.273,-20.020,-169.922,0.000,0
1606130966.603,-72.754,-37.598,-19.531,-148.926,0.000,0
1606130966.607,13.184,-30.762,-18.555,59.082,0.000,0
1606130966.611,53.711,-20.508,-15.137,172.852,0.000,0
1606130966.615,-4.395,-26.367,-16.113,53.711,0.000,0
1606130966.619,-82.520,-40.039,-21.484,-132.324,0.000,0
1606130966.622,-83.496,-40.527,-27.344,-149.902,0.000,0
1606130966.626,-2.930,-23.438,-23.438,42.969,0.000,0
1606130966.630,42.969,-14.648,-16.602,182.129,0.000,0
1606130966.634,-11.719,-18.555,-21.973,77.148,0.000,0
1606130966.638,-89.844,-30.273,-28.320,-133.789,0.000,0
1606130966.642,-88.379,-38.086,-18.555,-173.340,0.000,0
1606130966.646,-13.184,-29.785,-14.648,9.766,0.000,0
1606130966.650,43.945,-23.438,-22.461,156.250,0.000,0
1606130966.654,14.648,-29.297,-26.855,79.102,0.000,0
1606130966.658,-58.105,-37.109,-31.738,-122.070,0.000,0
1606130966.662,-73.242,-34.668,-29.297,-187.012,0.000,0
1606130966.665,-9.277,-20.508,-25.879,-28.809,0.000,0
1606130966.669,49.805,-12.695,-27.344,135.254,0.000,0
1606130966.673,33.691,-15.625,-29.297,96.680,0.000,0
1606130966.677,-33.691,-21.484,-31.250,-100.586,0.000,0
1606130966.681,-57.129,-27.832,-26.367,-188.965,0.000,0
1606130966.685,-0.977,-23.926,-23.926,-44.922,0.000,0
1606130966.689,60.547,-19.531,-26.367,129.395,0.000,0
1606130966.693,42.969,-12.695,-26.367,116.699,0.000,0
1606130966.697,-45.410,-16.602,-30.762,-83.496,0.000,0
1606130966.701,-89.355,-25.391,-36.621,-205.078,0.000,0
1606130966.704,-34.180,-16.602,-37.598,-83.496,0.000,0
1606130966.708,36.133,-15.625,-29.297,118.652,0.000,0
1606130966.712,18.066,-24.902,-20.508,132.324,0.000,0
1606130966.716,-72.266,-29.297,-22.949,-65.918,0.000,0
1606130966.720,-124.023,-35.645,-25.879,-197.754,0.000,0
1606130966.724,-69.336,-30.762,-23.438,-93.262,0.000,0
1606130966.728,17.090,-26.367,-10.254,109.375,0.000,0
1606130966.732,24.414,-27.832,-0.977,149.414,0.000,0
1606130966.736,-45.410,-28.809,-9.277,-27.832,0.000,0
1606130966.740,-99.121,-44.434,-17.578,-177.734,0.000,0
1606130966.744,-57.129,-45.898,-19.043,-106.445,0.000,0
1606130966.747,27.832,-34.180,-17.578,110.840,0.000,0
1606130966.751,54.688,-27.344,-12.207,176.758,0.000,0
1606130966.755,6.836,-35.645,-8.789,9.277,0.000,0
1606130966.759,-54.199,-44.434,-16.113,-145.996,0.000,0
1606130966.763,-32.715,-40.039,-18.555,-102.051,0.000,0
1606130966.767,49.805,-28.809,-12.207,102.539,0.000,0
1606130966.771,80.078,-19.043,-10.742,199.707,0.000,0
1606130966.775,22.461,-16.602,-21.973,52.246,0.000,0
1606130966.779,-47.852,-32.227,-26.855,-147.461,0.000,0
1606130966.783,-35.156,-38.086,-21.973,-139.648,0.000,0
1606130966.787,43.945,-22.949,-23.438,62.012,0.000,0
1606130966.790,77.637,-16.602,-24.414,175.781,0.000,0
1606130966.794,18.555,-20.508,-29.785,63.477,0.000,0
1606130966.798,-67.871,-27.344,-39.551,-130.371,0.000,0
1606130966.802,-68.848,-28.320,-30.273,-156.738,0.000,0
1606130966.806,12.207,-20.508,-17.578,36.621,0.000,0
1606130966.810,54.199,-15.625,-17.578,177.246,0.000,0
1606130966.814,4.395,-24.414,-21.973,77.148,0.000,0
1606130966.818,-73.730,-37.598,-28.320,-130.859,0.000,0
1606130966.822,-88.379,-36.133,-27.832,-176.270,0.000,0
1606130966.826,-20.996,-22.949,-20.020,2.441,0.000,0
1606130966.829,39.551,-20.508,-18.066,147.461,0.000,0
1606130966.833,10.254,-14.160,-22.949,76.660,0.000,0
1606130966.837,-70.801,-19.531,-29.297,-122.559,0.000,0
1606130966.841,-86.914,-35.156,-29.785,-189.453,0.000,0
1606130966.845,-19.043,-34.668,-26.367,-35.156,0.000,0
1606130966.849,44.434,-26.855,-16.602,127.930,0.000,0
1606130966.853,24.414,-25.879,-12.207,98.633,0.000,0
1606130966.857,-60.547,-37.109,-26.855,-108.398,0.000,0
1606130966.861,-95.703,-35.645,-32.715,-201.660,0.000,0
1606130966.865,-43.945,-34.668,-30.762,-65.918,0.000,0
1606130966.869,30.762,-26.855,-23.438,112.305,0.000,0
1606130966.872,24.902,-14.160,-22.461,110.352,0.000,0
1606130966.876,-65.430,-21.484,-29.297,-94.238,0.000,0
1606130966.880,-106.445,-38.086,-27.832,-213.379,0.000,0
1606130966.884,-51.270,-34.668,-26.855,-99.609,0.000,0
1606130966.888,27.344,-27.344,-22.461,104.004,0.000,0
1606130966.892,31.738,-28.809,-20.508,125.000,0.000,0
1606130966.896,-53.223,-33.691,-24.414,-78.613,0.000,0
1606130966.900,-102.051,-36.621,-25.879,-212.402,0.000,0
1606130966.904,-65.430,-30.762,-21.484,-122.070,0.000,0
1606130966.908,10.742,-23.438,-11.719,75.195,0.000,0
1606130966.912,25.879,-22.461,-16.602,126.465,0.000,0
1606130966.915,-51.758,-29.297,-31.738,-54.199,0.000,0
1606130966.919,-112.305,-35.645,-33.203,-228.027,0.000,0
1606130966.923,-87.402,-35.645,-35.156,-163.086,0.000,0
1606130966.927,-1.953,-24.414,-30.762,53.711,0.000,0
1606130966.931,22.949,-20.020,-22.949,129.883,0.000,0
1606130966.935,-51.758,-30.762,-20.020,-20.508,0.000,0
1606130966.939,-119.629,-33.691,-21.973,-192.871,0.000,0
1606130966.943,-94.238,-27.344,-23.438,-170.898,0.000,0
1606130966.947,-13.672,-26.367,-22.949,35.156,0.000,0
1606130966.951,15.137,-27.832,-24.414,134.277,0.000,0
1606130966.954,-36.621,-26.855,-30.762,0.488,0.000,0
1606130966.958,-107.422,-30.762,-36.133,-187.500,0.000,0
1606130966.962,-99.609,-33.203,-34.180,-198.242,0.000,0
1606130966.966,-13.672,-23.926,-33.691,2.930,0.000,0
1606130966.970,32.227,-21.484,-28.809,124.512,0.000,0
1606130966.974,-6.836,-19.531,-29.785,25.391,0.000,0
1606130966.978,-85.938,-22.461,-32.227,-166.504,0.000,0
1606130966.982,-98.145,-27.832,-34.668,-203.613,0.000,0
1606130966.986,-23.438,-27.344,-30.762,-17.090,0.000,0
1606130966.990,29.297,-30.273,-23.438,134.766,0.000,0
1606130966.994,0.977,-31.250,-23.926,49.316,0.000,0
1606130966.997,-76.660,-30.273,-24.902,-149.414,0.000,0
1606130967.001,-89.844,-32.715,-32.227,-195.312,0.000,0
1606130967.005,-13.184,-25.391,-28.809,-16.113,0.000,0
1606130967.009,35.645,-22.949,-20.508,145.020,0.000,0
1606130967.013,-0.977,-11.230,-26.855,79.590,0.000,0
1606130967.017,-74.707,-4.395,-32.227,-126.953,0.000,0
1606130967.021,-101.562,-30.762,-31.738,-210.938,0.000,0
1606130967.025,-38.086,-31.738,-28.320,-67.871,0.000,0
1606130967.029,33.691,-21.973,-25.391,108.887,0.000,0
1606130967.033,10.742,-25.879,-30.273,80.566,0.000,0
1606130967.037,-73.730,-30.762,-40.527,-115.723,0.000,0
1606130967.040,-101.074,-28.809,-35.156,-220.703,0.000,0
1606130967.044,-44.922,-24.902,-27.344,-105.957,0.000,0
1606130967.048,26.367,-22.949,-24.414,96.191,0.000,0
1606130967.052,21.484,-18.555,-25.879,103.027,0.000,0
1606130967.056,-69.336,-23.926,-31.250,-100.098,0.000,0
1606130967.060,-118.164,-37.598,-28.809,-214.355,0.000,0
1606130967.064,-74.707,-36.621,-22.949,-109.375,0.000,0
1606130967.068,4.395,-26.367,-22.461,81.055,0.000,0
1606130967.072,16.602,-20.996,-22.461,113.770,0.000,0
1606130967.076,-50.293,-23.926,-27.832,-67.871,0.000,0
1606130967.079,-94.238,-29.297,-33.203,-211.426,0.000,0
1606130967.083,-66.406,-31.250,-25.879,-130.859,0.000,0
1606130967.087,2.930,-26.855,-25.391,63.965,0.000,0
1606130967.091,17.090,-25.391,-25.391,124.023,0.000,0
1606130967.095,-48.828,-32.715,-24.902,-44.922,0.000,0
1606130967.099,-106.445,-37.598,-31.250,-204.102,0.000,0
1606130967.103,-84.473,-36.133,-29.785,-155.762,0.000,0
1606130967.107,-3.418,-30.273,-24.902,29.297,0.000,0
1606130967.111,20.508,-23.926,-27.344,116.211,0.000,0
1606130967.115,-41.016,-11.719,-31.738,-27.832,0.000,0
1606130967.119,-98.145,-15.625,-28.320,-206.055,0.000,0
1606130967.122,-75.195,-28.809,-23.926,-178.711,0.000,0
1606130967.126,7.324,-28.320,-23.438,28.809,0.000,0
1606130967.130,41.992,-25.391,-20.020,136.719,0.000,0
1606130967.134,-10.254,-26.367,-27.344,14.648,0.000,0
1606130967.138,-79.102,-36.133,-38.574,-181.641,0.000,0
1606130967.142,-77.637,-34.180,-34.668,-187.988,0.000,0
1606130967.146,0.000,-17.090,-21.484,15.625,0.000,0
1606130967.150,44.434,-13.672,-20.020,139.160,0.000,0
1606130967.154,-4.883,-17.090,-32.227,27.344,0.000,0
1606130967.158,-81.055,-27.344,-37.109,-175.781,0.000,0
1606130967.162,-85.938,-30.273,-36.621,-200.684,0.000,0
1606130967.165,-14.160,-23.438,-31.250,-19.043,0.000,0
1606130967.169,35.645,-25.391,-26.855,121.094,0.000,0
1606130967.173,6.836,-28.320,-29.785,48.828,0.000,0
1606130967.177,-71.289,-32.227,-29.297,-152.832,0.000,0
1606130967.181,-94.727,-28.809,-25.879,-216.797,0.000,0
1606130967.185,-29.785,-27.344,-23.926,-51.758,0.000,0
1606130967.189,33.691,-27.832,-17.090,119.629,0.000,0
1606130967.193,10.742,-26.367,-16.113,80.566,0.000,0
1606130967.197,-76.660,-36.133,-26.367,-126.953,0.000,0
1606130967.201,-109.375,-44.922,-25.391,-221.191,0.000,0
1606130967.204,-49.805,-41.992,-23.926,-84.473,0.000,0
1606130967.208,15.137,-38.086,-28.320,105.469,0.000,0
1606130967.212,1.953,-38.574,-23.438,100.586,0.000,0
1606130967.216,-77.148,-42.480,-20.020,-101.562,0.000,0
1606130967.220,-104.980,-41.992,-27.832,-206.055,0.000,0
1606130967.224,-45.410,-36.133,-34.668,-83.008,0.000,0
1606130967.228,22.461,-29.785,-24.902,104.980,0.000,0
1606130967.232,22.949,-25.391,-18.555,119.141,0.000,0
1606130967.236,-54.688,-31.250,-25.391,-73.730,0.000,0
1606130967.240,-98.145,-34.180,-31.250,-200.684,0.000,0
1606130967.244,-45.898,-23.926,-31.250,-99.121,0.000,0
1606130967.247,28.809,-15.625,-28.809,90.332,0.000,0
1606130967.251,36.621,-9.766,-26.367,118.652,0.000,0
1606130967.255,-32.227,-14.648,-29.785,-52.734,0.000,0
1606130967.259,-82.520,-29.785,-33.691,-204.590,0.000,0
1606130967.263,-50.781,-24.902,-28.320,-145.996,0.000,0
1606130967.267,26.855,-14.648,-24.414,61.035,0.000,0
1606130967.271,43.945,-21.484,-25.391,135.254,0.000,0
1606130967.275,-20.996,-25.879,-26.855,-32.227,0.000,0
1606130967.279,-84.473,-23.926,-29.297,-201.172,0.000,0
1606130967.283,-62.012,-25.391,-29.297,-160.645,0.000,0
1606130967.287,20.020,-19.531,-31.250,42.480,0.000,0
1606130967.290,46.387,-17.090,-30.273,126.465,0.000,0
1606130967.294,-20.020,-5.859,-31.738,-20.996,0.000,0
1606130967.298,-88.867,-10.254,-31.738,-190.430,0.000,0
1606130967.302,-75.684,-30.273,-27.344,-167.969,0.000,0
1606130967.306,-0.977,-25.391,-22.461,35.645,0.000,0
1606130967.310,37.598,-27.344,-19.043,145.996,0.000,0
1606130967.314,-21.484,-36.621,-25.879,17.090,0.000,0
1606130967.318,-94.727,-41.504,-28.809,-160.156,0.000,0
1606130967.322,-90.332,-43.457,-30.762,-169.922,0.000,0
1606130967.326,-17.578,-38.574,-34.180,10.742,0.000,0
1606130967.329,33.203,-32.227,-23.926,156.738,0.000,0
1606130967.333,-8.789,-36.133,-27.832,61.035,0.000,0
1606130967.337,-92.773,-45.410,-39.551,-148.926,0.000,0
1606130967.341,-110.352,-50.781,-36.133,-187.500,0.000,0
1606130967.345,-31.738,-49.316,-29.785,0.488,0.000,0
1606130967.349,41.504,-31.738,-29.785,156.738,0.000,0
1606130967.353,17.090,-20.996,-37.109,90.332,0.000,0
1606130967.357,-68.848,-26.855,-44.434,-128.418,0.000,0
1606130967.361,-92.285,-27.344,-45.898,-210.449,0.000,0
1606130967.365,-16.602,-17.578,-37.598,-41.992,0.000,0
1606130967.369,44.922,-13.184,-37.109,125.000,0.000,0
1606130967.372,28.809,-16.602,-52.734,84.961,0.000,0
1606130967.376,-38.574,-19.531,-62.500,-106.445,0.000,0
1606130967.380,-62.012,-20.020,-47.852,-187.500,0.000,0
1606130967.384,-9.766,-21.484,-37.109,-45.410,0.000,0
1606130967.388,46.387,-32.715,-43.945,132.324,0.000,0
1606130967.392,37.109,-19.531,-46.387,111.816,0.000,0
1606130967.396,-31.738,5.859,-53.223,-89.355,0.000,0
1606130967.400,-76.172,-20.020,-57.617,-206.543,0.000,0
1606130967.404,-34.668,-34.180,-53.223,-89.844,0.000,0
1606130967.408,41.016,-23.438,-40.527,109.375,0.000,0
1606130967.412,45.898,-24.902,-30.762,122.070,0.000,0
1606130967.415,-30.762,-34.180,-36.133,-62.012,0.000,0
1606130967.419,-82.520,-42.969,-43.945,-195.801,0.000,0
1606130967.423,-41.992,-33.691,-38.086,-100.586,0.000,0
1606130967.427,40.527,-23.438,-23.438,104.980,0.000,0
1606130967.431,48.340,-22.949,-28.320,151.367,0.000,0
1606130967.435,-22.461,-28.809,-38.574,-18.555,0.000,0
1606130967.439,-74.219,-40.039,-38.086,-180.176,0.000,0
1606130967.443,-48.828,-39.062,-38.086,-113.770,0.000,0
1606130967.447,28.320,-33.691,-36.133,99.609,0.000,0
1606130967.451,54.688,-29.785,-31.250,171.387,0.000,0
1606130967.454,-11.230,-36.621,-30.762,8.789,0.000,0
1606130967.458,-83.984,-42.969,-30.273,-160.645,0.000,0
1606130967.462,-69.824,-34.180,-29.297,-125.977,0.000,0
1606130967.466,12.207,-24.902,-27.832,79.102,0.000,0
1606130967.470,41.504,-24.902,-23.438,171.875,0.000,0
1606130967.474,-17.578,-2.930,-31.738,21.973,0.000,0
1606130967.478,-86.426,-6.836,-33.691,-172.852,0.000,0
1606130967.482,-76.172,-39.551,-24.902,-173.340,0.000,0
1606130967.486,6.348,-33.203,-22.461,21.973,0.000,0
1606130967.490,38.086,-32.227,-20.996,134.766,0.000,0
1606130967.494,-10.254,-31.250,-24.414,22.949,0.000,0
1606130967.497,-66.895,-33.691,-32.715,-162.109,0.000,0
1606130967.501,-73.242,-39.551,-30.762,-185.059,0.000,0
1606130967.505,-18.066,-27.832,-13.184,-13.184,0.000,0
1606130967.509,19.043,-18.066,0.000,114.258,0.000,0
1606130967.513,-29.297,-20.996,-15.137,22.949,0.000,0
1606130967.517,-133.301,-40.039,-37.109,-186.035,0.000,0
1606130967.521,-158.691,-55.664,-29.785,-238.281,0.000,0
1606130967.525,-98.633,-60.059,4.395,-82.520,0.000,0
1606130967.529,-47.852,-59.570,24.414,75.195,0.000,0
1606130967.533,-64.941,-59.570,15.625,23.438,0.000,0
1606130967.537,-145.996,-64.941,2.441,-202.637,0.000,0
1606130967.540,-169.434,-58.105,17.090,-268.066,0.000,0
1606130967.544,-98.145,-52.246,40.039,-87.891,0.000,0
1606130967.548,-26.367,-50.781,24.902,94.238,0.000,0
1606130967.552,-39.551,-46.387,13.672,77.637,0.000,0
1606130967.556,-121.094,-50.781,25.879,-117.188,0.000,0
1606130967.560,-141.113,-59.570,19.531,-208.984,0.000,0
1606130967.564,-67.383,-54.199,17.578,-48.340,0.000,0
1606130967.568,3.906,-44.434,25.879,139.160,0.000,0
1606130967.572,7.324,-45.898,20.996,128.418,0.000,0
1606130967.576,-70.801,-59.082,2.930,-62.500,0.000,0
1606130967.579,-109.863,-57.129,-1.465,-178.223,0.000,0
1606130967.583,-48.340,-40.039,7.324,-53.223,0.000,0
1606130967.587,22.949,-30.762,3.418,147.949,0.000,0
1606130967.591,22.949,-35.645,-1.953,174.805,0.000,0
1606130967.595,-51.758,-46.875,-4.883,-17.578,0.000,0
1606130967.599,-93.750,-44.922,-0.977,-146.484,0.000,0
1606130967.603,-44.434,-34.180,-0.977,-45.410,0.000,0
1606130967.607,27.832,-30.273,-9.766,136.719,0.000,0
1606130967.611,39.551,-26.367,-10.254,179.688,0.000,0
1606130967.615,-31.250,-25.879,-15.137,1.953,0.000,0
1606130967.619,-89.355,-36.133,-20.996,-177.246,0.000,0
1606130967.622,-56.641,-34.180,-21.484,-118.164,0.000,0
1606130967.626,16.602,-29.297,-22.461,98.633,0.000,0
1606130967.630,39.551,-30.273,-25.391,168.457,0.000,0
1606130967.634,-21.484,-27.832,-23.926,10.742,0.000,0
1606130967.638,-89.355,-35.645,-25.879,-171.387,0.000,0
1606130967.642,-74.707,-39.062,-28.809,-149.414,0.000,0
1606130967.646,12.207,-26.855,-25.391,63.477,0.000,0
1606130967.650,47.852,-21.973,-17.090,171.387,0.000,0
1606130967.654,-12.207,-35.156,-17.090,40.039,0.000,0
1606130967.658,-78.613,-44.434,-23.438,-142.090,0.000,0
1606130967.662,-67.383,-36.133,-23.926,-139.160,0.000,0
1606130967.665,15.625,-27.344,-23.926,60.059,0.000,0
1606130967.669,54.199,-38.574,-19.531,176.270,0.000,0
1606130967.673,-0.977,-11.719,-24.902,58.105,0.000,0
1606130967.677,-68.848,10.254,-30.762,-131.836,0.000,0
1606130967.681,-76.172,-34.180,-24.902,-166.504,0.000,0
1606130967.685,-6.348,-44.922,-16.113,19.043,0.000,0
1606130967.689,47.852,-30.273,-10.254,175.781,0.000,0
1606130967.693,7.324,-32.227,-19.043,91.797,0.000,0
1606130967.697,-73.730,-43.945,-34.668,-120.605,0.000,0
1606130967.701,-81.543,-39.551,-36.621,-194.336,0.000,0
1606130967.704,-10.742,-28.320,-29.297,-29.785,0.000,0
1606130967.708,41.016,-28.320,-26.367,136.230,0.000,0
1606130967.712,18.555,-38.574,-27.344,72.754,0.000,0
1606130967.716,-56.641,-46.875,-39.551,-133.789,0.000,0
1606130967.720,-82.031,-38.574,-48.340,-208.008,0.000,0
1606130967.724,-15.625,-23.926,-44.434,-46.875,0.000,0
1606130967.728,47.363,-17.578,-35.156,130.859,0.000,0
1606130967.732,32.227,-20.996,-32.227,112.793,0.000,0
1606130967.736,-43.945,-27.832,-35.156,-98.633,0.000,0
1606130967.740,-84.473,-30.762,-31.738,-208.984,0.000,0
1606130967.744,-25.879,-28.809,-25.879,-57.129,0.000,0
1606130967.747,41.504,-32.715,-24.902,137.207,0.000,0
1606130967.751,39.062,-11.719,-27.344,135.742,0.000,0
1606130967.755,-27.344,6.348,-31.250,-62.500,0.000,0
1606130967.759,-71.777,-28.809,-32.227,-192.871,0.000,0
1606130967.763,-20.996,-39.062,-25.879,-88.867,0.000,0
1606130967.767,55.664,-28.320,-23.926,118.164,0.000,0
1606130967.771,61.035,-25.391,-19.531,159.668,0.000,0
1606130967.775,-16.113,-31.250,-18.555,-31.738,0.000,0
1606130967.779,-65.918,-34.668,-22.949,-173.340,0.000,0
1606130967.783,-30.762,-28.320,-25.879,-94.238,0.000,0
1606130967.787,37.598,-24.902,-23.438,110.840,0.000,0
1606130967.790,56.641,-26.367,-22.461,172.363,0.000,0
1606130967.794,-7.324,-23.438,-27.832,-0.977,0.000,0
1606130967.798,-85.938,-28.809,-25.391,-182.617,0.000,0
1606130967.802,-71.289,-32.715,-19.043,-134.277,0.000,0
1606130967.806,23.438,-26.367,-12.207,84.961,0.000,0
1606130967.810,47.852,-20.996,-4.395,161.621,0.000,0
1606130967.814,-22.949,-7.324,-11.230,6.836,0.000,0
1606130967.818,-89.844,-23.926,-24.414,-174.316,0.000,0
1606130967.822,-83.496,-50.293,-25.391,-165.527,0.000,0
1606130967.826,-6.836,-46.387,-17.578,48.828,0.000,0
1606130967.829,35.156,-39.551,-16.602,169.922,0.000,0
1606130967.833,-13.184,-34.180,-22.949,36.621,0.000,0
1606130967.837,-85.449,-34.180,-25.879,-160.156,0.000,0
1606130967.841,-86.914,-37.598,-30.273,-173.828,0.000,0
1606130967.845,-2.930,-31.250,-26.855,29.297,0.000,0
1606130967.849,55.664,-27.832,-15.625,166.992,0.000,0
1606130967.853,8.301,-22.949,-18.555,66.895,0.000,0
1606130967.857,-73.730,-22.949,-29.785,-139.160,0.000,0
1606130967.861,-80.566,-35.645,-31.250,-191.406,0.000,0
1606130967.865,-0.488,-32.227,-20.996,4.395,0.000,0
1606130967.869,53.223,-30.762,-15.137,164.062,0.000,0
1606130967.872,13.184,-37.598,-27.832,74.707,0.000,0
1606130967.876,-67.871,-41.504,-30.273,-135.742,0.000,0
1606130967.880,-84.961,-38.086,-22.461,-194.824,0.000,0
1606130967.884,-10.254,-30.273,-22.949,-22.949,0.000,0
1606130967.888,48.828,-33.203,-22.461,150.391,0.000,0
1606130967.892,16.602,-32.227,-18.555,112.305,0.000,0
1606130967.896,-63.477,-28.320,-21.973,-101.074,0.000,0
1606130967.900,-87.402,-34.180,-29.785,-198.730,0.000,0
1606130967.904,-20.508,-25.391,-26.855,-43.457,0.000,0
1606130967.908,47.363,-21.484,-26.855,142.090,0.000,0
1606130967.912,33.203,-24.902,-35.156,120.605,0.000,0
1606130967.915,-50.781,-38.086,-36.621,-92.773,0.000,0
1606130967.919,-89.844,-39.551,-36.133,-196.289,0.000,0
1606130967.923,-34.668,-26.367,-34.668,-69.336,0.000,0
1606130967.927,39.551,-21.484,-30.762,125.977,0.000,0
1606130967.931,35.645,-20.508,-31.738,138.184,0.000,0
1606130967.935,-40.039,-23.926,-28.320,-73.242,0.000,0
1606130967.939,-88.867,-34.668,-23.926,-207.520,0.000,0
1606130967.943,-47.852,-33.203,-26.367,-101.074,0.000,0
1606130967.947,41.504,-21.973,-26.855,111.328,0.000,0
1606130967.951,54.199,-23.438,-22.949,143.555,0.000,0
1606130967.954,-23.438,2.930,-24.414,-44.922,0.000,0
1606130967.958,-78.613,2.441,-26.855,-191.895,0.000,0
1606130967.962,-43.457,-22.949,-20.508,-113.281,0.000,0
1606130967.966,36.621,-14.648,-9.277,105.957,0.000,0
1606130967.970,55.176,-18.066,-11.719,171.387,0.000,0
1606130967.974,-12.695,-26.855,-25.391,-1.953,0.000,0
1606130967.978,-77.637,-33.691,-25.391,-166.504,0.000,0
1606130967.982,-58.105,-35.645,-19.531,-113.281,0.000,0
1606130967.986,26.367,-27.344,-17.578,87.402,0.000,0
1606130967.990,56.641,-18.066,-13.184,171.875,0.000,0
1606130967.994,-8.301,-11.230,-20.020,22.461,0.000,0
1606130967.997,-74.219,-18.555,-31.250,-171.387,0.000,0
1606130968.001,-56.152,-23.926,-27.832,-144.043,0.000,0
1606130968.005,22.949,-16.113,-17.090,66.406,0.000,0
1606130968.009,55.176,-18.555,-11.719,171.387,0.000,0
1606130968.013,-2.441,-29.297,-18.066,42.969,0.000,0
1606130968.017,-77.148,-38.574,-25.391,-152.344,0.000,0
1606130968.021,-73.730,-39.551,-21.973,-164.062,0.000,0
1606130968.025,-3.418,-33.691,-13.672,34.668,0.000,0
1606130968.029,45.898,-22.461,-9.766,180.176,0.000,0
1606130968.033,4.395,-15.137,-20.996,77.637,0.000,0
1606130968.037,-72.754,-17.090,-24.414,-130.859,0.000,0
1606130968.040,-84.473,-34.668,-22.461,-165.039,0.000,0
1606130968.044,-18.555,-35.156,-20.508,6.836,0.000,0
1606130968.048,39.551,-23.438,-24.414,144.531,0.000,0
1606130968.052,9.277,-16.602,-32.227,71.777,0.000,0
1606130968.056,-69.824,-8.301,-31.738,-130.859,0.000,0
1606130968.060,-87.402,-27.344,-27.344,-184.570,0.000,0
1606130968.064,-16.113,-34.668,-24.902,-13.184,0.000,0
1606130968.068,38.574,-28.809,-28.809,146.973,0.000,0
1606130968.072,11.230,-28.320,-20.996,92.773,0.000,0
1606130968.076,-58.105,-41.016,-16.113,-103.516,0.000,0
1606130968.079,-82.520,-36.133,-19.531,-185.547,0.000,0
1606130968.083,-18.555,-10.254,-23.926,-43.945,0.000,0
1606130968.087,53.223,-8.301,-27.344,130.859,0.000,0
1606130968.091,41.992,-9.766,-26.367,118.652,0.000,0
1606130968.095,-43.945,-8.301,-29.785,-81.543,0.000,0
1606130968.099,-88.379,-28.809,-36.621,-210.449,0.000,0
1606130968.103,-45.898,-29.785,-32.715,-83.496,0.000,0
1606130968.107,28.320,-18.555,-26.855,124.512,0.000,0
1606130968.111,32.227,-22.461,-23.438,141.602,0.000,0
1606130968.115,-47.852,-27.832,-25.879,-63.477,0.000,0
1606130968.119,-97.656,-33.691,-28.809,-210.938,0.000,0
1606130968.122,-60.547,-33.203,-26.855,-127.441,0.000,0
1606130968.126,19.531,-21.484,-23.926,88.867,0.000,0
1606130968.130,19.043,-23.438,-28.320,139.160,0.000,0
1606130968.134,-62.988,-12.695,-42.969,-57.129,0.000,0
1606130968.138,-112.793,-12.207,-40.039,-219.727,0.000,0
1606130968.142,-83.008,-36.133,-28.809,-140.625,0.000,0
1606130968.146,-3.418,-38.574,-20.996,83.496,0.000,0
1606130968.150,19.531,-30.273,-14.160,129.883,0.000,0
1606130968.154,-38.574,-26.367,-20.508,-26.367,0.000,0
1606130968.158,-103.516,-36.133,-25.879,-194.336,0.000,0
1606130968.162,-86.914,-36.133,-28.809,-186.035,0.000,0
1606130968.165,-7.324,-29.785,-21.484,34.180,0.000,0
1606130968.169,19.043,-38.086,-13.184,139.160,0.000,0
1606130968.173,-33.203,-31.738,-9.277,2.930,0.000,0
1606130968.177,-99.121,-28.320,-14.648,-179.199,0.000,0
1606130968.181,-111.816,-38.574,-20.996,-189.453,0.000,0
1606130968.185,-38.574,-34.668,-13.672,7.324,0.000,0
1606130968.189,37.598,-29.785,-14.648,142.578,0.000,0
1606130968.193,7.324,-17.090,-27.344,39.551,0.000,0
1606130968.197,-88.379,-17.090,-36.133,-182.617,0.000,0
1606130968.201,-96.680,-25.879,-36.621,-213.379,0.000,0
1606130968.204,-33.691,-19.531,-32.227,-15.625,0.000,0
1606130968.208,20.996,-19.531,-36.133,117.676,0.000,0
1606130968.212,5.371,-21.973,-42.969,51.270,0.000,0
1606130968.216,-63.965,-19.531,-52.246,-172.363,0.000,0
1606130968.220,-70.801,-19.531,-55.664,-228.027,0.000,0
1606130968.224,10.254,-4.883,-54.688,-14.160,0.000,0
1606130968.228,91.797,-2.441,-56.152,147.461,0.000,0
1606130968.232,61.035,14.648,-57.617,71.777,0.000,0
1606130968.236,-40.039,41.504,-70.801,-128.418,0.000,0
1606130968.240,-54.199,10.742,-75.195,-174.316,0.000,0
1606130968.244,10.742,-17.090,-62.012,6.348,0.000,0
1606130968.247,83.008,-16.113,-60.059,162.598,0.000,0
1606130968.251,93.750,-7.812,-69.336,110.352,0.000,0
1606130968.255,13.672,-14.648,-75.684,-99.121,0.000,0
1606130968.259,-36.133,-30.762,-74.219,-195.312,0.000,0
1606130968.263,13.184,-21.484,-70.312,-50.781,0.000,0
1606130968.267,87.402,-11.719,-62.988,130.859,0.000,0
1606130968.271,69.824,-13.672,-55.664,138.184,0.000,0
1606130968.275,-19.043,-4.883,-55.176,-62.988,0.000,0
1606130968.279,-62.500,-17.090,-50.781,-186.523,0.000,0
1606130968.283,-6.348,-25.879,-56.152,-60.547,0.000,0
1606130968.287,66.895,-24.414,-57.617,130.859,0.000,0
1606130968.290,88.379,-28.809,-52.246,155.762,0.000,0
1606130968.294,-6.348,-36.133,-54.199,-32.227,0.000,0
1606130968.298,-70.801,-36.621,-52.734,-187.500,0.000,0
1606130968.302,-9.277,-26.367,-54.199,-99.121,0.000,0
1606130968.306,71.777,-11.230,-59.570,115.234,0.000,0
1606130968.310,85.449,-23.926,-49.805,176.758,0.000,0
1606130968.314,8.789,-32.227,-38.086,9.766,0.000,0
1606130968.318,-54.688,-29.297,-34.180,-160.645,0.000,0
1606130968.322,-26.367,-32.715,-38.574,-101.562,0.000,0
1606130968.326,57.617,-32.227,-48.828,107.422,0.000,0
1606130968.329,81.055,-35.645,-48.828,173.340,0.000,0
1606130968.333,8.789,-17.578,-44.922,20.508,0.000,0
1606130968.337,-73.242,-13.672,-42.969,-152.832,0.000,0
1606130968.341,-47.852,-28.809,-41.016,-119.629,0.000,0
1606130968.345,31.250,-26.855,-34.668,87.402,0.000,0
1606130968.349,65.918,-26.367,-29.785,184.082,0.000,0
1606130968.353,11.230,-32.227,-34.668,38.574,0.000,0
1606130968.357,-68.848,-38.574,-44.922,-163.574,0.000,0
1606130968.361,-59.082,-38.574,-39.551,-150.879,0.000,0
1606130968.365,22.949,-24.414,-21.973,51.270,0.000,0
1606130968.369,56.152,-21.484,-19.043,169.922,0.000,0
1606130968.372,12.207,-18.555,-35.156,53.711,0.000,0
1606130968.376,-60.547,-19.531,-40.039,-146.484,0.000,0
1606130968.380,-67.383,-31.250,-33.203,-166.992,0.000,0
1606130968.384,6.836,-28.809,-28.809,27.832,0.000,0
1606130968.388,54.688,-30.273,-26.367,170.898,0.000,0
1606130968.392,12.207,-37.598,-28.809,83.984,0.000,0
1606130968.396,-70.801,-44.434,-32.715,-123.535,0.000,0
1606130968.400,-90.820,-44.922,-28.809,-180.176,0.000,0
1606130968.404,-16.602,-36.621,-21.484,-5.371,0.000,0
1606130968.408,52.734,-31.250,-20.996,159.668,0.000,0
1606130968.412,25.879,-20.996,-23.926,104.004,0.000,0
1606130968.415,-60.059,-6.836,-32.715,-115.234,0.000,0
1606130968.419,-85.938,-28.320,-36.621,-205.566,0.000,0
1606130968.423,-23.926,-40.527,-29.297,-52.246,0.000,0
1606130968.427,39.551,-30.762,-28.320,131.348,0.000,0
1606130968.431,27.832,-26.855,-27.344,113.281,0.000,0
1606130968.435,-51.270,-34.668,-26.855,-92.285,0.000,0
1606130968.439,-89.844,-37.598,-30.273,-197.266,0.000,0
