timestamps,TP9,AF7,AF8,TP10,Right AUX
1606137289.972,0.000,0.000,0.000,0.000,0.000
1606137289.976,-0.488,0.000,0.000,0.000,0.000
1606137289.980,-3.906,-1.465,-1.465,-11.719,0.000
1606137289.984,9.766,1.953,2.441,31.738,0.000
1606137289.988,-45.410,-12.695,-13.184,-142.090,0.000
1606137289.992,-92.285,-32.227,-31.738,-294.434,0.000
1606137289.996,0.000,-28.320,-21.484,22.949,0.000
1606137289.999,65.430,-20.996,-21.484,243.652,0.000
1606137290.003,3.418,-25.391,-30.273,88.379,0.000
1606137290.007,-111.328,-38.086,-35.645,-238.281,0.000
1606137290.011,-109.863,-37.109,-36.133,-311.035,0.000
1606137290.015,-10.742,-28.809,-24.414,-4.395,0.000
1606137290.019,39.551,-31.250,-21.484,229.492,0.000
1606137290.023,-2.930,-33.203,-31.738,91.309,0.000
1606137290.027,-83.008,-27.832,-37.109,-220.215,0.000
1606137290.031,-106.934,-27.344,-36.133,-324.707,0.000
1606137290.035,-45.410,-29.785,-29.785,-66.895,0.000
1606137290.039,24.902,-21.484,-26.855,210.938,0.000
1606137290.042,17.578,-23.438,-23.438,136.719,0.000
1606137290.046,-71.777,-31.250,-22.461,-187.500,0.000
1606137290.050,-140.625,-36.133,-25.391,-325.684,0.000
1606137290.054,-80.566,-35.156,-24.902,-106.934,0.000
1606137290.058,32.227,-23.438,-25.879,152.344,0.000
1606137290.062,26.367,-21.484,-25.391,142.578,0.000
1606137290.066,-86.914,-24.414,-32.227,-160.645,0.000
1606137290.070,-150.391,-28.809,-37.109,-357.422,0.000
1606137290.074,-82.031,-27.832,-29.785,-168.457,0.000
1606137290.078,19.043,-20.996,-29.297,135.254,0.000
1606137290.082,26.367,-23.438,-28.320,172.852,0.000
1606137290.085,-68.848,-25.879,-26.855,-110.352,0.000
1606137290.089,-117.188,-18.066,-35.645,-299.805,0.000
1606137290.093,-62.012,-16.113,-37.109,-169.434,0.000
1606137290.097,15.137,-17.578,-28.320,105.469,0.000
1606137290.101,34.668,-18.066,-10.742,194.824,0.000
1606137290.105,-49.316,-17.090,-14.648,-54.688,0.000
1606137290.109,-118.164,-20.020,-25.879,-306.641,0.000
1606137290.113,-82.520,-27.832,-25.391,-218.750,0.000
1606137290.117,-2.441,-26.855,-22.461,111.328,0.000
1606137290.121,4.395,-26.855,-24.414,242.676,0.000
1606137290.124,-66.406,-28.809,-30.273,-20.020,0.000
1606137290.128,-121.094,-30.762,-37.109,-306.641,0.000
1606137290.132,-104.980,-31.250,-35.645,-275.391,0.000
1606137290.136,-24.902,-23.438,-30.273,31.250,0.000
1606137290.140,10.742,-17.578,-27.344,215.332,0.000
1606137290.144,-62.012,-24.414,-29.785,14.160,0.000
1606137290.148,-139.160,-32.715,-35.156,-296.387,0.000
1606137290.152,-117.188,-36.621,-30.762,-283.691,0.000
1606137290.156,-23.438,-31.250,-24.902,18.555,0.000
1606137290.160,28.320,-25.391,-24.414,207.520,0.000
1606137290.164,-18.066,-25.391,-28.320,88.379,0.000
1606137290.167,-106.934,-31.738,-36.621,-226.562,0.000
1606137290.171,-123.535,-31.738,-41.016,-307.129,0.000
1606137290.175,-26.855,-25.879,-33.691,-6.348,0.000
1606137290.179,36.621,-17.090,-25.391,232.910,0.000
1606137290.183,-4.395,-23.438,-32.227,121.582,0.000
1606137290.187,-83.496,-20.020,-44.434,-187.012,0.000
1606137290.191,-115.723,-10.254,-38.086,-296.875,0.000
1606137290.195,-65.430,-25.879,-21.973,-46.875,0.000
1606137290.199,20.508,-27.344,-12.207,216.309,0.000
1606137290.203,22.949,-23.926,-18.555,147.461,0.000
1606137290.207,-70.801,-29.297,-26.367,-159.180,0.000
1606137290.210,-124.512,-40.527,-21.973,-296.387,0.000
1606137290.214,-44.922,-37.109,-21.973,-70.312,0.000
1606137290.218,40.039,-24.414,-15.625,213.867,0.000
1606137290.222,21.484,-24.414,-16.113,186.035,0.000
1606137290.226,-63.477,-33.691,-23.438,-123.047,0.000
1606137290.230,-111.816,-32.715,-28.809,-296.387,0.000
1606137290.234,-42.969,-32.715,-25.879,-113.281,0.000
1606137290.238,26.855,-28.809,-20.508,212.402,0.000
1606137290.242,23.438,-24.414,-23.438,218.262,0.000
1606137290.246,-61.523,-28.320,-25.391,-125.000,0.000
1606137290.249,-120.117,-33.691,-23.926,-301.758,0.000
1606137290.253,-72.266,-35.156,-18.066,-152.832,0.000
1606137290.257,-1.465,-33.691,-12.695,125.000,0.000
1606137290.261,28.320,-29.785,-14.160,208.984,0.000
1606137290.265,-48.828,-32.227,-22.461,-51.270,0.000
1606137290.269,-131.348,-41.016,-30.762,-322.754,0.000
1606137290.273,-97.168,-37.109,-29.785,-197.754,0.000
1606137290.277,8.301,-25.879,-22.461,150.391,0.000
1606137290.281,49.805,-23.926,-20.508,260.254,0.000
1606137290.285,-30.273,-30.762,-20.020,18.555,0.000
1606137290.289,-99.609,-14.648,-24.902,-269.043,0.000
1606137290.292,-78.125,-13.184,-25.391,-225.586,0.000
1606137290.296,-8.789,-28.809,-19.043,103.027,0.000
1606137290.300,31.738,-25.391,-24.414,256.836,0.000
1606137290.304,-21.973,-32.227,-28.320,61.035,0.000
1606137290.308,-89.844,-32.715,-30.762,-208.496,0.000
1606137290.312,-97.656,-28.320,-29.297,-232.422,0.000
1606137290.316,-30.273,-27.344,-22.461,55.664,0.000
1606137290.320,69.336,-24.414,-19.531,265.625,0.000
1606137290.324,19.531,-24.902,-21.973,119.629,0.000
1606137290.328,-98.145,-28.320,-30.762,-207.031,0.000
1606137290.332,-82.520,-29.785,-36.133,-274.902,0.000
1606137290.335,-26.367,-33.203,-22.949,29.297,0.000
1606137290.339,22.461,-17.578,-20.508,268.555,0.000
1606137290.343,6.348,-18.555,-24.902,149.414,0.000
1606137290.347,-99.609,-36.621,-19.043,-146.484,0.000
1606137290.351,-120.117,-40.527,-16.113,-263.184,0.000
1606137290.355,-39.062,-33.691,-12.207,-19.531,0.000
1606137290.359,13.672,-28.809,-11.719,239.746,0.000
1606137290.363,9.277,-28.320,-11.719,148.926,0.000
1606137290.367,-82.031,-29.785,-21.484,-142.578,0.000
1606137290.371,-117.676,-25.879,-29.297,-251.465,0.000
1606137290.374,-36.133,-24.902,-22.461,-57.129,0.000
1606137290.378,29.785,-25.879,-15.137,220.215,0.000
1606137290.382,21.973,-29.297,-12.695,216.309,0.000
1606137290.386,-61.523,-30.762,-15.137,-87.891,0.000
1606137290.390,-100.586,-10.742,-19.531,-289.551,0.000
1606137290.394,-51.758,-19.531,-18.555,-127.441,0.000
1606137290.398,17.578,-30.273,-15.625,186.523,0.000
1606137290.402,46.875,-23.926,-15.625,217.285,0.000
1606137290.406,-30.762,-23.926,-9.277,-68.359,0.000
1606137290.410,-127.930,-27.832,-17.578,-297.852,0.000
1606137290.414,-72.266,-33.691,-21.484,-165.039,0.000
1606137290.417,31.250,-25.879,-15.625,167.969,0.000
1606137290.421,40.039,-25.391,-20.020,228.516,0.000
1606137290.425,-39.551,-30.762,-22.461,-28.809,0.000
1606137290.429,-102.051,-16.113,-24.414,-270.996,0.000
1606137290.433,-79.102,-26.855,-26.855,-204.102,0.000
1606137290.437,1.465,-34.180,-21.484,124.512,0.000
1606137290.441,41.504,-32.227,-19.531,263.184,0.000
1606137290.445,-17.090,-35.645,-27.344,35.645,0.000
1606137290.449,-103.516,-39.551,-34.180,-256.836,0.000
1606137290.453,-76.660,-40.039,-36.133,-270.508,0.000
1606137290.457,7.324,-31.738,-28.320,67.383,0.000
1606137290.460,30.273,-31.738,-20.020,270.020,0.000
1606137290.464,-24.414,-46.387,-18.555,69.824,0.000
1606137290.468,-100.098,-20.020,-30.762,-233.398,0.000
1606137290.472,-82.031,1.953,-34.668,-278.809,0.000
1606137290.476,15.137,-27.832,-25.391,18.555,0.000
1606137290.480,49.805,-30.273,-20.020,237.305,0.000
1606137290.484,1.953,-28.320,-18.555,102.051,0.000
1606137290.488,-66.406,-38.086,-22.949,-210.938,0.000
1606137290.492,-104.004,-40.527,-29.297,-307.129,0.000
1606137290.496,-14.648,-31.250,-22.949,-9.277,0.000
1606137290.499,74.707,-27.344,-17.578,243.164,0.000
1606137290.503,33.203,-32.227,-23.926,124.023,0.000
1606137290.507,-66.406,-25.391,-27.832,-182.129,0.000
1606137290.511,-88.867,-23.438,-27.344,-298.828,0.000
1606137290.515,-27.832,-36.133,-27.832,-59.082,0.000
1606137290.519,42.480,-35.645,-24.414,210.938,0.000
1606137290.523,40.527,-37.598,-23.926,148.438,0.000
1606137290.527,-36.621,-18.066,-30.762,-166.016,0.000
1606137290.531,-73.730,-11.230,-29.785,-308.105,0.000
1606137290.535,-26.367,-30.273,-21.973,-104.004,0.000
1606137290.539,39.551,-31.250,-18.555,172.363,0.000
1606137290.542,30.273,-29.785,-23.926,161.621,0.000
1606137290.546,-59.570,-29.785,-21.484,-140.625,0.000
1606137290.550,-115.723,-37.598,-21.973,-319.336,0.000
1606137290.554,-64.453,-37.598,-24.902,-157.227,0.000
1606137290.558,33.691,-27.344,-19.043,147.461,0.000
1606137290.562,46.387,-32.715,-11.230,199.707,0.000
1606137290.566,-59.570,-29.785,-15.137,-100.098,0.000
1606137290.570,-124.512,2.930,-32.227,-331.543,0.000
1606137290.574,-66.406,-12.695,-32.715,-212.891,0.000
1606137290.578,33.203,-37.109,-25.879,99.609,0.000
1606137290.582,43.457,-33.691,-21.973,192.871,0.000
1606137290.585,-42.969,-35.156,-20.996,-82.520,0.000
1606137290.589,-109.375,-36.133,-27.344,-322.754,0.000
1606137290.593,-79.102,-36.621,-24.902,-229.004,0.000
1606137290.597,17.090,-27.344,-19.043,82.520,0.000
1606137290.601,46.875,-22.461,-18.555,213.867,0.000
1606137290.605,-10.742,-22.949,-23.438,-10.254,0.000
1606137290.609,-84.961,-22.949,-31.738,-286.133,0.000
1606137290.613,-90.332,-31.738,-31.250,-268.555,0.000
1606137290.617,-9.766,-29.297,-25.879,32.227,0.000
1606137290.621,43.945,-23.438,-28.809,210.449,0.000
1606137290.624,-11.230,-30.762,-26.855,23.438,0.000
1606137290.628,-98.633,-34.668,-24.414,-269.043,0.000
1606137290.632,-98.145,-40.039,-28.320,-289.062,0.000
1606137290.636,-12.207,-41.016,-25.879,10.254,0.000
1606137290.640,40.527,-30.762,-21.973,215.332,0.000
1606137290.644,-6.348,-28.320,-21.973,76.660,0.000
1606137290.648,-85.449,-25.879,-19.043,-215.820,0.000
1606137290.652,-99.121,-25.391,-18.555,-280.762,0.000
1606137290.656,-16.113,-33.691,-20.020,-9.766,0.000
1606137290.660,49.316,-32.227,-18.555,215.820,0.000
1606137290.664,18.066,-38.574,-16.113,111.816,0.000
1606137290.667,-72.266,-20.996,-19.531,-192.871,0.000
1606137290.671,-111.328,-1.465,-20.508,-291.992,0.000
1606137290.675,-36.133,-24.414,-14.648,-48.828,0.000
1606137290.679,43.457,-25.391,-12.207,204.590,0.000
1606137290.683,20.996,-24.902,-13.184,158.691,0.000
1606137290.687,-74.707,-31.250,-18.555,-152.344,0.000
1606137290.691,-98.633,-33.691,-22.949,-307.617,0.000
1606137290.695,-36.621,-30.273,-23.438,-96.191,0.000
1606137290.699,35.156,-25.879,-20.996,193.359,0.000
1606137290.703,31.738,-35.645,-21.484,181.641,0.000
1606137290.707,-64.941,-34.180,-27.344,-122.559,0.000
1606137290.710,-110.840,-29.297,-29.297,-301.758,0.000
1606137290.714,-55.664,-36.621,-29.297,-141.113,0.000
1606137290.718,29.785,-29.785,-25.879,159.668,0.000
1606137290.722,40.527,-27.344,-21.973,205.078,0.000
1606137290.726,-43.945,-33.203,-28.320,-82.031,0.000
1606137290.730,-106.445,-39.551,-31.738,-299.805,0.000
1606137290.734,-65.430,-41.504,-26.855,-174.805,0.000
1606137290.738,20.020,-35.156,-24.414,125.000,0.000
1606137290.742,37.598,-30.762,-20.508,210.449,0.000
1606137290.746,-40.039,-35.156,-26.855,-34.668,0.000
1606137290.749,-116.699,-33.203,-37.109,-286.133,0.000
1606137290.753,-93.750,-34.668,-32.715,-225.098,0.000
1606137290.757,0.488,-37.109,-26.855,89.355,0.000
1606137290.761,31.738,-33.691,-25.879,224.609,0.000
1606137290.765,-36.621,-39.551,-24.414,6.348,0.000
1606137290.769,-111.328,-44.434,-25.391,-264.160,0.000
1606137290.773,-97.656,-42.480,-23.438,-243.164,0.000
1606137290.777,-10.254,-39.062,-17.578,61.035,0.000
1606137290.781,36.133,-30.273,-12.695,241.211,0.000
1606137290.785,-21.484,-30.762,-19.043,69.336,0.000
1606137290.789,-101.562,-37.598,-26.367,-217.285,0.000
1606137290.792,-98.145,-39.551,-29.785,-250.000,0.000
1606137290.796,-20.020,-30.762,-23.926,32.227,0.000
1606137290.800,41.016,-23.438,-12.207,238.281,0.000
1606137290.804,8.301,-25.879,-9.277,97.168,0.000
1606137290.808,-89.355,-34.180,-18.066,-207.520,0.000
1606137290.812,-117.188,-34.180,-26.855,-288.086,0.000
1606137290.816,-32.715,-23.438,-26.367,-18.066,0.000
1606137290.820,36.621,-21.973,-19.043,233.887,0.000
1606137290.824,9.766,-20.020,-14.648,151.367,0.000
1606137290.828,-78.613,-22.461,-21.484,-166.992,0.000
1606137290.832,-106.934,-26.367,-24.414,-292.969,0.000
1606137290.835,-25.391,-29.297,-16.602,-39.062,0.000
1606137290.839,65.918,-27.344,-19.531,245.605,0.000
1606137290.843,38.086,-23.438,-30.762,181.152,0.000
1606137290.847,-59.570,-19.043,-40.039,-161.621,0.000
1606137290.851,-101.074,-15.625,-47.363,-323.242,0.000
1606137290.855,-39.062,-20.020,-41.016,-107.910,0.000
1606137290.859,52.734,-20.996,-32.227,197.754,0.000
1606137290.863,50.293,-18.555,-32.227,207.031,0.000
1606137290.867,-40.527,-20.508,-36.133,-95.215,0.000
1606137290.871,-98.145,-29.785,-36.133,-283.691,0.000
1606137290.874,-41.992,-32.227,-32.715,-114.746,0.000
1606137290.878,50.781,-19.531,-28.320,186.523,0.000
1606137290.882,58.594,-22.461,-23.438,228.027,0.000
1606137290.886,-24.902,-16.602,-27.344,-56.152,0.000
1606137290.890,-87.891,-8.789,-34.180,-290.039,0.000
1606137290.894,-52.734,-23.438,-28.809,-173.828,0.000
1606137290.898,44.434,-24.414,-28.809,152.344,0.000
1606137290.902,67.871,-25.391,-32.227,255.371,0.000
1606137290.906,-16.602,-27.344,-34.668,0.000,0.000
1606137290.910,-84.473,-34.180,-36.133,-250.977,0.000
1606137290.914,-60.547,-38.086,-31.738,-188.477,0.000
1606137290.917,26.367,-31.250,-30.762,123.047,0.000
1606137290.921,60.547,-28.809,-30.273,259.277,0.000
1606137290.925,-9.277,-28.809,-28.320,37.109,0.000
1606137290.929,-86.426,-29.785,-28.320,-235.840,0.000
1606137290.933,-71.289,-27.832,-27.344,-214.844,0.000
1606137290.937,12.695,-25.879,-23.926,86.426,0.000
1606137290.941,61.035,-20.508,-19.043,252.441,0.000
1606137290.945,13.184,-24.414,-19.043,70.312,0.000
1606137290.949,-70.312,-16.602,-27.832,-212.402,0.000
1606137290.953,-70.312,-9.277,-29.785,-238.770,0.000
1606137290.957,13.672,-23.926,-19.531,53.711,0.000
1606137290.960,63.965,-23.438,-13.184,263.672,0.000
1606137290.964,21.973,-18.555,-14.648,128.418,0.000
1606137290.968,-68.848,-22.461,-17.090,-187.012,0.000
1606137290.972,-90.820,-30.762,-20.508,-283.691,0.000
1606137290.976,-20.996,-27.832,-19.531,-12.695,0.000
1606137290.980,41.992,-21.484,-18.555,232.910,0.000
1606137290.984,15.137,-22.461,-19.531,139.648,0.000
1606137290.988,-85.938,-23.926,-27.344,-178.711,0.000
1606137290.992,-116.211,-30.273,-28.809,-297.363,0.000
1606137290.996,-21.973,-28.809,-23.926,-46.387,0.000
1606137290.999,41.016,-22.949,-21.484,221.191,0.000
1606137291.003,5.371,-24.414,-20.508,174.316,0.000
1606137291.007,-79.590,-27.832,-28.320,-143.555,0.000
1606137291.011,-119.141,-33.691,-29.297,-307.129,0.000
1606137291.015,-56.152,-31.738,-24.902,-104.492,0.000
1606137291.019,26.855,-27.832,-22.461,181.641,0.000
1606137291.023,24.414,-28.809,-19.043,192.871,0.000
1606137291.027,-62.988,-20.508,-20.508,-95.215,0.000
1606137291.031,-121.582,-18.066,-28.809,-298.340,0.000
1606137291.035,-74.707,-28.809,-26.367,-150.879,0.000
1606137291.039,23.926,-30.762,-20.508,161.621,0.000
1606137291.042,47.852,-22.949,-17.578,229.492,0.000
1606137291.046,-36.133,-27.344,-23.438,-56.641,0.000
1606137291.050,-105.957,-30.273,-32.715,-291.992,0.000
1606137291.054,-67.383,-27.832,-34.180,-183.594,0.000
1606137291.058,26.367,-27.344,-30.273,131.348,0.000
1606137291.062,48.828,-23.926,-28.320,239.746,0.000
1606137291.066,-25.879,-27.344,-26.855,-17.090,0.000
1606137291.070,-87.402,-28.809,-26.367,-273.438,0.000
1606137291.074,-70.801,-36.133,-28.320,-211.914,0.000
1606137291.078,15.137,-35.645,-24.414,99.609,0.000
1606137291.082,55.664,-31.250,-22.949,244.141,0.000
1606137291.085,-13.184,-28.809,-23.926,22.949,0.000
1606137291.089,-94.238,-20.508,-27.832,-262.207,0.000
1606137291.093,-81.543,-27.344,-22.461,-251.465,0.000
1606137291.097,5.371,-24.902,-14.648,55.176,0.000
1606137291.101,48.340,-21.484,-24.902,235.840,0.000
1606137291.105,-14.648,-20.996,-31.738,57.617,0.000
1606137291.109,-104.492,-28.320,-30.762,-244.141,0.000
1606137291.113,-101.562,-36.133,-27.344,-269.043,0.000
1606137291.117,-9.277,-25.879,-20.508,35.645,0.000
1606137291.121,56.152,-17.578,-17.090,254.395,0.000
1606137291.124,11.230,-25.879,-23.438,108.887,0.000
1606137291.128,-89.844,-14.160,-29.297,-215.820,0.000
1606137291.132,-108.398,-10.742,-26.855,-301.758,0.000
1606137291.136,-20.020,-30.273,-21.973,-24.902,0.000
1606137291.140,48.340,-28.320,-20.020,231.934,0.000
1606137291.144,13.672,-25.391,-17.578,140.625,0.000
1606137291.148,-82.520,-25.391,-18.555,-190.918,0.000
1606137291.152,-100.098,-26.855,-23.926,-305.176,0.000
1606137291.156,-37.109,-32.715,-29.785,-63.965,0.000
1606137291.160,34.668,-26.855,-26.855,202.148,0.000
1606137291.164,30.273,-22.461,-22.949,167.969,0.000
1606137291.167,-69.336,-19.043,-36.621,-156.250,0.000
1606137291.171,-115.723,-27.344,-40.527,-325.195,0.000
1606137291.175,-28.809,-44.434,-28.809,-103.027,0.000
1606137291.179,61.523,-33.203,-24.902,188.965,0.000
1606137291.183,27.832,-22.461,-22.949,171.875,0.000
1606137291.187,-79.102,-22.949,-32.715,-146.484,0.000
1606137291.191,-144.531,-28.809,-37.109,-361.328,0.000
1606137291.195,-106.445,-36.133,-31.738,-214.355,0.000
1606137291.199,-5.859,-33.203,-28.320,95.703,0.000
1606137291.203,1.465,-32.227,-25.391,159.668,0.000
1606137291.207,-96.191,-31.250,-26.367,-131.348,0.000
1606137291.210,-158.691,-24.414,-28.320,-362.793,0.000
1606137291.214,-102.051,-19.531,-30.762,-229.980,0.000
1606137291.218,3.418,-20.020,-29.297,99.609,0.000
1606137291.222,17.090,-24.902,-23.438,208.496,0.000
1606137291.226,-58.594,-28.320,-24.414,-51.270,0.000
1606137291.230,-123.047,-11.719,-28.320,-303.711,0.000
1606137291.234,-88.379,-16.602,-25.879,-225.098,0.000
1606137291.238,6.836,-34.180,-23.926,90.820,0.000
1606137291.242,41.992,-34.668,-25.391,234.863,0.000
1606137291.246,-20.996,-38.574,-26.855,16.113,0.000
1606137291.249,-95.215,-42.480,-23.926,-265.137,0.000
1606137291.253,-89.355,-44.434,-23.926,-250.488,0.000
1606137291.257,2.441,-40.527,-23.926,65.918,0.000
1606137291.261,57.617,-34.668,-19.043,253.418,0.000
1606137291.265,-8.301,-34.668,-18.066,71.289,0.000
1606137291.269,-102.051,-22.461,-25.879,-234.863,0.000
1606137291.273,-98.145,-31.250,-28.809,-260.742,0.000
1606137291.277,-5.859,-44.434,-23.926,45.898,0.000
1606137291.281,49.316,-39.551,-19.043,257.324,0.000
1606137291.285,9.277,-40.039,-14.160,128.418,0.000
1606137291.289,-83.008,-42.969,-17.578,-192.871,0.000
1606137291.292,-118.164,-49.805,-26.367,-287.109,0.000
1606137291.296,-24.902,-45.410,-21.973,-14.160,0.000
1606137291.300,53.223,-32.227,-16.602,234.863,0.000
1606137291.304,2.930,-38.574,-17.090,153.809,0.000
1606137291.308,-77.637,-20.020,-27.832,-157.715,0.000
1606137291.312,-104.980,-8.301,-34.180,-293.945,0.000
1606137291.316,-36.621,-34.668,-28.809,-68.848,0.000
1606137291.320,41.992,-37.598,-27.344,202.637,0.000
1606137291.324,31.738,-30.762,-23.438,180.176,0.000
1606137291.328,-59.570,-28.320,-28.809,-129.395,0.000
1606137291.332,-109.863,-37.598,-31.738,-300.293,0.000
1606137291.335,-42.480,-38.086,-20.020,-91.797,0.000
1606137291.339,48.828,-25.391,-16.602,208.008,0.000
1606137291.343,45.898,-24.902,-20.996,221.680,0.000
1606137291.347,-42.969,-34.180,-26.367,-86.914,0.000
1606137291.351,-100.098,-39.062,-28.809,-290.527,0.000
1606137291.355,-45.898,-37.109,-24.902,-123.535,0.000
1606137291.359,52.246,-30.762,-13.672,187.988,0.000
1606137291.363,74.219,-32.715,-16.602,249.023,0.000
1606137291.367,-25.391,-37.109,-29.297,-41.504,0.000
1606137291.371,-106.445,-40.039,-31.250,-278.320,0.000
1606137291.374,-58.105,-43.945,-28.320,-160.645,0.000
1606137291.378,41.504,-35.645,-22.461,164.062,0.000
1606137291.382,68.359,-31.738,-18.066,272.949,0.000
1606137291.386,-9.766,-40.039,-11.230,18.555,0.000
1606137291.390,-94.727,-47.363,-18.066,-259.277,0.000
1606137291.394,-75.195,-38.574,-24.902,-206.055,0.000
1606137291.398,23.926,-27.344,-16.602,120.117,0.000
1606137291.402,61.035,-21.973,-11.230,275.391,0.000
1606137291.406,-10.742,-28.320,-20.020,55.176,0.000
1606137291.410,-98.145,-33.203,-38.574,-251.465,0.000
1606137291.414,-78.125,-30.762,-44.434,-249.023,0.000
1606137291.417,18.555,-30.762,-20.020,74.219,0.000
1606137291.421,61.523,-27.344,-2.441,256.836,0.000
1606137291.425,-14.648,-29.297,-14.160,65.918,0.000
1606137291.429,-127.441,-38.086,-21.484,-243.652,0.000
1606137291.433,-118.652,-43.457,-19.043,-280.273,0.000
1606137291.437,-15.137,-38.574,-20.020,25.879,0.000
1606137291.441,52.734,-35.156,-24.414,257.324,0.000
1606137291.445,17.578,-33.691,-28.320,134.766,0.000
1606137291.449,-74.707,-16.602,-26.855,-178.223,0.000
1606137291.453,-92.285,-16.113,-24.902,-268.066,0.000
1606137291.457,-2.441,-21.484,-24.414,2.441,0.000
1606137291.460,68.359,-20.508,-21.973,253.906,0.000
1606137291.464,44.434,-17.578,-18.555,175.293,0.000
1606137291.468,-46.387,-20.996,-26.855,-149.414,0.000
1606137291.472,-102.051,-34.668,-36.133,-291.016,0.000
1606137291.476,-24.902,-30.762,-28.320,-50.293,0.000
1606137291.480,67.383,-23.438,-19.043,240.723,0.000
1606137291.484,49.805,-23.926,-23.926,208.496,0.000
1606137291.488,-51.758,-28.809,-29.785,-114.258,0.000
1606137291.492,-92.773,-31.738,-24.902,-278.320,0.000
1606137291.496,-26.367,-23.926,-21.484,-71.777,0.000
1606137291.499,58.594,-21.484,-23.926,224.121,0.000
1606137291.503,55.664,-30.762,-25.879,229.492,0.000
1606137291.507,-46.875,-27.832,-30.273,-84.473,0.000
1606137291.511,-103.516,-21.484,-26.367,-287.109,0.000
1606137291.515,-41.504,-25.391,-22.461,-125.488,0.000
1606137291.519,35.156,-27.832,-24.902,181.152,0.000
1606137291.523,44.922,-30.273,-24.902,245.605,0.000
1606137291.527,-31.738,-35.645,-27.344,-41.992,0.000
1606137291.531,-101.074,-39.551,-34.180,-285.645,0.000
1606137291.535,-59.570,-37.598,-29.785,-173.828,0.000
1606137291.539,39.551,-33.691,-20.020,150.391,0.000
1606137291.542,72.754,-30.273,-17.578,270.996,0.000
1606137291.546,-3.418,-35.156,-16.113,18.555,0.000
1606137291.550,-89.844,-43.457,-20.996,-262.695,0.000
1606137291.554,-71.777,-38.086,-22.949,-215.332,0.000
1606137291.558,20.996,-28.809,-19.531,109.863,0.000
1606137291.562,62.500,-29.785,-21.973,264.160,0.000
1606137291.566,-2.441,-35.156,-24.902,39.551,0.000
1606137291.570,-87.891,-38.086,-30.762,-259.766,0.000
1606137291.574,-78.125,-31.738,-23.926,-244.141,0.000
1606137291.578,27.344,-22.461,-16.113,77.637,0.000
1606137291.582,63.477,-26.367,-18.555,263.672,0.000
1606137291.585,-4.883,-27.832,-22.949,93.750,0.000
1606137291.589,-81.055,-28.809,-25.391,-203.613,0.000
1606137291.593,-92.285,-32.715,-22.949,-261.230,0.000
1606137291.597,-12.695,-27.344,-23.438,12.695,0.000
1606137291.601,49.805,-21.484,-16.602,233.887,0.000
1606137291.605,5.859,-22.461,-18.066,105.957,0.000
1606137291.609,-92.773,-24.902,-24.414,-204.102,0.000
1606137291.613,-117.676,-27.344,-22.949,-295.898,0.000
1606137291.617,-35.156,-22.949,-20.996,-31.250,0.000
1606137291.621,45.410,-17.090,-18.555,229.004,0.000
1606137291.624,23.438,-18.066,-24.902,153.809,0.000
1606137291.628,-69.824,-28.809,-34.668,-169.434,0.000
1606137291.632,-99.609,-37.598,-40.527,-298.828,0.000
1606137291.636,-16.602,-32.715,-36.133,-42.969,0.000
1606137291.640,62.012,-30.762,-24.902,233.887,0.000
1606137291.644,31.250,-32.227,-17.578,182.129,0.000
1606137291.648,-82.031,-37.598,-25.879,-154.297,0.000
1606137291.652,-134.277,-38.574,-31.738,-327.637,0.000
1606137291.656,-55.176,-28.809,-29.297,-124.023,0.000
1606137291.660,34.180,-25.879,-23.926,176.270,0.000
1606137291.664,27.832,-26.367,-22.949,197.754,0.000
1606137291.667,-59.082,-23.438,-22.949,-105.957,0.000
1606137291.671,-114.746,-29.785,-20.020,-312.500,0.000
1606137291.675,-66.895,-39.062,-25.879,-159.668,0.000
1606137291.679,25.391,-27.344,-22.461,166.016,0.000
1606137291.683,46.875,-16.602,-16.602,251.465,0.000
1606137291.687,-37.109,-20.996,-23.438,-33.691,0.000
1606137291.691,-111.816,-35.645,-32.715,-291.504,0.000
1606137291.695,-84.961,-42.480,-38.574,-203.613,0.000
1606137291.699,7.812,-31.250,-24.902,118.164,0.000
1606137291.703,55.664,-22.949,-11.230,244.629,0.000
1606137291.707,-20.020,-21.484,-24.902,-4.883,0.000
1606137291.710,-124.512,-27.832,-29.785,-279.785,0.000
1606137291.714,-100.098,-29.785,-25.391,-235.352,0.000
1606137291.718,2.930,-21.484,-24.414,73.242,0.000
1606137291.722,50.293,-24.902,-20.020,230.957,0.000
1606137291.726,-5.859,-32.715,-23.926,30.762,0.000
1606137291.730,-97.656,-29.297,-34.180,-253.906,0.000
1606137291.734,-85.938,-25.391,-31.738,-248.535,0.000
1606137291.738,14.160,-17.578,-22.949,72.266,0.000
1606137291.742,56.152,-20.020,-22.949,260.254,0.000
1606137291.746,2.441,-23.438,-22.949,89.355,0.000
1606137291.749,-83.496,-23.438,-28.809,-215.332,0.000
1606137291.753,-101.074,-27.832,-33.691,-280.762,0.000
1606137291.757,-17.090,-25.391,-26.855,5.859,0.000
1606137291.761,41.504,-20.020,-25.879,239.258,0.000
1606137291.765,3.906,-22.949,-28.320,107.910,0.000
1606137291.769,-80.566,-37.598,-25.391,-203.613,0.000
1606137291.773,-106.445,-34.180,-29.297,-290.039,0.000
1606137291.777,-27.344,-17.090,-25.391,-37.109,0.000
1606137291.781,32.227,-13.184,-17.578,190.430,0.000
1606137291.785,-19.043,-20.020,-25.879,95.703,0.000
1606137291.789,-131.836,-29.785,-37.109,-225.586,0.000
1606137291.792,-163.574,-26.367,-37.598,-359.375,0.000
1606137291.796,-89.844,-17.578,-32.715,-132.812,0.000
1606137291.800,-3.418,-18.066,-31.738,150.879,0.000
1606137291.804,-14.648,-12.695,-35.645,128.906,0.000
1606137291.808,-100.098,-14.648,-38.086,-198.730,0.000
1606137291.812,-147.461,-19.531,-38.086,-373.047,0.000
1606137291.816,-106.934,-18.555,-31.250,-178.711,0.000
1606137291.820,-3.906,-19.531,-26.367,132.812,0.000
1606137291.824,3.418,-27.344,-34.668,173.828,0.000
1606137291.828,-89.355,-17.090,-40.527,-134.277,0.000
1606137291.832,-134.277,-16.113,-37.598,-338.867,0.000
1606137291.835,-75.684,-35.645,-40.527,-181.152,0.000
1606137291.839,20.996,-28.809,-35.645,136.230,0.000
1606137291.843,43.945,-28.809,-32.227,216.309,0.000
1606137291.847,-31.250,-32.227,-41.016,-63.477,0.000
1606137291.851,-95.215,-32.227,-40.039,-303.223,0.000
1606137291.855,-49.316,-31.250,-36.621,-189.453,0.000
1606137291.859,37.598,-20.020,-26.855,141.602,0.000
1606137291.863,55.176,-17.090,-15.625,264.648,0.000
1606137291.867,-13.672,-23.438,-21.484,23.438,0.000
1606137291.871,-94.727,-26.855,-27.344,-250.000,0.000
1606137291.874,-80.078,-29.297,-30.273,-208.008,0.000
1606137291.878,8.301,-29.785,-34.180,106.934,0.000
1606137291.882,51.270,-22.461,-28.809,261.230,0.000
1606137291.886,-6.836,-22.949,-30.273,58.105,0.000
1606137291.890,-90.820,-31.250,-37.109,-234.863,0.000
1606137291.894,-88.867,-31.738,-34.668,-250.488,0.000
1606137291.898,7.324,-30.762,-32.227,48.340,0.000
1606137291.902,80.078,-25.391,-27.344,250.977,0.000
1606137291.906,20.020,-23.438,-27.344,84.961,0.000
1606137291.910,-85.938,-28.320,-31.250,-225.586,0.000
1606137291.914,-80.566,-29.785,-33.203,-262.695,0.000
1606137291.917,14.160,-28.320,-34.668,31.738,0.000
1606137291.921,70.312,-22.461,-28.320,254.883,0.000
1606137291.925,21.484,-22.949,-26.367,131.348,0.000
1606137291.929,-75.684,-39.062,-35.645,-195.801,0.000
1606137291.933,-93.262,-38.086,-36.621,-294.922,0.000
1606137291.937,-11.719,-29.297,-32.715,-27.832,0.000
1606137291.941,61.035,-23.438,-31.250,234.863,0.000
1606137291.945,32.227,-20.996,-30.273,163.574,0.000
1606137291.949,-67.871,-27.344,-34.180,-161.133,0.000
1606137291.953,-98.145,-27.344,-26.367,-292.969,0.000
1606137291.957,-25.391,-22.461,-19.531,-63.965,0.000
1606137291.960,68.848,-18.555,-19.043,216.797,0.000
1606137291.964,54.199,-13.672,-16.113,200.195,0.000
1606137291.968,-61.035,-41.504,-27.344,-119.629,0.000
1606137291.972,-112.305,-60.059,-36.621,-310.547,0.000
1606137291.976,-49.316,-28.809,-30.273,-113.770,0.000
1606137291.980,46.387,-17.578,-20.508,202.148,0.000
1606137291.984,47.363,-15.625,-17.578,229.492,0.000
1606137291.988,-49.316,-21.484,-27.344,-83.496,0.000
1606137291.992,-113.281,-32.715,-33.203,-323.730,0.000
1606137291.996,-68.848,-31.738,-27.832,-179.199,0.000
1606137291.999,24.414,-23.926,-22.949,153.809,0.000
1606137292.003,52.734,-18.066,-24.414,225.586,0.000
1606137292.007,-14.648,-31.250,-26.367,-59.082,0.000
1606137292.011,-103.516,-39.551,-27.832,-296.875,0.000
1606137292.015,-85.449,-27.832,-25.391,-208.496,0.000
1606137292.019,5.859,-27.344,-24.902,99.121,0.000
1606137292.023,32.227,-28.809,-25.391,217.773,0.000
1606137292.027,-36.133,-28.320,-22.949,-17.578,0.000
1606137292.031,-111.816,-35.156,-29.785,-290.039,0.000
1606137292.035,-95.703,-28.320,-34.180,-250.977,0.000
1606137292.039,4.883,-11.230,-30.762,74.707,0.000
1606137292.042,58.594,-8.789,-23.438,249.512,0.000
1606137292.046,-5.371,-17.578,-24.414,40.527,0.000
1606137292.050,-94.238,-21.973,-30.762,-261.719,0.000
1606137292.054,-88.867,-20.020,-32.227,-262.695,0.000
1606137292.058,8.789,-15.137,-30.762,54.199,0.000
1606137292.062,60.547,-13.184,-27.344,254.883,0.000
1606137292.066,10.254,-30.762,-26.855,81.543,0.000
1606137292.070,-74.707,-47.852,-30.273,-225.586,0.000
1606137292.074,-97.656,-41.016,-34.180,-272.949,0.000
1606137292.078,-4.883,-35.156,-27.832,19.043,0.000
1606137292.082,74.219,-31.738,-23.926,250.977,0.000
1606137292.085,18.555,-34.180,-24.414,127.930,0.000
1606137292.089,-88.867,-38.086,-21.484,-190.918,0.000
1606137292.093,-113.770,-36.621,-23.438,-295.410,0.000
1606137292.097,-26.367,-33.203,-25.879,-30.273,0.000
1606137292.101,54.688,-28.320,-20.996,237.793,0.000
1606137292.105,25.879,-28.809,-22.949,169.922,0.000
1606137292.109,-68.848,-33.691,-29.785,-153.809,0.000
1606137292.113,-104.004,-36.133,-35.156,-303.223,0.000
1606137292.117,-33.691,-33.691,-29.785,-80.566,0.000
1606137292.121,48.340,-27.832,-20.996,213.379,0.000
1606137292.124,36.133,-28.809,-22.949,192.871,0.000
1606137292.128,-61.523,-38.574,-23.926,-133.301,0.000
1606137292.132,-116.699,-41.504,-26.855,-322.754,0.000
1606137292.136,-58.105,-37.598,-31.250,-128.906,0.000
1606137292.140,31.250,-33.203,-29.297,183.594,0.000
1606137292.144,32.227,-31.738,-33.203,204.590,0.000
1606137292.148,-38.086,-32.227,-41.016,-85.938,0.000
1606137292.152,-104.492,-32.715,-45.898,-298.828,0.000
1606137292.156,-85.938,-34.668,-42.480,-172.852,0.000
1606137292.160,18.066,-28.809,-29.785,146.484,0.000
1606137292.164,44.922,-26.367,-23.926,233.887,0.000
1606137292.167,-47.852,-28.809,-29.785,-46.387,0.000
1606137292.171,-111.328,-26.855,-36.621,-302.734,0.000
1606137292.175,-72.754,-25.879,-32.715,-208.008,0.000
1606137292.179,0.000,-22.949,-28.809,109.863,0.000
1606137292.183,30.762,-20.996,-25.391,234.863,0.000
1606137292.187,-38.574,-23.926,-26.367,-5.371,0.000
1606137292.191,-117.676,-28.320,-33.691,-286.621,0.000
1606137292.195,-97.168,-28.320,-31.738,-234.375,0.000
1606137292.199,2.441,-27.832,-23.926,97.168,0.000
1606137292.203,44.922,-22.949,-20.508,255.859,0.000
1606137292.207,-23.926,-28.320,-27.832,44.434,0.000
1606137292.210,-106.445,-45.898,-32.715,-253.418,0.000
1606137292.214,-102.539,-40.039,-31.250,-261.719,0.000
1606137292.218,-12.695,-29.297,-32.715,46.387,0.000
1606137292.222,39.551,-27.832,-31.250,244.141,0.000
1606137292.226,-13.184,-34.180,-28.320,81.055,0.000
1606137292.230,-98.145,-39.062,-35.156,-229.492,0.000
1606137292.234,-110.352,-41.992,-41.992,-295.898,0.000
1606137292.238,-19.531,-35.645,-32.227,0.000,0.000
1606137292.242,53.711,-22.949,-16.113,252.930,0.000
1606137292.246,18.555,-20.508,-18.555,151.367,0.000
1606137292.249,-83.008,-60.059,-40.039,-193.359,0.000
1606137292.253,-119.629,-65.918,-43.457,-322.266,0.000
1606137292.257,-50.781,-32.715,-40.039,-68.359,0.000
1606137292.261,22.949,-25.879,-41.504,202.637,0.000
1606137292.265,-4.395,-30.273,-43.457,139.160,0.000
1606137292.269,-101.074,-40.527,-42.480,-195.312,0.000
1606137292.273,-131.836,-37.598,-39.551,-334.473,0.000
1606137292.277,-57.129,-31.250,-35.645,-98.145,0.000
1606137292.281,31.738,-24.414,-19.531,201.172,0.000
1606137292.285,19.043,-25.879,-19.531,186.523,0.000
1606137292.289,-79.102,-33.203,-28.320,-121.582,0.000
1606137292.292,-123.535,-38.574,-32.227,-305.176,0.000
1606137292.296,-60.059,-34.180,-33.203,-136.230,0.000
1606137292.300,35.156,-21.484,-32.227,166.992,0.000
1606137292.304,43.457,-16.602,-29.297,206.543,0.000
1606137292.308,-50.293,-24.414,-31.250,-87.402,0.000
1606137292.312,-116.211,-31.738,-36.621,-311.035,0.000
1606137292.316,-71.777,-32.227,-31.738,-178.223,0.000
1606137292.320,21.484,-27.344,-29.785,138.184,0.000
1606137292.324,39.551,-24.902,-31.250,227.051,0.000
1606137292.328,-46.875,-33.691,-35.156,-52.246,0.000
1606137292.332,-118.652,-35.156,-35.645,-314.453,0.000
1606137292.335,-90.820,-21.973,-31.738,-220.215,0.000
1606137292.339,8.301,-12.695,-23.926,115.723,0.000
1606137292.343,66.895,-13.672,-18.555,257.812,0.000
1606137292.347,-20.020,-19.531,-32.227,13.672,0.000
1606137292.351,-125.000,-29.785,-39.551,-278.809,0.000
1606137292.355,-95.215,-31.250,-30.273,-237.793,0.000
1606137292.359,9.277,-29.297,-25.879,88.867,0.000
1606137292.363,56.152,-28.809,-24.414,255.371,0.000
1606137292.367,-8.301,-32.227,-31.250,52.246,0.000
1606137292.371,-95.703,-34.668,-36.621,-245.605,0.000
1606137292.374,-94.727,-28.320,-33.691,-259.277,0.000
1606137292.378,5.371,-17.578,-23.926,47.363,0.000
1606137292.382,65.918,-10.742,-18.555,256.836,0.000
1606137292.386,11.719,-8.301,-25.879,100.586,0.000
1606137292.390,-89.844,-23.438,-35.156,-233.398,0.000
1606137292.394,-102.539,-28.320,-32.715,-293.457,0.000
1606137292.398,-8.301,-17.090,-27.832,2.930,0.000
1606137292.402,61.523,-13.672,-19.531,235.840,0.000
1606137292.406,18.555,-19.043,-22.461,131.348,0.000
1606137292.410,-81.543,-27.344,-38.574,-185.059,0.000
1606137292.414,-104.004,-26.367,-40.039,-295.898,0.000
1606137292.417,-21.973,-16.113,-31.250,-38.086,0.000
1606137292.421,47.852,-10.742,-23.926,218.750,0.000
1606137292.425,19.531,-19.531,-30.273,147.461,0.000
1606137292.429,-74.219,-25.879,-34.668,-163.086,0.000
1606137292.433,-113.281,-20.508,-37.109,-303.223,0.000
1606137292.437,-44.434,-19.531,-36.621,-86.914,0.000
1606137292.441,35.645,-18.066,-31.738,196.289,0.000
1606137292.445,22.949,-20.996,-30.762,183.105,0.000
1606137292.449,-74.707,-34.668,-30.762,-134.766,0.000
1606137292.453,-133.789,-40.527,-40.039,-334.961,0.000
1606137292.457,-78.613,-31.738,-35.645,-156.738,0.000
1606137292.460,8.301,-25.391,-28.320,147.949,0.000
1606137292.464,17.578,-24.414,-29.785,192.871,0.000
1606137292.468,-70.312,-31.738,-39.551,-101.074,0.000
1606137292.472,-136.719,-33.691,-44.434,-331.055,0.000
1606137292.476,-86.426,-21.973,-43.457,-187.988,0.000
1606137292.480,13.672,-22.461,-33.691,147.461,0.000
1606137292.484,39.062,-22.949,-24.414,233.887,0.000
1606137292.488,-43.945,-33.691,-35.156,-38.086,0.000
1606137292.492,-124.512,-43.945,-36.621,-292.969,0.000
1606137292.496,-95.703,-34.668,-30.273,-221.680,0.000
1606137292.499,4.883,-26.855,-24.414,104.004,0.000
1606137292.503,36.621,-24.414,-26.855,236.816,0.000
1606137292.507,-21.484,-28.320,-34.668,-6.836,0.000
1606137292.511,-100.586,-28.809,-33.691,-273.926,0.000
1606137292.515,-98.145,-29.297,-29.297,-228.516,0.000
1606137292.519,10.254,-22.461,-23.438,94.727,0.000
1606137292.523,58.594,-17.090,-21.973,269.531,0.000
1606137292.527,-9.766,-27.344,-29.297,78.125,0.000
1606137292.531,-96.680,-36.133,-35.645,-228.516,0.000
1606137292.535,-102.051,-33.203,-31.738,-265.625,0.000
1606137292.539,-13.672,-28.320,-21.973,36.133,0.000
1606137292.542,53.711,-23.926,-22.949,246.094,0.000
1606137292.546,7.324,-30.273,-27.832,98.145,0.000
1606137292.550,-87.891,-37.598,-23.438,-210.938,0.000
1606137292.554,-104.004,-33.203,-22.949,-282.715,0.000
1606137292.558,-12.207,-28.809,-21.973,2.930,0.000
1606137292.562,58.594,-28.320,-19.043,241.699,0.000
1606137292.566,21.973,-27.832,-23.438,128.418,0.000
1606137292.570,-81.055,-29.297,-27.832,-193.848,0.000
1606137292.574,-104.980,-28.320,-29.785,-300.781,0.000
1606137292.578,-24.414,-23.926,-27.344,-47.852,0.000
1606137292.582,34.668,-19.531,-20.996,217.285,0.000
1606137292.585,8.789,-21.484,-24.414,169.434,0.000
1606137292.589,-78.125,-31.738,-31.250,-143.066,0.000
1606137292.593,-114.258,-33.203,-32.715,-301.270,0.000
1606137292.597,-43.457,-26.367,-29.297,-89.844,0.000
1606137292.601,44.434,-22.461,-24.414,205.078,0.000
1606137292.605,39.551,-22.949,-23.926,208.496,0.000
1606137292.609,-51.270,-25.391,-29.785,-110.352,0.000
1606137292.613,-106.445,-26.855,-29.297,-306.641,0.000
1606137292.617,-60.059,-28.320,-23.438,-126.465,0.000
1606137292.621,26.367,-21.484,-21.973,177.734,0.000
1606137292.624,49.316,-11.230,-8.789,214.844,0.000
1606137292.628,-43.945,-26.367,-17.578,-86.426,0.000
1606137292.632,-134.277,-38.086,-38.574,-326.172,0.000
1606137292.636,-77.148,-26.855,-32.715,-196.777,0.000
1606137292.640,18.555,-22.949,-29.297,131.348,0.000
1606137292.644,19.043,-27.832,-30.273,224.609,0.000
1606137292.648,-55.664,-33.203,-33.203,-47.852,0.000
1606137292.652,-119.141,-26.367,-35.645,-311.035,0.000
1606137292.656,-86.914,-22.461,-33.691,-230.957,0.000
1606137292.660,11.230,-25.391,-26.367,98.633,0.000
1606137292.664,48.340,-14.648,-21.484,248.047,0.000
1606137292.667,-35.156,-20.508,-33.203,0.000,0.000
1606137292.671,-126.953,-38.086,-47.363,-304.688,0.000
1606137292.675,-108.887,-32.715,-43.457,-270.508,0.000
1606137292.679,-19.531,-23.438,-27.344,48.340,0.000
1606137292.683,29.785,-18.066,-16.113,226.074,0.000
1606137292.687,-28.809,-23.926,-24.414,37.109,0.000
1606137292.691,-116.699,-36.133,-32.715,-261.719,0.000
1606137292.695,-110.352,-33.203,-32.227,-286.621,0.000
1606137292.699,-15.137,-24.414,-30.273,24.902,0.000
1606137292.703,45.898,-24.902,-28.320,251.465,0.000
1606137292.707,-2.441,-27.832,-25.879,96.191,0.000
1606137292.710,-84.961,-35.156,-22.949,-211.426,0.000
1606137292.714,-91.797,-34.668,-21.973,-270.996,0.000
1606137292.718,-9.766,-28.320,-21.484,0.000,0.000
1606137292.722,60.547,-23.438,-18.555,246.094,0.000
1606137292.726,31.250,-25.391,-18.555,159.668,0.000
1606137292.730,-68.359,-41.992,-26.855,-155.762,0.000
1606137292.734,-102.051,-41.504,-25.391,-272.461,0.000
1606137292.738,-20.996,-27.832,-20.996,-31.738,0.000
1606137292.742,49.316,-24.414,-25.879,229.004,0.000
1606137292.746,35.645,-26.855,-29.297,178.223,0.000
1606137292.749,-60.059,-30.273,-33.691,-138.184,0.000
1606137292.753,-127.441,-39.551,-34.668,-305.176,0.000
1606137292.757,-64.941,-34.668,-28.809,-94.238,0.000
1606137292.761,25.879,-22.461,-25.391,208.008,0.000
1606137292.765,26.367,-31.250,-25.879,201.660,0.000
1606137292.769,-64.453,-48.828,-32.715,-115.234,0.000
1606137292.773,-111.816,-44.922,-31.738,-311.523,0.000
1606137292.777,-47.852,-31.250,-23.926,-144.043,0.000
1606137292.781,42.480,-19.043,-24.414,163.086,0.000
1606137292.785,45.898,-18.555,-31.738,209.961,0.000
1606137292.789,-41.992,-26.855,-33.691,-83.008,0.000
1606137292.792,-105.469,-28.320,-36.133,-308.105,0.000
1606137292.796,-62.012,-25.879,-34.180,-182.617,0.000
1606137292.800,34.668,-20.020,-24.414,143.555,0.000
1606137292.804,54.199,-15.625,-25.879,248.535,0.000
1606137292.808,-28.320,-20.996,-37.109,-13.672,0.000
1606137292.812,-89.844,-28.320,-36.621,-276.367,0.000
1606137292.816,-73.730,-28.320,-35.645,-216.309,0.000
1606137292.820,4.395,-20.996,-29.785,97.656,0.000
1606137292.824,47.363,-14.160,-26.367,246.094,0.000
1606137292.828,-20.020,-19.531,-26.855,29.297,0.000
1606137292.832,-104.004,-26.855,-26.367,-252.441,0.000
1606137292.835,-94.238,-27.832,-31.250,-238.281,0.000
1606137292.839,5.859,-20.508,-21.973,83.008,0.000
1606137292.843,57.129,-15.625,-14.160,262.207,0.000
1606137292.847,-5.859,-19.531,-23.438,66.406,0.000
1606137292.851,-95.215,-27.832,-34.668,-239.746,0.000
1606137292.855,-99.609,-34.668,-33.203,-272.461,0.000
1606137292.859,-12.207,-28.809,-25.879,19.043,0.000
1606137292.863,44.434,-25.391,-26.367,230.469,0.000
1606137292.867,-3.906,-26.855,-33.203,94.727,0.000
1606137292.871,-97.168,-32.715,-40.039,-217.285,0.000
1606137292.874,-120.605,-33.691,-39.551,-297.852,0.000
1606137292.878,-41.016,-29.785,-36.133,-21.973,0.000
1606137292.882,32.715,-23.438,-31.738,230.469,0.000
1606137292.886,-0.488,-21.973,-35.156,131.348,0.000
1606137292.890,-95.703,-27.344,-34.180,-199.219,0.000
1606137292.894,-116.699,-28.320,-31.250,-321.289,0.000
1606137292.898,-36.133,-26.855,-38.086,-80.078,0.000
1606137292.902,45.898,-19.531,-38.086,208.984,0.000
1606137292.906,28.809,-20.020,-36.133,170.898,0.000
1606137292.910,-65.918,-8.789,-38.574,-153.320,0.000
1606137292.914,-104.004,-12.207,-37.598,-315.430,0.000
1606137292.917,-29.297,-20.508,-28.809,-102.539,0.000
1606137292.921,56.641,-12.207,-28.809,198.242,0.000
1606137292.925,48.828,-13.672,-27.832,213.379,0.000
1606137292.929,-46.875,-18.555,-21.484,-91.797,0.000
1606137292.933,-108.398,-22.461,-24.414,-301.270,0.000
1606137292.937,-57.129,-21.973,-23.926,-136.230,0.000
1606137292.941,36.133,-21.484,-25.879,173.340,0.000
1606137292.945,48.340,-23.926,-27.344,231.934,0.000
1606137292.949,-34.668,-17.090,-26.855,-50.293,0.000
1606137292.953,-106.445,-22.949,-36.621,-296.875,0.000
1606137292.957,-70.312,-28.809,-36.133,-193.359,0.000
1606137292.960,27.344,-23.438,-28.809,127.930,0.000
1606137292.964,57.129,-21.484,-20.508,242.676,0.000
1606137292.968,-25.879,-23.926,-24.902,-14.160,0.000
1606137292.972,-111.816,-31.738,-36.133,-285.645,0.000
1606137292.976,-87.891,-33.203,-24.902,-222.656,0.000
1606137292.980,8.301,-28.320,-19.531,93.750,0.000
1606137292.984,45.410,-24.902,-28.809,241.699,0.000
1606137292.988,-33.691,-37.109,-34.180,12.207,0.000
1606137292.992,-119.629,-43.945,-37.598,-280.762,0.000
1606137292.996,-102.051,-29.785,-32.227,-254.395,0.000
1606137292.999,-9.766,-22.949,-26.855,59.082,0.000
1606137293.003,38.574,-24.902,-28.809,237.305,0.000
1606137293.007,-15.625,-17.578,-30.273,55.664,0.000
1606137293.011,-104.980,-15.625,-32.227,-247.070,0.000
1606137293.015,-112.793,-28.809,-29.297,-288.574,0.000
1606137293.019,-27.832,-31.738,-21.484,2.930,0.000
1606137293.023,39.062,-25.879,-20.996,229.004,0.000
1606137293.027,-0.488,-26.367,-32.715,100.098,0.000
1606137293.031,-98.633,-34.180,-38.086,-225.586,0.000
1606137293.035,-112.793,-33.203,-39.062,-312.012,0.000
1606137293.039,-27.344,-27.344,-38.574,-29.785,0.000
1606137293.042,48.340,-31.250,-41.504,238.770,0.000
1606137293.046,34.180,-22.949,-44.922,163.574,0.000
1606137293.050,-70.801,-14.648,-41.992,-170.898,0.000
1606137293.054,-120.605,-28.320,-39.551,-310.547,0.000
1606137293.058,-25.879,-25.391,-23.438,-39.062,0.000
1606137293.062,72.266,-17.578,-23.438,252.930,0.000
1606137293.066,51.270,-18.066,-36.621,196.777,0.000
1606137293.070,-39.062,-28.320,-39.062,-121.582,0.000
1606137293.074,-76.172,-33.691,-38.574,-279.785,0.000
1606137293.078,-10.254,-30.762,-34.180,-78.613,0.000
1606137293.082,79.590,-18.555,-28.809,223.633,0.000
1606137293.085,80.078,-10.254,-11.230,251.465,0.000
1606137293.089,-11.230,-29.785,-19.043,-43.457,0.000
1606137293.093,-78.125,-47.852,-44.434,-258.789,0.000
1606137293.097,-33.203,-44.922,-48.340,-110.840,0.000
1606137293.101,59.082,-36.133,-35.645,207.031,0.000
1606137293.105,74.219,-31.250,-27.344,275.879,0.000
1606137293.109,-7.812,-28.320,-24.902,-15.137,0.000
1606137293.113,-90.820,-31.250,-30.762,-263.184,0.000
1606137293.117,-54.688,-33.691,-32.715,-156.250,0.000
1606137293.121,47.852,-30.273,-25.391,161.621,0.000
1606137293.124,58.105,-24.902,-23.926,268.066,0.000
1606137293.128,-22.461,-30.762,-31.738,12.207,0.000
1606137293.132,-94.238,-35.156,-33.203,-252.441,0.000
1606137293.136,-67.383,-33.203,-27.344,-184.570,0.000
1606137293.140,25.391,-34.668,-26.855,134.766,0.000
1606137293.144,63.477,-36.133,-23.926,274.902,0.000
1606137293.148,-9.277,-44.922,-23.926,54.688,0.000
1606137293.152,-97.168,-45.898,-28.320,-220.215,0.000
1606137293.156,-73.730,-34.668,-27.344,-212.402,0.000
1606137293.160,24.414,-26.855,-18.066,97.656,0.000
1606137293.164,63.477,-25.391,-13.672,281.250,0.000
1606137293.167,5.371,-29.785,-20.996,88.867,0.000
1606137293.171,-83.008,-42.480,-32.227,-223.145,0.000
1606137293.175,-86.426,-43.945,-37.598,-259.766,0.000
1606137293.179,4.395,-31.738,-33.691,37.109,0.000
1606137293.183,68.359,-26.367,-25.879,265.625,0.000
1606137293.187,24.414,-22.949,-31.738,124.512,0.000
1606137293.191,-74.219,-16.113,-42.480,-212.891,0.000
1606137293.195,-103.516,-26.855,-35.645,-297.852,0.000
1606137293.199,-19.043,-25.879,-32.227,-18.555,0.000
1606137293.203,56.152,-20.508,-31.738,238.770,0.000
1606137293.207,26.855,-31.738,-29.297,156.738,0.000
1606137293.210,-70.801,-36.133,-39.062,-173.828,0.000
1606137293.214,-104.004,-37.598,-40.527,-308.594,0.000
1606137293.218,-24.414,-35.156,-35.645,-62.500,0.000
1606137293.222,47.363,-25.391,-31.738,217.285,0.000
1606137293.226,26.855,-22.461,-27.344,180.176,0.000
1606137293.230,-70.801,-35.156,-41.504,-145.508,0.000
1606137293.234,-118.164,-37.109,-44.434,-330.566,0.000
1606137293.238,-56.152,-37.109,-35.645,-137.695,0.000
1606137293.242,27.344,-36.133,-35.645,158.203,0.000
1606137293.246,29.297,-27.832,-36.133,179.688,0.000
1606137293.249,-54.688,-31.250,-30.273,-119.141,0.000
1606137293.253,-113.281,-32.227,-24.902,-325.195,0.000
1606137293.257,-51.270,-27.832,-33.203,-166.016,0.000
1606137293.261,49.805,-26.855,-31.738,167.969,0.000
1606137293.265,54.688,-20.508,-20.508,238.770,0.000
1606137293.269,-47.852,-24.414,-26.855,-63.477,0.000
1606137293.273,-122.070,-30.273,-32.715,-303.223,0.000
1606137293.277,-67.383,-26.855,-26.855,-175.781,0.000
1606137293.281,26.367,-26.855,-25.879,143.555,0.000
1606137293.285,47.852,-27.344,-26.367,245.117,0.000
1606137293.289,-30.273,-46.875,-27.344,-8.301,0.000
1606137293.292,-96.191,-50.293,-23.438,-281.738,0.000
1606137293.296,-80.566,-30.273,-23.926,-226.074,0.000
1606137293.300,11.719,-23.438,-25.391,104.492,0.000
1606137293.304,60.059,-18.555,-23.438,250.000,0.000
1606137293.308,-14.160,-21.973,-25.391,25.879,0.000
1606137293.312,-93.262,-26.855,-29.297,-267.090,0.000
1606137293.316,-85.449,-32.227,-32.227,-270.508,0.000
1606137293.320,7.812,-21.484,-19.531,45.410,0.000
1606137293.324,62.012,-12.207,-21.973,236.816,0.000
1606137293.328,1.465,-26.855,-30.762,59.082,0.000
1606137293.332,-86.426,-29.785,-25.391,-245.605,0.000
1606137293.335,-92.773,-23.438,-27.832,-292.969,0.000
1606137293.339,-9.766,-16.602,-35.156,2.441,0.000
1606137293.343,44.434,-15.137,-37.598,223.145,0.000
1606137293.347,3.418,-22.949,-32.715,94.238,0.000
1606137293.351,-87.402,-28.320,-33.203,-220.703,0.000
1606137293.355,-111.328,-32.715,-34.180,-306.641,0.000
1606137293.359,-25.879,-26.855,-25.391,-31.250,0.000
1606137293.363,39.551,-20.020,-19.531,226.074,0.000
1606137293.367,0.000,-28.320,-20.508,145.508,0.000
1606137293.371,-88.867,-37.109,-22.461,-169.434,0.000
1606137293.374,-121.094,-34.180,-23.438,-303.711,0.000
1606137293.378,-52.734,-30.273,-24.902,-78.613,0.000
1606137293.382,28.809,-23.926,-25.391,198.730,0.000
1606137293.386,17.578,-26.367,-26.367,175.781,0.000
1606137293.390,-77.637,-39.551,-32.227,-142.578,0.000
1606137293.394,-125.488,-38.086,-32.227,-313.477,0.000
1606137293.398,-66.895,-31.250,-29.785,-112.793,0.000
1606137293.402,20.508,-25.391,-23.438,182.129,0.000
1606137293.406,24.902,-24.902,-24.414,208.984,0.000
1606137293.410,-62.012,-27.832,-29.785,-83.984,0.000
1606137293.414,-121.094,-35.645,-36.133,-293.945,0.000
1606137293.417,-79.102,-35.156,-32.227,-146.484,0.000
1606137293.421,17.090,-24.414,-26.855,166.016,0.000
1606137293.425,29.297,-27.344,-30.273,225.586,0.000
1606137293.429,-61.523,-41.504,-32.227,-62.012,0.000
1606137293.433,-123.535,-40.039,-33.203,-297.363,0.000
1606137293.437,-87.402,-29.785,-26.367,-196.289,0.000
1606137293.441,4.883,-27.832,-22.949,114.746,0.000
1606137293.445,35.156,-27.832,-23.438,228.516,0.000
1606137293.449,-45.410,-32.715,-24.902,-18.066,0.000
1606137293.453,-114.258,-37.598,-22.461,-278.320,0.000
1606137293.457,-88.379,-27.832,-22.461,-222.656,0.000
1606137293.460,-4.395,-18.555,-21.484,91.309,0.000
1606137293.464,46.875,-19.531,-20.020,250.488,0.000
1606137293.468,-17.090,-31.250,-28.809,35.156,0.000
1606137293.472,-117.188,-44.434,-30.762,-270.996,0.000
1606137293.476,-105.469,-36.621,-29.785,-273.438,0.000
1606137293.480,-7.812,-28.320,-28.320,48.828,0.000
1606137293.484,44.434,-25.391,-25.879,247.070,0.000
1606137293.488,-7.324,-23.926,-27.344,81.055,0.000
1606137293.492,-94.727,-30.273,-23.926,-222.656,0.000
1606137293.496,-100.098,-31.738,-19.531,-270.996,0.000
1606137293.499,-10.742,-22.949,-22.949,20.020,0.000
1606137293.503,47.363,-19.043,-21.484,241.211,0.000
1606137293.507,9.766,-13.672,-19.531,120.117,0.000
1606137293.511,-76.660,-16.602,-22.461,-185.059,0.000
1606137293.515,-101.074,-20.508,-19.531,-283.203,0.000
1606137293.519,-15.625,-15.137,-11.230,-27.832,0.000
1606137293.523,56.152,-14.648,-6.348,231.445,0.000
1606137293.527,29.785,-14.160,-13.672,163.086,0.000
1606137293.531,-66.895,-25.879,-22.461,-160.156,0.000
1606137293.535,-107.910,-32.227,-25.391,-302.734,0.000
1606137293.539,-34.668,-27.344,-21.484,-73.242,0.000
1606137293.542,46.875,-15.625,-12.695,205.078,0.000
1606137293.546,37.109,-8.301,-9.766,186.523,0.000
1606137293.550,-60.059,-18.066,-21.484,-124.512,0.000
1606137293.554,-115.723,-26.855,-29.785,-309.082,0.000
1606137293.558,-55.664,-21.484,-21.484,-110.352,0.000
1606137293.562,30.762,-21.484,-23.926,185.547,0.000
1606137293.566,23.438,-24.902,-29.297,194.336,0.000
1606137293.570,-76.172,-27.832,-27.344,-109.375,0.000
1606137293.574,-127.441,-26.855,-22.461,-312.012,0.000
1606137293.578,-77.148,-23.438,-23.926,-171.387,0.000
1606137293.582,13.672,-22.461,-33.203,132.324,0.000
1606137293.585,38.086,-18.555,-27.832,212.402,0.000
1606137293.589,-37.109,-18.066,-19.043,-54.688,0.000
1606137293.593,-106.934,-25.879,-26.367,-299.805,0.000
1606137293.597,-81.055,-29.297,-25.879,-216.309,0.000
1606137293.601,20.508,-18.555,-13.672,113.281,0.000
1606137293.605,50.293,-17.578,-19.531,245.605,0.000
1606137293.609,-39.551,-35.645,-35.645,-14.160,0.000
1606137293.613,-111.816,-36.621,-28.809,-289.551,0.000
1606137293.617,-85.449,-30.273,-24.902,-233.398,0.000
1606137293.621,16.113,-24.902,-29.785,103.516,0.000
1606137293.624,63.965,-17.578,-30.273,260.742,0.000
1606137293.628,-15.137,-17.090,-31.738,31.250,0.000
1606137293.632,-114.258,-25.391,-34.668,-249.512,0.000
1606137293.636,-101.562,-32.715,-32.227,-243.164,0.000
1606137293.640,-7.324,-33.691,-24.414,63.965,0.000
1606137293.644,47.363,-34.668,-24.902,266.113,0.000
1606137293.648,1.953,-30.273,-27.344,104.980,0.000
1606137293.652,-76.172,-32.715,-32.227,-200.195,0.000
1606137293.656,-97.168,-44.922,-36.133,-271.484,0.000
1606137293.660,-17.578,-41.992,-30.273,9.766,0.000
1606137293.664,49.316,-34.180,-22.461,243.652,0.000
1606137293.667,8.301,-23.438,-17.578,132.812,0.000
1606137293.671,-78.125,-21.484,-26.367,-171.387,0.000
1606137293.675,-98.145,-34.180,-28.320,-275.879,0.000
1606137293.679,-20.508,-30.762,-23.926,-16.602,0.000
1606137293.683,41.504,-31.250,-22.949,253.418,0.000
1606137293.687,14.160,-37.109,-23.438,184.570,0.000
1606137293.691,-73.730,-41.016,-25.391,-137.207,0.000
1606137293.695,-103.516,-42.969,-25.391,-280.762,0.000
1606137293.699,-31.738,-38.574,-24.414,-60.059,0.000
1606137293.703,55.664,-32.227,-20.996,217.773,0.000
1606137293.707,41.504,-29.785,-19.531,204.590,0.000
1606137293.710,-64.453,-34.180,-25.879,-108.398,0.000
1606137293.714,-103.516,-36.133,-32.715,-293.457,0.000
1606137293.718,-41.016,-28.809,-33.691,-113.770,0.000
1606137293.722,47.363,-25.391,-28.320,178.223,0.000
1606137293.726,48.340,-23.926,-26.367,210.449,0.000
1606137293.730,-27.344,-23.438,-35.156,-76.660,0.000
1606137293.734,-74.707,-35.156,-35.645,-290.527,0.000
1606137293.738,-52.246,-35.645,-27.832,-161.133,0.000
1606137293.742,32.227,-27.832,-22.949,153.809,0.000
1606137293.746,55.664,-27.344,-22.949,246.582,0.000
1606137293.749,-33.203,-33.691,-31.738,-31.738,0.000
1606137293.753,-105.957,-41.016,-34.668,-295.898,0.000
1606137293.757,-76.660,-34.668,-36.621,-215.820,0.000
1606137293.761,15.137,-26.855,-33.691,106.934,0.000
1606137293.765,41.992,-32.227,-30.762,235.840,0.000
1606137293.769,-29.297,-41.016,-33.691,-4.883,0.000
1606137293.773,-104.980,-41.504,-31.738,-281.250,0.000
1606137293.777,-89.844,-38.574,-27.832,-238.770,0.000
1606137293.781,3.418,-33.203,-21.973,81.543,0.000
1606137293.785,48.340,-28.320,-12.695,252.930,0.000
1606137293.789,-12.695,-34.180,-11.719,59.570,0.000
1606137293.792,-99.121,-34.668,-28.809,-238.770,0.000
1606137293.796,-114.746,-36.621,-34.668,-265.625,0.000
1606137293.800,-27.344,-39.062,-30.762,36.133,0.000
1606137293.804,40.527,-36.133,-26.855,246.582,0.000
1606137293.808,-8.789,-32.715,-25.391,99.609,0.000
1606137293.812,-97.656,-36.621,-25.391,-214.355,0.000
1606137293.816,-103.516,-39.062,-21.973,-282.227,0.000
1606137293.820,-11.719,-30.273,-18.066,3.906,0.000
1606137293.824,57.129,-21.484,-15.625,237.305,0.000
1606137293.828,17.090,-26.367,-31.738,122.559,0.000
1606137293.832,-83.496,-37.598,-42.480,-201.172,0.000
1606137293.835,-108.398,-35.156,-35.645,-299.805,0.000
1606137293.839,-19.531,-24.902,-31.250,-26.367,0.000
1606137293.843,52.734,-20.508,-27.832,232.910,0.000
1606137293.847,26.855,-20.020,-24.414,157.715,0.000
1606137293.851,-64.941,-20.996,-25.879,-163.086,0.000
1606137293.855,-106.934,-29.297,-32.227,-306.641,0.000
1606137293.859,-36.133,-30.273,-32.227,-83.984,0.000
1606137293.863,49.316,-24.902,-24.414,201.660,0.000
1606137293.867,36.133,-23.438,-28.320,195.801,0.000
1606137293.871,-64.453,-27.832,-36.133,-121.582,0.000
1606137293.874,-120.117,-36.133,-34.180,-323.730,0.000
1606137293.878,-58.105,-32.227,-25.391,-145.020,0.000
1606137293.882,33.691,-24.414,-18.066,173.340,0.000
1606137293.886,37.109,-11.230,-19.043,223.145,0.000
1606137293.890,-58.594,-15.625,-28.809,-82.520,0.000
1606137293.894,-107.910,-32.227,-29.785,-311.035,0.000
1606137293.898,-63.477,-30.762,-24.902,-176.270,0.000
1606137293.902,21.484,-25.391,-19.531,143.066,0.000
1606137293.906,47.363,-18.555,-19.043,233.398,0.000
1606137293.910,-41.504,-21.973,-29.297,-47.363,0.000
1606137293.914,-107.910,-31.738,-34.668,-305.664,0.000
1606137293.917,-75.684,-30.273,-34.180,-222.656,0.000
1606137293.921,19.043,-26.855,-22.461,100.098,0.000
1606137293.925,48.828,-18.066,-24.902,229.004,0.000
1606137293.929,-23.926,-16.602,-31.250,-0.977,0.000
1606137293.933,-101.074,-26.855,-35.645,-275.391,0.000
1606137293.937,-95.215,-27.832,-44.922,-258.789,0.000
1606137293.941,-1.465,-26.367,-44.434,50.293,0.000
1606137293.945,46.387,-22.461,-36.133,227.539,0.000
1606137293.949,-12.207,-15.625,-35.156,41.016,0.000
1606137293.953,-86.426,-12.207,-39.062,-246.582,0.000
1606137293.957,-83.008,-20.020,-34.180,-265.137,0.000
1606137293.960,6.348,-20.996,-16.113,35.156,0.000
1606137293.964,58.105,-15.625,-12.207,245.605,0.000
1606137293.968,-14.648,-23.926,-30.273,89.355,0.000
1606137293.972,-110.352,-36.133,-35.156,-230.957,0.000
1606137293.976,-123.535,-28.320,-25.391,-295.898,0.000
1606137293.980,-35.645,-25.391,-25.391,0.000,0.000
1606137293.984,31.250,-30.762,-26.855,243.652,0.000
1606137293.988,-3.418,-23.438,-21.973,134.277,0.000
1606137293.992,-99.121,-28.320,-29.297,-194.824,0.000
1606137293.996,-131.836,-39.062,-29.785,-298.828,0.000
1606137293.999,-42.480,-36.621,-29.297,-50.781,0.000
1606137294.003,29.785,-31.250,-30.273,210.449,0.000
1606137294.007,-6.836,-41.504,-26.367,161.621,0.000
1606137294.011,-88.867,-46.875,-28.320,-154.785,0.000
1606137294.015,-122.070,-33.203,-26.367,-305.176,0.000
1606137294.019,-62.012,-23.438,-24.902,-88.867,0.000
1606137294.023,18.066,-25.879,-24.902,207.031,0.000
1606137294.027,14.648,-17.578,-24.902,206.055,0.000
1606137294.031,-75.195,-5.859,-34.180,-120.117,0.000
1606137294.035,-121.582,-26.855,-35.645,-324.219,0.000
1606137294.039,-66.406,-40.039,-30.273,-157.715,0.000
1606137294.042,30.762,-34.180,-24.902,159.180,0.000
1606137294.046,40.039,-35.645,-27.832,213.867,0.000
1606137294.050,-51.758,-42.480,-32.227,-80.078,0.000
1606137294.054,-112.305,-41.992,-28.320,-301.758,0.000
1606137294.058,-76.660,-37.109,-25.391,-173.340,0.000
1606137294.062,25.879,-30.762,-20.508,139.648,0.000
1606137294.066,44.922,-28.809,-19.043,221.680,0.000
1606137294.070,-54.199,-35.156,-27.832,-41.016,0.000
1606137294.074,-124.512,-41.504,-42.480,-300.781,0.000
1606137294.078,-93.262,-41.016,-47.363,-231.445,0.000
1606137294.082,-2.441,-34.180,-33.203,95.215,0.000
1606137294.085,49.316,-21.973,-24.414,231.445,0.000
1606137294.089,-9.277,-17.090,-28.320,4.395,0.000
1606137294.093,-111.328,-23.438,-34.668,-272.949,0.000
1606137294.097,-102.051,-26.367,-32.715,-254.883,0.000
1606137294.101,-4.883,-23.926,-24.414,71.777,0.000
1606137294.105,45.410,-18.066,-16.113,253.418,0.000
1606137294.109,-26.367,-20.020,-22.949,44.434,0.000
1606137294.113,-115.723,-32.227,-32.715,-254.883,0.000
1606137294.117,-106.445,-35.645,-28.320,-261.230,0.000
1606137294.121,-6.836,-27.832,-20.996,48.340,0.000
1606137294.124,51.270,-22.949,-20.508,252.930,0.000
1606137294.128,0.977,-20.996,-23.926,100.098,0.000
1606137294.132,-87.402,-26.855,-39.062,-219.727,0.000
1606137294.136,-99.609,-29.297,-39.551,-284.180,0.000
1606137294.140,-12.207,-23.926,-26.367,0.000,0.000
1606137294.144,51.270,-23.438,-22.461,231.445,0.000
1606137294.148,6.836,-17.090,-31.738,121.582,0.000
1606137294.152,-90.332,-20.996,-41.504,-194.336,0.000
1606137294.156,-111.328,-32.227,-41.992,-300.293,0.000
1606137294.160,-26.367,-28.809,-36.621,-42.480,0.000
1606137294.164,49.805,-30.762,-26.855,233.398,0.000
1606137294.167,24.414,-8.789,-28.809,183.594,0.000
1606137294.171,-56.641,11.719,-33.691,-143.066,0.000
1606137294.175,-97.168,-26.855,-34.668,-309.570,0.000
1606137294.179,-56.641,-42.480,-32.715,-104.492,0.000
1606137294.183,29.785,-36.133,-22.949,184.082,0.000
1606137294.187,26.367,-32.715,-19.531,185.547,0.000
1606137294.191,-71.777,-33.691,-24.414,-126.465,0.000
1606137294.195,-125.977,-43.945,-38.574,-322.754,0.000
1606137294.199,-73.730,-41.504,-38.086,-152.344,0.000
1606137294.203,32.227,-28.809,-26.367,160.156,0.000
1606137294.207,45.898,-23.926,-30.273,217.773,0.000
1606137294.210,-52.734,-30.762,-37.109,-63.965,0.000
1606137294.214,-111.328,-33.691,-36.133,-287.598,0.000
1606137294.218,-67.383,-23.438,-31.738,-163.086,0.000
1606137294.222,28.320,-22.461,-20.508,151.855,0.000
1606137294.226,44.922,-17.578,-19.043,234.863,0.000
1606137294.230,-31.250,27.832,-36.621,-30.273,0.000
1606137294.234,-95.703,6.836,-38.086,-273.438,0.000
1606137294.238,-82.520,-38.574,-21.484,-207.520,0.000
1606137294.242,10.742,-30.273,-12.207,95.215,0.000
1606137294.246,55.664,-29.297,-10.742,242.188,0.000
1606137294.249,-33.691,-38.574,-16.113,15.625,0.000
1606137294.253,-118.652,-44.922,-19.043,-267.090,0.000
1606137294.257,-103.516,-37.109,-19.531,-240.234,0.000
1606137294.261,-7.812,-31.738,-20.508,75.195,0.000
1606137294.265,42.969,-31.250,-16.113,243.652,0.000
1606137294.269,-26.855,-19.043,-21.484,54.688,0.000
1606137294.273,-104.004,-33.691,-27.832,-238.281,0.000
1606137294.277,-101.562,-49.316,-20.508,-264.160,0.000
1606137294.281,-32.715,-46.875,-15.137,37.598,0.000
1606137294.285,18.066,-42.969,-13.672,240.723,0.000
1606137294.289,-25.391,-36.621,-19.531,89.355,0.000
1606137294.292,-106.934,-37.109,-25.879,-208.496,0.000
1606137294.296,-115.234,-36.621,-17.090,-271.973,0.000
1606137294.300,-23.438,-30.762,-14.160,2.441,0.000
1606137294.304,47.852,-25.879,-18.555,250.488,0.000
1606137294.308,13.184,-21.484,-20.996,156.250,0.000
1606137294.312,-87.891,-26.855,-23.926,-173.340,0.000
1606137294.316,-122.070,-43.457,-25.879,-300.293,0.000
1606137294.320,-44.434,-42.969,-26.367,-51.270,0.000
1606137294.324,32.715,-36.621,-20.020,224.609,0.000
1606137294.328,26.855,-34.180,-22.461,181.641,0.000
1606137294.332,-67.871,-38.574,-24.414,-134.277,0.000
1606137294.335,-110.352,-38.574,-15.625,-283.203,0.000
1606137294.339,-40.527,-29.785,-19.043,-74.219,0.000
1606137294.343,31.738,-22.461,-24.414,201.660,0.000
1606137294.347,25.391,-24.902,-22.461,199.707,0.000
1606137294.351,-64.453,-32.227,-29.297,-100.586,0.000
1606137294.355,-110.840,-37.109,-31.250,-289.551,0.000
1606137294.359,-54.688,-34.668,-29.297,-137.207,0.000
1606137294.363,39.551,-26.367,-24.414,161.621,0.000
1606137294.367,50.781,-16.113,-23.438,211.914,0.000
1606137294.371,-35.156,-16.113,-24.414,-70.801,0.000
1606137294.374,-100.586,-33.203,-29.785,-303.223,0.000
1606137294.378,-68.848,-35.645,-41.504,-196.289,0.000
1606137294.382,24.414,-30.273,-29.785,118.652,0.000
1606137294.386,56.152,-26.855,-20.020,230.469,0.000
1606137294.390,-23.438,-27.832,-32.227,-21.973,0.000
1606137294.394,-106.934,-37.598,-35.156,-289.551,0.000
1606137294.398,-84.961,-37.598,-29.785,-221.191,0.000
1606137294.402,13.672,-23.438,-24.902,101.074,0.000
1606137294.406,45.410,-20.020,-20.508,237.305,0.000
1606137294.410,-32.227,-10.742,-21.973,-3.906,0.000
1606137294.414,-106.934,-15.625,-30.762,-298.340,0.000
1606137294.417,-108.398,-37.598,-31.250,-272.461,0.000
1606137294.421,-20.508,-31.738,-22.949,51.758,0.000
1606137294.425,39.062,-23.438,-16.113,241.211,0.000
1606137294.429,-10.742,-30.273,-22.461,63.477,0.000
1606137294.433,-95.703,-40.527,-33.203,-233.887,0.000
1606137294.437,-106.934,-38.574,-28.320,-265.625,0.000
1606137294.441,-4.395,-31.738,-20.996,35.156,0.000
1606137294.445,65.430,-27.832,-20.508,257.812,0.000
1606137294.449,8.301,-20.996,-25.391,112.305,0.000
1606137294.453,-82.520,-23.438,-29.785,-212.891,0.000
1606137294.457,-99.121,-29.297,-24.902,-282.715,0.000
1606137294.460,-15.625,-25.879,-18.066,-4.883,0.000
1606137294.464,56.641,-20.508,-17.090,238.281,0.000
1606137294.468,31.738,-20.996,-24.902,148.926,0.000
1606137294.472,-55.664,-25.391,-33.691,-163.574,0.000
1606137294.476,-90.332,-33.691,-30.273,-288.574,0.000
1606137294.480,-21.484,-32.715,-20.996,-52.246,0.000
1606137294.484,47.852,-24.414,-19.043,216.797,0.000
1606137294.488,19.531,-23.438,-24.414,166.992,0.000
1606137294.492,-59.570,-26.855,-25.879,-152.344,0.000
1606137294.496,-109.375,-30.762,-27.832,-307.129,0.000
1606137294.499,-68.359,-33.203,-29.785,-112.305,0.000
1606137294.503,25.391,-32.715,-21.973,166.992,0.000
1606137294.507,27.344,-19.531,-10.254,183.594,0.000
1606137294.511,-67.871,-9.277,-24.414,-117.188,0.000
1606137294.515,-114.746,-20.996,-30.273,-311.035,0.000
1606137294.519,-59.570,-30.762,-23.438,-145.508,0.000
1606137294.523,20.020,-33.691,-34.668,151.367,0.000
1606137294.527,29.297,-34.668,-37.109,200.684,0.000
1606137294.531,-48.340,-41.016,-31.250,-84.473,0.000
1606137294.535,-126.465,-47.852,-29.785,-319.336,0.000
1606137294.539,-92.285,-39.062,-25.879,-203.125,0.000
1606137294.542,12.207,-31.250,-17.090,135.254,0.000
1606137294.546,37.598,-31.738,-16.602,241.699,0.000
1606137294.550,-39.062,-33.691,-28.809,-24.902,0.000
1606137294.554,-114.258,-38.574,-32.715,-286.133,0.000
1606137294.558,-93.750,-36.133,-29.785,-222.656,0.000
1606137294.562,-2.441,-38.086,-22.461,94.727,0.000
1606137294.566,38.574,-36.133,-21.484,236.816,0.000
1606137294.570,-26.367,-31.250,-26.367,16.602,0.000
1606137294.574,-92.285,-35.156,-21.973,-258.789,0.000
1606137294.578,-80.078,-42.969,-19.531,-244.629,0.000
1606137294.582,6.348,-42.969,-31.250,62.012,0.000
1606137294.585,54.688,-28.320,-42.969,243.652,0.000
1606137294.589,-6.836,-8.301,-45.410,71.289,0.000
1606137294.593,-90.820,-15.625,-50.293,-238.770,0.000
1606137294.597,-99.121,-26.367,-45.898,-289.551,0.000
1606137294.601,5.859,-17.578,-38.574,6.836,0.000
1606137294.605,75.684,-15.137,-30.273,238.770,0.000
1606137294.609,12.207,-11.719,-29.785,108.398,0.000
1606137294.613,-88.379,-21.973,-41.992,-215.332,0.000
1606137294.617,-105.957,-32.227,-44.922,-304.688,0.000
1606137294.621,-20.020,-27.344,-39.062,-31.250,0.000
1606137294.624,56.641,-25.879,-29.785,231.445,0.000
1606137294.628,40.039,-23.438,-32.715,147.949,0.000
1606137294.632,-66.406,-20.020,-37.109,-167.969,0.000
1606137294.636,-118.164,-25.879,-33.203,-286.621,0.000
1606137294.640,-29.297,-27.832,-25.879,-55.176,0.000
1606137294.644,58.105,-28.320,-18.555,213.867,0.000
1606137294.648,28.809,-4.395,-18.066,174.805,0.000
1606137294.652,-71.289,-5.859,-29.785,-145.996,0.000
1606137294.656,-116.211,-35.156,-36.621,-310.547,0.000
1606137294.660,-57.617,-36.133,-35.156,-109.375,0.000
1606137294.664,37.598,-33.203,-27.832,183.105,0.000
1606137294.667,48.340,-19.531,-24.414,215.332,0.000
1606137294.671,-55.664,-25.879,-28.809,-87.402,0.000
1606137294.675,-110.352,-35.645,-30.762,-303.223,0.000
1606137294.679,-57.129,-25.391,-28.320,-151.855,0.000
1606137294.683,37.598,-23.438,-23.438,169.434,0.000
1606137294.687,54.688,-5.859,-18.555,230.469,0.000
1606137294.691,-52.246,13.672,-32.715,-75.684,0.000
1606137294.695,-118.164,-24.414,-42.480,-311.523,0.000
1606137294.699,-65.430,-43.457,-29.785,-190.430,0.000
1606137294.703,27.344,-30.273,-22.949,129.883,0.000
1606137294.707,54.688,-21.484,-25.391,230.957,0.000
1606137294.710,-20.020,-22.949,-27.344,-15.625,0.000
1606137294.714,-94.727,-24.414,-26.855,-270.020,0.000
1606137294.718,-73.730,-24.414,-26.855,-218.262,0.000
1606137294.722,30.273,-36.133,-25.391,92.773,0.000
1606137294.726,62.500,-23.926,-31.250,240.723,0.000
1606137294.730,-20.508,-2.930,-37.598,25.879,0.000
1606137294.734,-102.051,-27.832,-41.992,-277.344,0.000
1606137294.738,-100.098,-44.922,-44.434,-284.668,0.000
1606137294.742,-9.766,-40.527,-38.086,27.832,0.000
1606137294.746,56.641,-31.738,-25.879,224.121,0.000
1606137294.749,5.859,-25.391,-23.926,66.406,0.000
1606137294.753,-101.074,-34.180,-35.156,-232.910,0.000
1606137294.757,-107.422,-37.109,-36.621,-282.715,0.000
1606137294.761,-16.113,-24.902,-27.832,11.230,0.000
1606137294.765,47.363,-19.043,-24.902,237.793,0.000
1606137294.769,5.859,-22.461,-30.762,107.422,0.000
1606137294.773,-92.773,-33.691,-32.715,-206.543,0.000
1606137294.777,-109.375,-31.250,-28.320,-283.203,0.000
1606137294.781,-25.879,-25.879,-24.414,-15.625,0.000
1606137294.785,35.645,-31.250,-24.414,225.098,0.000
1606137294.789,9.766,-13.672,-27.344,142.090,0.000
1606137294.792,-74.707,-6.836,-29.297,-162.598,0.000
1606137294.796,-110.352,-35.156,-38.086,-297.363,0.000
1606137294.800,-46.875,-42.969,-40.527,-80.078,0.000
1606137294.804,39.551,-35.156,-28.809,201.660,0.000
1606137294.808,49.316,-25.391,-18.555,191.895,0.000
1606137294.812,-52.734,-33.691,-17.578,-118.652,0.000
1606137294.816,-104.004,-40.039,-22.461,-297.363,0.000
1606137294.820,-27.344,-29.785,-20.508,-104.004,0.000
1606137294.824,65.430,-23.926,-15.137,197.266,0.000
1606137294.828,51.270,-16.602,-27.344,205.566,0.000
1606137294.832,-52.734,-17.090,-31.738,-102.051,0.000
1606137294.835,-109.863,-37.598,-29.297,-307.129,0.000
1606137294.839,-55.176,-41.016,-24.414,-160.645,0.000
1606137294.843,32.227,-31.250,-23.926,143.555,0.000
1606137294.847,42.480,-24.414,-21.484,213.867,0.000
1606137294.851,-46.875,-33.203,-21.484,-68.359,0.000
1606137294.855,-111.328,-39.062,-34.668,-312.500,0.000
1606137294.859,-65.918,-35.156,-31.250,-210.938,0.000
1606137294.863,17.090,-36.133,-26.367,99.121,0.000
1606137294.867,42.969,-15.137,-26.855,215.820,0.000
1606137294.871,-24.902,-11.230,-22.949,-11.719,0.000
1606137294.874,-104.492,-34.668,-28.809,-266.113,0.000
1606137294.878,-85.938,-39.062,-38.086,-225.586,0.000
1606137294.882,10.742,-36.621,-30.762,83.496,0.000
1606137294.886,50.293,-18.066,-23.438,243.164,0.000
1606137294.890,-20.020,-11.719,-28.809,35.156,0.000
1606137294.894,-87.891,-34.668,-29.785,-250.977,0.000
1606137294.898,-83.984,-34.180,-25.879,-256.836,0.000
1606137294.902,-13.184,-24.414,-21.484,45.898,0.000
1606137294.906,39.551,-26.367,-23.438,241.211,0.000
1606137294.910,-13.672,-26.855,-34.668,77.148,0.000
1606137294.914,-98.633,-29.785,-33.203,-217.285,0.000
1606137294.917,-104.004,-29.297,-21.484,-264.648,0.000
1606137294.921,-11.230,-30.273,-20.996,18.066,0.000
1606137294.925,59.082,-23.926,-14.648,257.812,0.000
1606137294.929,9.766,-9.766,-21.484,136.719,0.000
1606137294.933,-91.309,-28.809,-37.109,-188.477,0.000
1606137294.937,-109.863,-42.969,-36.621,-285.645,0.000
1606137294.941,-17.578,-33.691,-29.785,-20.508,0.000
1606137294.945,54.199,-36.621,-21.484,235.352,0.000
1606137294.949,13.184,-36.133,-14.648,154.297,0.000
1606137294.953,-100.098,-44.922,-24.902,-175.781,0.000
1606137294.957,-135.742,-52.734,-29.785,-315.430,0.000
1606137294.960,-46.875,-40.039,-15.137,-82.520,0.000
1606137294.964,18.555,-35.645,-9.766,198.242,0.000
1606137294.968,-5.859,-27.832,-11.719,169.434,0.000
1606137294.972,-100.586,-26.855,-20.996,-165.039,0.000
1606137294.976,-147.461,-47.363,-25.879,-353.027,0.000
1606137294.980,-82.031,-51.758,-13.184,-155.273,0.000
1606137294.984,15.137,-37.598,-9.277,164.062,0.000
1606137294.988,16.113,-35.645,-16.602,197.754,0.000
1606137294.992,-72.754,-42.969,-20.508,-97.168,0.000
1606137294.996,-115.723,-36.133,-27.832,-295.898,0.000
1606137294.999,-68.848,-32.227,-29.785,-164.551,0.000
1606137295.003,21.484,-34.180,-26.367,134.277,0.000
1606137295.007,38.086,-12.695,-26.855,214.355,0.000
1606137295.011,-47.363,-9.766,-24.902,-49.805,0.000
1606137295.015,-114.746,-41.992,-21.484,-295.898,0.000
1606137295.019,-85.449,-39.551,-25.391,-208.008,0.000
1606137295.023,9.277,-30.762,-23.438,104.980,0.000
1606137295.027,46.387,-23.438,-20.508,230.957,0.000
1606137295.031,-42.480,-28.320,-21.484,-0.488,0.000
1606137295.035,-119.629,-43.457,-25.391,-270.020,0.000
1606137295.039,-90.820,-41.016,-30.762,-233.887,0.000
1606137295.042,-2.930,-31.738,-26.855,75.684,0.000
1606137295.046,34.668,-25.879,-20.508,241.699,0.000
1606137295.050,-31.250,-33.691,-21.484,41.016,0.000
1606137295.054,-107.910,-37.109,-22.949,-238.770,0.000
1606137295.058,-101.562,-32.227,-17.090,-233.398,0.000
1606137295.062,-18.066,-32.715,-15.137,59.570,0.000
1606137295.066,35.645,-33.203,-18.066,237.305,0.000
1606137295.070,-18.555,0.000,-33.203,75.195,0.000
1606137295.074,-107.910,-12.207,-41.016,-217.773,0.000
1606137295.078,-102.539,-50.293,-33.691,-267.090,0.000
1606137295.082,-15.137,-42.969,-26.367,14.160,0.000
1606137295.085,32.227,-36.621,-21.973,234.375,0.000
1606137295.089,-5.371,-39.551,-22.949,118.652,0.000
1606137295.093,-92.285,-42.969,-28.809,-188.965,0.000
1606137295.097,-125.000,-47.852,-32.227,-293.457,0.000
1606137295.101,-51.270,-45.410,-31.250,-44.434,0.000
1606137295.105,29.785,-37.109,-29.785,222.656,0.000
1606137295.109,1.953,-19.043,-41.992,147.949,0.000
1606137295.113,-92.773,-30.273,-51.758,-173.340,0.000
1606137295.117,-124.512,-57.129,-45.410,-309.082,0.000
1606137295.121,-52.734,-47.852,-35.156,-83.008,0.000
1606137295.124,30.762,-35.645,-37.598,196.289,0.000
1606137295.128,30.273,-31.250,-39.062,174.316,0.000
1606137295.132,-66.406,-37.109,-33.691,-130.371,0.000
1606137295.136,-109.863,-36.621,-25.391,-297.363,0.000
1606137295.140,-58.105,-35.156,-31.738,-127.930,0.000
1606137295.144,12.695,-36.621,-38.574,155.273,0.000
1606137295.148,22.461,-18.555,-28.320,201.172,0.000
1606137295.152,-54.199,-20.020,-21.973,-72.266,0.000
1606137295.156,-113.281,-38.086,-24.902,-287.598,0.000
1606137295.160,-77.637,-33.691,-32.227,-159.668,0.000
1606137295.164,15.625,-34.180,-21.973,146.484,0.000
1606137295.167,36.621,-10.254,-14.160,220.215,0.000
1606137295.171,-49.805,3.418,-31.250,-44.434,0.000
1606137295.175,-121.582,-43.457,-43.945,-285.156,0.000
1606137295.179,-88.379,-51.270,-38.574,-194.336,0.000
1606137295.183,9.766,-30.273,-16.113,128.418,0.000
1606137295.187,44.922,-30.273,-14.160,247.559,0.000
1606137295.191,-35.156,-43.457,-36.621,-2.441,0.000
1606137295.195,-110.352,-42.969,-37.109,-260.742,0.000
1606137295.199,-86.914,-33.691,-20.020,-207.031,0.000
1606137295.203,2.930,-42.480,-10.742,99.121,0.000
1606137295.207,49.316,-12.207,-17.578,254.395,0.000
1606137295.210,-10.254,15.625,-22.461,54.199,0.000
1606137295.214,-96.191,-24.414,-34.180,-240.723,0.000
1606137295.218,-72.754,-33.203,-33.691,-249.512,0.000
1606137295.222,17.090,-28.320,-19.531,44.922,0.000
1606137295.226,37.598,-25.391,-19.531,223.633,0.000
1606137295.230,-6.348,-30.273,-20.508,73.730,0.000
1606137295.234,-83.984,-44.922,-21.973,-213.379,0.000
1606137295.238,-101.562,-42.969,-34.668,-272.461,0.000
1606137295.242,-14.648,-28.809,-32.715,5.371,0.000
1606137295.246,59.570,-16.113,-16.113,241.699,0.000
1606137295.249,15.137,6.348,-34.180,122.559,0.000
1606137295.253,-81.543,-7.812,-53.223,-201.172,0.000
1606137295.257,-105.957,-40.039,-43.457,-307.129,0.000
1606137295.261,-19.043,-34.180,-34.180,-56.641,0.000
1606137295.265,51.758,-30.273,-35.156,201.172,0.000
1606137295.269,16.113,-33.203,-32.715,145.996,0.000
1606137295.273,-75.195,-42.969,-35.645,-154.785,0.000
1606137295.277,-110.840,-38.086,-41.016,-285.645,0.000
1606137295.281,-46.387,-35.645,-34.668,-70.801,0.000
1606137295.285,39.551,-38.574,-30.762,185.059,0.000
1606137295.289,26.367,-28.809,-26.367,174.805,0.000
1606137295.292,-72.754,-36.133,-31.250,-118.652,0.000
1606137295.296,-114.258,-40.527,-36.133,-311.523,0.000
1606137295.300,-60.059,-32.715,-30.762,-142.090,0.000
1606137295.304,18.555,-31.738,-23.926,155.273,0.000
1606137295.308,24.414,-21.973,-25.391,196.289,0.000
1606137295.312,-61.035,-30.273,-30.762,-83.008,0.000
1606137295.316,-124.023,-48.340,-28.320,-297.363,0.000
1606137295.320,-74.219,-46.875,-22.949,-166.016,0.000
1606137295.324,18.555,-30.762,-25.391,139.648,0.000
1606137295.328,35.156,-25.879,-26.855,212.891,0.000
1606137295.332,-39.062,-33.203,-29.785,-40.039,0.000
1606137295.335,-107.422,-41.016,-36.621,-268.555,0.000
1606137295.339,-72.754,-36.133,-31.738,-186.523,0.000
1606137295.343,19.043,-29.297,-28.809,111.328,0.000
1606137295.347,30.762,-21.484,-25.391,221.680,0.000
1606137295.351,-40.039,-12.695,-25.879,-9.766,0.000
1606137295.355,-100.098,-27.344,-29.297,-266.113,0.000
1606137295.359,-77.148,-34.180,-27.832,-227.051,0.000
1606137295.363,1.465,-33.203,-27.832,70.801,0.000
1606137295.367,47.363,-22.949,-19.043,229.004,0.000
1606137295.371,4.883,-21.484,-15.625,53.223,0.000
1606137295.374,-80.078,-36.621,-26.367,-226.074,0.000
1606137295.378,-88.379,-32.715,-24.414,-244.629,0.000
1606137295.382,-2.441,-29.297,-19.043,41.992,0.000
1606137295.386,52.734,-11.719,-25.391,237.793,0.000
1606137295.390,10.254,8.301,-29.297,88.867,0.000
1606137295.394,-75.684,-18.555,-33.691,-212.402,0.000
1606137295.398,-98.633,-33.691,-34.668,-271.973,0.000
1606137295.402,-14.648,-30.762,-26.367,-4.395,0.000
1606137295.406,38.086,-23.926,-25.879,223.633,0.000
1606137295.410,1.465,-27.344,-26.367,133.789,0.000
1606137295.414,-63.965,-35.156,-27.344,-161.621,0.000
1606137295.417,-97.168,-27.832,-31.250,-270.996,0.000
1606137295.421,-30.273,-23.926,-32.227,-42.969,0.000
1606137295.425,39.062,-18.066,-26.855,205.078,0.000
1606137295.429,12.695,-9.766,-23.926,144.531,0.000
1606137295.433,-74.219,-22.949,-23.438,-150.879,0.000
1606137295.437,-110.352,-36.621,-23.926,-285.645,0.000
1606137295.441,-45.898,-36.621,-31.738,-92.285,0.000
1606137295.445,35.156,-34.668,-29.785,181.152,0.000
1606137295.449,26.855,-3.418,-21.484,178.711,0.000
1606137295.453,-57.617,1.465,-27.344,-109.863,0.000
1606137295.457,-113.281,-37.598,-36.621,-290.527,0.000
1606137295.460,-67.871,-38.574,-35.156,-139.648,0.000
1606137295.464,29.297,-28.320,-31.250,144.043,0.000
1606137295.468,33.691,-26.367,-31.250,186.035,0.000
1606137295.472,-60.059,-34.180,-39.062,-92.773,0.000
1606137295.476,-107.910,-35.156,-40.527,-297.363,0.000
1606137295.480,-67.871,-28.320,-35.156,-168.945,0.000
1606137295.484,30.762,-32.227,-33.691,122.559,0.000
1606137295.488,55.664,-20.020,-25.879,207.031,0.000
1606137295.492,-34.668,-18.066,-21.484,-37.598,0.000
1606137295.496,-102.539,-34.180,-28.320,-268.066,0.000
1606137295.499,-79.102,-33.691,-36.133,-194.336,0.000
1606137295.503,9.277,-30.762,-30.762,106.445,0.000
1606137295.507,37.598,-28.809,-29.785,214.355,0.000
1606137295.511,-30.762,-33.691,-31.250,-15.625,0.000
1606137295.515,-99.609,-41.992,-31.250,-257.812,0.000
1606137295.519,-84.473,-37.109,-29.297,-230.469,0.000
1606137295.523,-3.418,-34.180,-15.137,65.430,0.000
1606137295.527,49.316,-19.043,-10.254,237.305,0.000
1606137295.531,-9.766,11.230,-16.602,56.152,0.000
1606137295.535,-111.328,-17.578,-20.508,-229.492,0.000
1606137295.539,-103.027,-42.480,-26.855,-258.301,0.000
1606137295.542,-10.742,-33.203,-29.785,22.461,0.000
1606137295.546,37.109,-34.668,-24.902,216.309,0.000
1606137295.550,-9.766,-36.621,-25.879,72.754,0.000
1606137295.554,-94.238,-40.039,-30.273,-218.750,0.000
1606137295.558,-107.910,-32.715,-29.297,-281.250,0.000
1606137295.562,-23.438,-27.344,-20.996,-16.113,0.000
1606137295.566,41.504,-24.902,-19.531,219.238,0.000
1606137295.570,16.113,-28.320,-34.180,138.184,0.000
1606137295.574,-74.707,-44.434,-38.086,-167.969,0.000
1606137295.578,-107.422,-47.852,-33.691,-294.434,0.000
1606137295.582,-37.109,-36.133,-33.203,-67.383,0.000
1606137295.585,33.691,-30.273,-18.066,194.824,0.000
1606137295.589,15.137,-15.137,-21.484,142.090,0.000
1606137295.593,-70.312,-23.438,-38.574,-162.598,0.000
1606137295.597,-98.633,-39.062,-35.156,-304.199,0.000
1606137295.601,-42.480,-32.227,-24.902,-98.633,0.000
1606137295.605,35.156,-23.926,-17.578,189.453,0.000
1606137295.609,31.250,-20.996,-20.996,190.430,0.000
1606137295.613,-64.941,-32.227,-30.273,-116.211,0.000
1606137295.617,-106.934,-34.668,-31.738,-295.898,0.000
1606137295.621,-42.969,-24.414,-29.785,-116.699,0.000
1606137295.624,38.086,-24.414,-25.391,164.551,0.000
1606137295.628,42.480,-20.996,-29.785,196.289,0.000
1606137295.632,-33.691,-21.973,-41.992,-77.148,0.000
1606137295.636,-85.449,-33.203,-35.645,-280.273,0.000
1606137295.640,-54.199,-32.715,-21.973,-161.621,0.000
1606137295.644,11.719,-25.879,-9.766,127.930,0.000
1606137295.648,27.344,-30.273,-5.859,213.867,0.000
1606137295.652,-46.875,-41.504,-17.578,-40.527,0.000
1606137295.656,-119.141,-46.387,-22.461,-290.039,0.000
1606137295.660,-96.191,-48.340,-18.066,-223.633,0.000
1606137295.664,8.789,-38.574,-5.371,89.844,0.000
1606137295.667,49.316,-14.160,-8.301,231.445,0.000
1606137295.671,-38.086,-16.113,-28.809,1.465,0.000
1606137295.675,-107.422,-36.621,-30.762,-276.367,0.000
1606137295.679,-80.078,-35.645,-23.926,-243.652,0.000
1606137295.683,8.789,-27.344,-16.602,61.035,0.000
1606137295.687,43.457,-23.926,-13.672,228.027,0.000
1606137295.691,-14.160,-25.391,-16.113,55.664,0.000
1606137295.695,-99.121,-33.203,-19.531,-235.352,0.000
1606137295.699,-96.680,-38.086,-22.949,-259.766,0.000
1606137295.703,0.488,-37.109,-20.020,25.391,0.000
1606137295.707,42.480,-27.344,-16.113,219.238,0.000
1606137295.710,4.395,-19.531,-16.113,87.891,0.000
1606137295.714,-72.266,-25.879,-21.484,-200.195,0.000
1606137295.718,-101.562,-32.715,-26.367,-282.227,0.000
1606137295.722,-34.668,-36.621,-27.344,-33.691,0.000
1606137295.726,24.902,-30.762,-29.297,198.242,0.000
1606137295.730,-5.859,-10.742,-33.691,113.770,0.000
1606137295.734,-93.750,-21.973,-40.527,-190.918,0.000
1606137295.738,-121.582,-41.016,-37.598,-305.664,0.000
1606137295.742,-51.758,-36.621,-35.645,-70.801,0.000
1606137295.746,22.949,-31.738,-31.738,188.477,0.000
1606137295.749,8.789,-32.715,-29.785,151.367,0.000
1606137295.753,-81.055,-42.480,-36.133,-149.902,0.000
1606137295.757,-124.023,-43.945,-32.715,-298.828,0.000
1606137295.761,-54.688,-34.668,-26.367,-102.539,0.000
1606137295.765,16.602,-33.203,-23.926,166.992,0.000
1606137295.769,5.371,-29.785,-23.438,169.434,0.000
1606137295.773,-72.754,-35.645,-31.250,-130.859,0.000
1606137295.777,-120.605,-46.387,-33.691,-312.988,0.000
1606137295.781,-67.871,-40.039,-26.367,-151.855,0.000
1606137295.785,21.484,-34.668,-20.508,135.742,0.000
1606137295.789,26.367,-35.156,-27.832,182.617,0.000
1606137295.792,-60.059,-40.527,-34.180,-89.844,0.000
1606137295.796,-104.492,-44.434,-35.156,-306.152,0.000
1606137295.800,-75.195,-44.434,-37.598,-199.707,0.000
1606137295.804,6.836,-37.109,-24.414,108.887,0.000
1606137295.808,37.598,-15.137,-21.973,214.844,0.000
1606137295.812,-36.621,-12.207,-30.273,-30.762,0.000
1606137295.816,-100.098,-30.762,-21.484,-277.832,0.000
1606137295.820,-81.543,-33.691,-23.926,-209.961,0.000
1606137295.824,3.906,-28.809,-27.832,91.797,0.000
1606137295.828,38.574,-29.785,-21.973,222.656,0.000
1606137295.832,-30.273,-32.715,-28.809,15.137,0.000
1606137295.835,-92.285,-34.180,-30.273,-245.605,0.000
1606137295.839,-76.172,-31.738,-20.996,-230.469,0.000
1606137295.843,-8.789,-25.391,-22.949,61.035,0.000
1606137295.847,38.574,-26.367,-25.879,234.375,0.000
1606137295.851,-7.324,-26.367,-20.508,69.336,0.000
1606137295.855,-82.520,-24.414,-23.438,-202.637,0.000
1606137295.859,-86.426,-28.809,-26.367,-240.234,0.000
1606137295.863,-3.418,-31.738,-20.996,31.250,0.000
1606137295.867,49.805,-25.391,-20.020,240.234,0.000
1606137295.871,2.441,-20.508,-24.902,110.840,0.000
1606137295.874,-86.914,-25.391,-37.109,-197.754,0.000
1606137295.878,-104.492,-29.297,-43.945,-276.855,0.000
1606137295.882,-28.320,-30.762,-37.109,-13.672,0.000
1606137295.886,32.715,-24.902,-27.344,222.168,0.000
1606137295.890,5.371,-25.391,-31.738,130.859,0.000
1606137295.894,-73.730,-27.344,-35.645,-167.969,0.000
1606137295.898,-100.586,-33.203,-32.227,-270.508,0.000
1606137295.902,-32.227,-33.203,-29.785,-41.016,0.000
1606137295.906,38.574,-26.855,-29.785,201.660,0.000
1606137295.910,12.207,-26.855,-38.574,148.438,0.000
1606137295.914,-61.523,-34.668,-39.062,-146.484,0.000
1606137295.917,-100.586,-42.480,-42.969,-287.109,0.000
1606137295.921,-61.523,-39.062,-42.969,-98.633,0.000
1606137295.925,24.414,-29.297,-32.715,178.223,0.000
1606137295.929,27.344,-25.391,-28.320,187.012,0.000
1606137295.933,-62.500,-32.715,-38.086,-101.074,0.000
1606137295.937,-119.629,-45.410,-47.852,-286.621,0.000
1606137295.941,-64.941,-44.434,-42.969,-139.160,0.000
1606137295.945,20.508,-34.668,-33.691,154.297,0.000
1606137295.949,26.367,-33.203,-33.203,209.473,0.000
1606137295.953,-49.805,-41.504,-39.551,-67.383,0.000
1606137295.957,-112.305,-42.969,-42.969,-290.527,0.000
1606137295.960,-78.613,-35.156,-41.016,-180.664,0.000
1606137295.964,10.742,-25.391,-26.855,121.094,0.000
1606137295.968,35.156,-27.832,-16.602,227.051,0.000
1606137295.972,-32.227,-34.668,-22.949,-5.859,0.000
1606137295.976,-102.051,-34.180,-36.621,-261.719,0.000
1606137295.980,-83.984,-28.320,-32.227,-209.961,0.000
1606137295.984,14.648,-20.508,-23.926,103.027,0.000
1606137295.988,48.340,-23.926,-35.645,238.770,0.000
1606137295.992,-20.508,-30.762,-34.180,25.391,0.000
1606137295.996,-96.191,-30.762,-25.879,-231.445,0.000
1606137295.999,-89.844,-28.320,-24.414,-223.145,0.000
1606137296.003,-3.906,-27.832,-26.367,57.617,0.000
1606137296.007,41.992,-27.344,-26.367,224.609,0.000
1606137296.011,-7.324,-28.320,-31.250,55.664,0.000
1606137296.015,-85.938,-34.180,-36.133,-227.539,0.000
1606137296.019,-90.332,-34.668,-39.551,-254.883,0.000
1606137296.023,-4.395,-30.762,-36.621,24.902,0.000
1606137296.027,50.781,-30.273,-31.738,220.703,0.000
1606137296.031,-0.488,-28.809,-34.180,88.379,0.000
1606137296.035,-85.938,-32.715,-34.668,-200.684,0.000
1606137296.039,-96.191,-37.598,-28.320,-272.461,0.000
1606137296.042,-16.113,-28.809,-24.414,-9.766,0.000
1606137296.046,52.246,-21.484,-26.855,228.027,0.000
1606137296.050,14.648,-26.367,-32.227,133.789,0.000
1606137296.054,-70.312,-36.621,-37.109,-178.711,0.000
1606137296.058,-87.402,-31.250,-30.762,-293.457,0.000
1606137296.062,-22.949,-24.902,-21.484,-63.477,0.000
1606137296.066,43.457,-25.391,-25.879,192.871,0.000
1606137296.070,19.043,-25.879,-23.926,154.785,0.000
1606137296.074,-75.195,-34.668,-18.555,-145.996,0.000
1606137296.078,-108.887,-31.738,-27.344,-291.992,0.000
1606137296.082,-49.316,-26.367,-30.273,-102.051,0.000
1606137296.085,31.250,-24.414,-22.949,174.316,0.000
1606137296.089,26.367,-22.949,-22.949,190.430,0.000
1606137296.093,-67.383,-33.691,-31.738,-112.305,0.000
1606137296.097,-112.305,-43.945,-30.762,-314.941,0.000
1606137296.101,-59.082,-34.180,-29.297,-162.109,0.000
1606137296.105,22.949,-25.391,-27.832,132.812,0.000
1606137296.109,40.527,-24.902,-21.973,188.965,0.000
1606137296.113,-40.039,-27.344,-22.949,-71.777,0.000
1606137296.117,-109.863,-29.297,-33.203,-291.504,0.000
1606137296.121,-77.148,-28.320,-36.133,-187.012,0.000
1606137296.124,8.301,-26.367,-27.832,117.676,0.000
1606137296.128,48.340,-24.902,-24.414,218.262,0.000
1606137296.132,-21.484,-26.367,-28.809,-15.625,0.000
1606137296.136,-103.027,-31.738,-20.996,-253.906,0.000
1606137296.140,-76.660,-30.762,-22.461,-207.031,0.000
1606137296.144,15.625,-22.949,-27.344,87.891,0.000
1606137296.148,47.852,-25.391,-29.785,231.445,0.000
1606137296.152,-20.508,-34.668,-34.668,27.832,0.000
1606137296.156,-89.355,-38.086,-26.367,-245.605,0.000
1606137296.160,-81.055,-32.715,-27.832,-231.934,0.000
1606137296.164,-3.906,-31.250,-28.320,73.730,0.000
1606137296.167,40.039,-26.367,-20.508,240.723,0.000
1606137296.171,-1.465,-24.902,-24.414,72.266,0.000
1606137296.175,-80.566,-35.645,-31.738,-211.426,0.000
1606137296.179,-95.215,-39.062,-29.785,-257.812,0.000
1606137296.183,-7.324,-27.832,-17.090,30.273,0.000
1606137296.187,51.758,-22.949,-14.648,242.188,0.000
1606137296.191,0.977,-36.621,-32.227,98.633,0.000
1606137296.195,-85.449,-48.340,-41.016,-203.125,0.000
1606137296.199,-105.957,-40.039,-37.109,-278.809,0.000
1606137296.203,-30.273,-27.832,-25.879,-20.508,0.000
1606137296.207,44.922,-21.973,-21.484,222.168,0.000
1606137296.210,22.461,-24.902,-22.949,140.625,0.000
1606137296.214,-70.312,-27.344,-27.832,-164.551,0.000
1606137296.218,-102.539,-34.180,-29.297,-276.367,0.000
1606137296.222,-37.598,-41.016,-20.508,-52.246,0.000
1606137296.226,29.297,-38.086,-22.949,200.684,0.000
1606137296.230,10.254,-37.109,-28.320,167.480,0.000
1606137296.234,-77.148,-32.227,-30.273,-136.230,0.000
1606137296.238,-113.281,-28.809,-38.086,-302.734,0.000
1606137296.242,-57.617,-30.762,-34.668,-120.117,0.000
1606137296.246,20.996,-25.879,-21.484,169.434,0.000
1606137296.249,16.602,-27.832,-27.344,184.570,0.000
1606137296.253,-70.801,-31.738,-37.109,-105.957,0.000
1606137296.257,-117.676,-34.668,-30.762,-295.898,0.000
1606137296.261,-63.965,-31.250,-23.926,-144.531,0.000
1606137296.265,29.297,-29.297,-27.344,158.691,0.000
1606137296.269,48.340,-38.086,-24.414,233.398,0.000
1606137296.273,-34.180,-32.227,-21.484,-26.855,0.000
1606137296.277,-99.609,-28.320,-34.180,-263.672,0.000
1606137296.281,-69.336,-31.250,-42.969,-187.012,0.000
1606137296.285,26.367,-15.137,-30.762,107.422,0.000
1606137296.289,53.223,-22.949,-28.809,212.402,0.000
1606137296.292,-28.320,-35.156,-32.715,-27.344,0.000
1606137296.296,-106.445,-21.484,-32.715,-276.367,0.000
1606137296.300,-80.566,-17.090,-30.273,-213.379,0.000
1606137296.304,17.578,-15.137,-28.320,107.910,0.000
1606137296.308,43.945,-17.090,-30.762,238.281,0.000
1606137296.312,-24.414,-21.484,-29.297,17.090,0.000
1606137296.316,-92.773,-25.391,-38.574,-258.789,0.000
1606137296.320,-83.984,-25.879,-39.551,-260.254,0.000
1606137296.324,-0.488,-25.391,-31.250,42.480,0.000
1606137296.328,42.969,-27.344,-32.227,226.562,0.000
1606137296.332,-9.277,-33.691,-40.527,62.012,0.000
1606137296.335,-87.891,-34.668,-41.504,-224.121,0.000
1606137296.339,-88.379,-23.926,-40.039,-254.883,0.000
1606137296.343,-0.977,-18.066,-40.039,21.973,0.000
1606137296.347,57.129,-15.625,-33.691,234.863,0.000
1606137296.351,12.695,-18.066,-29.785,117.676,0.000
1606137296.355,-73.730,-25.879,-30.762,-181.152,0.000
1606137296.359,-92.285,-25.391,-27.344,-271.973,0.000
1606137296.363,-16.602,-26.367,-25.879,-25.391,0.000
1606137296.367,44.922,-15.625,-22.461,217.773,0.000
1606137296.371,7.812,-11.719,-32.715,146.484,0.000
1606137296.374,-80.078,-32.715,-45.410,-164.551,0.000
1606137296.378,-106.934,-37.109,-41.016,-295.898,0.000
1606137296.382,-31.250,-31.738,-32.227,-69.336,0.000
1606137296.386,50.781,-17.090,-27.832,204.102,0.000
1606137296.390,33.203,-4.395,-25.879,169.922,0.000
1606137296.394,-57.617,-18.066,-31.250,-134.277,0.000
1606137296.398,-103.027,-28.809,-39.551,-306.152,0.000
1606137296.402,-43.457,-26.855,-38.086,-134.277,0.000
1606137296.406,41.016,-20.996,-28.320,161.133,0.000
1606137296.410,29.297,-23.438,-21.973,172.363,0.000
1606137296.414,-59.570,-28.809,-32.715,-121.094,0.000
1606137296.417,-106.934,-27.832,-34.668,-296.875,0.000
1606137296.421,-74.707,-33.203,-27.832,-160.645,0.000
1606137296.425,10.742,-30.273,-24.414,135.254,0.000
1606137296.429,34.668,-4.883,-25.391,208.984,0.000
1606137296.433,-45.410,-14.160,-27.832,-58.105,0.000
1606137296.437,-112.305,-35.156,-32.715,-296.875,0.000
1606137296.441,-69.824,-27.344,-29.297,-201.660,0.000
1606137296.445,25.391,-16.113,-21.484,111.328,0.000
1606137296.449,41.016,-18.066,-26.855,216.797,0.000
1606137296.453,-32.715,-29.297,-29.785,-22.949,0.000
1606137296.457,-101.074,-30.762,-26.367,-270.996,0.000
1606137296.460,-88.867,-24.902,-30.762,-217.773,0.000
1606137296.464,6.836,-24.902,-29.297,90.332,0.000
1606137296.468,47.852,-7.324,-23.438,229.492,0.000
1606137296.472,-22.461,-1.953,-26.367,18.555,0.000
1606137296.476,-105.957,-28.809,-31.738,-261.230,0.000
1606137296.480,-101.074,-28.320,-28.809,-257.324,0.000
1606137296.484,-15.137,-24.902,-22.949,35.645,0.000
1606137296.488,37.109,-28.320,-21.484,217.285,0.000
1606137296.492,-15.137,-27.832,-22.461,56.641,0.000
1606137296.496,-107.422,-40.039,-34.180,-239.746,0.000
1606137296.499,-116.211,-51.270,-38.574,-280.762,0.000
1606137296.503,-27.344,-41.016,-27.832,6.836,0.000
1606137296.507,38.086,-31.738,-22.461,230.469,0.000
1606137296.511,1.465,-30.273,-25.391,107.422,0.000
1606137296.515,-94.727,-35.156,-36.133,-205.566,0.000
1606137296.519,-119.141,-38.086,-41.504,-298.340,0.000
1606137296.523,-37.598,-36.621,-36.621,-49.805,0.000
1606137296.527,32.227,-26.367,-30.273,187.988,0.000
1606137296.531,1.953,-22.949,-29.297,117.676,0.000
1606137296.535,-84.961,-29.785,-31.738,-186.523,0.000
1606137296.539,-116.211,-32.715,-34.668,-316.895,0.000
1606137296.542,-42.480,-34.668,-29.785,-81.055,0.000
1606137296.546,48.340,-23.438,-20.508,199.219,0.000
1606137296.550,37.109,-19.043,-25.391,163.086,0.000
1606137296.554,-46.875,-20.508,-28.809,-131.836,0.000
1606137296.558,-82.520,-20.508,-31.250,-281.250,0.000
1606137296.562,-41.992,-28.320,-33.691,-108.398,0.000
1606137296.566,26.367,-29.785,-30.762,161.133,0.000
1606137296.570,27.832,-14.648,-37.109,178.711,0.000
1606137296.574,-57.617,-17.090,-39.062,-106.934,0.000
1606137296.578,-114.746,-33.203,-36.621,-314.941,0.000
1606137296.582,-72.266,-32.227,-39.551,-180.664,0.000
1606137296.585,13.184,-28.320,-35.645,122.559,0.000
1606137296.589,28.320,-23.926,-29.785,199.707,0.000
1606137296.593,-47.363,-30.762,-29.785,-54.199,0.000
1606137296.597,-109.863,-37.598,-37.598,-290.039,0.000
1606137296.601,-76.172,-33.691,-35.645,-196.289,0.000
1606137296.605,10.742,-34.668,-32.715,116.211,0.000
1606137296.609,37.598,-39.551,-28.809,226.074,0.000
1606137296.613,-28.320,-36.621,-28.320,-11.230,0.000
1606137296.617,-100.586,-38.574,-34.668,-274.902,0.000
1606137296.621,-83.008,-39.551,-29.297,-229.492,0.000
1606137296.624,4.395,-37.109,-29.785,76.172,0.000
1606137296.628,40.039,-36.133,-30.273,232.910,0.000
1606137296.632,-20.996,-39.551,-27.344,43.457,0.000
1606137296.636,-92.773,-42.480,-28.320,-229.492,0.000
1606137296.640,-83.008,-36.133,-22.949,-235.352,0.000
1606137296.644,6.348,-27.344,-21.484,59.570,0.000
1606137296.648,57.129,-23.926,-26.855,249.023,0.000
1606137296.652,9.766,-24.902,-30.273,96.680,0.000
1606137296.656,-77.637,-37.598,-35.645,-197.266,0.000
1606137296.660,-93.750,-40.039,-31.738,-259.277,0.000
1606137296.664,-9.277,-25.391,-23.926,12.695,0.000
1606137296.667,50.293,-27.832,-26.367,238.281,0.000
1606137296.671,6.348,-35.645,-28.809,114.746,0.000
1606137296.675,-75.684,-34.180,-25.391,-190.430,0.000
1606137296.679,-93.750,-33.691,-29.297,-287.598,0.000
1606137296.683,-15.625,-20.020,-20.508,-40.039,0.000
1606137296.687,44.922,-17.578,-14.648,210.938,0.000
1606137296.691,13.184,-24.414,-25.879,133.301,0.000
1606137296.695,-73.242,-29.297,-31.250,-172.852,0.000
1606137296.699,-109.863,-31.738,-31.738,-304.199,0.000
1606137296.703,-47.852,-34.180,-30.273,-89.355,0.000
1606137296.707,35.156,-27.832,-23.926,187.500,0.000
1606137296.710,24.414,-28.320,-22.461,163.086,0.000
1606137296.714,-66.406,-32.715,-27.344,-141.602,0.000
1606137296.718,-108.887,-30.273,-28.320,-305.176,0.000
1606137296.722,-54.688,-35.156,-28.320,-134.766,0.000
1606137296.726,28.320,-31.250,-22.461,148.438,0.000
1606137296.730,28.320,-25.879,-17.578,178.711,0.000
1606137296.734,-61.523,-33.691,-26.367,-113.770,0.000
1606137296.738,-123.047,-39.062,-34.180,-322.754,0.000
1606137296.742,-81.055,-32.715,-28.809,-188.477,0.000
1606137296.746,12.207,-21.973,-22.461,124.023,0.000
1606137296.749,28.320,-15.137,-31.250,197.754,0.000
1606137296.753,-47.363,-21.484,-35.156,-64.941,0.000
1606137296.757,-104.980,-32.227,-28.809,-291.016,0.000
1606137296.761,-67.871,-26.367,-23.438,-201.660,0.000
1606137296.765,21.973,-21.973,-20.508,105.469,0.000
1606137296.769,51.270,-17.090,-14.648,230.957,0.000
1606137296.773,-18.066,-23.926,-14.648,1.953,0.000
1606137296.777,-94.238,-32.715,-29.297,-263.672,0.000
1606137296.781,-79.590,-25.879,-38.574,-220.703,0.000
1606137296.785,9.277,-20.020,-38.086,76.172,0.000
1606137296.789,50.293,-15.137,-31.738,236.816,0.000
1606137296.792,-8.789,-18.555,-30.273,47.852,0.000
1606137296.796,-89.355,-30.762,-30.762,-246.094,0.000
1606137296.800,-90.332,-36.133,-35.156,-256.836,0.000
1606137296.804,-10.742,-32.715,-23.926,47.363,0.000
1606137296.808,42.969,-20.020,-10.254,246.582,0.000
1606137296.812,-1.465,-18.555,-25.391,88.379,0.000
1606137296.816,-82.520,-35.645,-34.180,-207.520,0.000
1606137296.820,-95.703,-41.992,-30.762,-268.555,0.000
1606137296.824,-24.414,-37.598,-29.297,0.000,0.000
1606137296.828,33.203,-33.203,-23.926,222.168,0.000
1606137296.832,-2.441,-41.016,-22.461,104.492,0.000
1606137296.835,-94.238,-46.875,-27.344,-201.660,0.000
1606137296.839,-123.047,-38.086,-28.320,-300.293,0.000
1606137296.843,-50.781,-37.109,-21.973,-59.082,0.000
1606137296.847,13.672,-22.949,-19.531,185.547,0.000
1606137296.851,-4.395,-6.836,-19.043,125.488,0.000
1606137296.855,-85.449,-30.762,-20.508,-169.922,0.000
1606137296.859,-125.000,-49.316,-27.832,-307.617,0.000
1606137296.863,-61.523,-47.852,-32.227,-96.191,0.000
1606137296.867,19.531,-40.039,-29.785,186.035,0.000
1606137296.871,16.113,-38.574,-22.949,177.734,0.000
1606137296.874,-66.406,-44.922,-25.879,-124.023,0.000
1606137296.878,-112.793,-41.992,-31.738,-300.781,0.000
1606137296.882,-60.547,-46.875,-26.855,-118.164,0.000
1606137296.886,30.273,-35.645,-16.602,183.105,0.000
1606137296.890,38.086,-18.066,-16.602,208.984,0.000
1606137296.894,-51.270,-36.621,-32.715,-83.984,0.000
1606137296.898,-109.375,-43.457,-34.180,-297.363,0.000
1606137296.902,-66.895,-39.062,-28.809,-171.387,0.000
1606137296.906,27.344,-32.715,-24.414,133.301,0.000
1606137296.910,47.852,-26.855,-21.484,210.449,0.000
1606137296.914,-37.109,-32.227,-28.320,-55.664,0.000
1606137296.917,-105.469,-37.109,-26.855,-299.805,0.000
1606137296.921,-81.543,-41.992,-29.785,-225.098,0.000
1606137296.925,10.742,-37.598,-23.438,89.844,0.000
1606137296.929,43.945,-34.180,-11.719,220.703,0.000
1606137296.933,-30.762,-36.621,-26.855,-9.277,0.000
1606137296.937,-94.238,-38.574,-34.180,-275.391,0.000
1606137296.941,-78.613,-40.527,-26.367,-245.605,0.000
1606137296.945,2.441,-33.691,-24.414,59.570,0.000
1606137296.949,47.363,-29.297,-22.461,225.586,0.000
1606137296.953,-11.719,-38.574,-22.461,34.668,0.000
1606137296.957,-93.750,-45.410,-22.461,-247.559,0.000
1606137296.960,-92.285,-35.156,-29.297,-268.555,0.000
1606137296.964,3.906,-26.367,-28.809,34.180,0.000
1606137296.968,58.594,-30.273,-25.391,237.793,0.000
1606137296.972,7.812,-30.762,-34.180,77.637,0.000
1606137296.976,-76.660,-30.273,-41.992,-217.285,0.000
1606137296.980,-93.262,-28.809,-41.504,-274.902,0.000
1606137296.984,-13.184,-23.438,-32.227,-3.418,0.000
1606137296.988,46.875,-11.230,-24.414,225.586,0.000
1606137296.992,2.441,-10.742,-31.738,114.258,0.000
1606137296.996,-93.750,-33.691,-36.621,-193.359,0.000
1606137296.999,-115.723,-41.504,-35.645,-293.457,0.000
1606137297.003,-33.691,-28.809,-37.598,-49.805,0.000
1606137297.007,40.527,-21.484,-28.809,208.496,0.000
1606137297.011,21.484,-28.320,-20.996,159.668,0.000
1606137297.015,-70.312,-33.691,-23.438,-145.020,0.000
1606137297.019,-106.934,-31.250,-23.926,-287.598,0.000
1606137297.023,-42.480,-31.738,-27.344,-85.938,0.000
1606137297.027,41.016,-23.926,-27.832,193.359,0.000
1606137297.031,32.715,-22.461,-30.273,175.293,0.000
1606137297.035,-59.082,-34.180,-31.738,-144.043,0.000
1606137297.039,-106.934,-38.574,-28.809,-312.988,0.000
1606137297.042,-58.594,-34.668,-26.367,-136.230,0.000
1606137297.046,25.391,-27.832,-23.438,148.438,0.000
1606137297.050,25.391,-32.715,-21.973,187.012,0.000
1606137297.054,-58.594,-44.434,-26.367,-91.309,0.000
1606137297.058,-117.188,-47.363,-35.156,-306.152,0.000
1606137297.062,-76.172,-41.504,-32.227,-179.688,0.000
1606137297.066,18.555,-32.715,-22.461,123.535,0.000
1606137297.070,42.480,-23.926,-18.066,210.938,0.000
1606137297.074,-33.203,-28.809,-22.461,-37.598,0.000
1606137297.078,-106.445,-34.180,-26.367,-283.691,0.000
1606137297.082,-85.449,-32.227,-27.832,-208.984,0.000
1606137297.085,-2.930,-31.738,-22.949,93.262,0.000
1606137297.089,30.273,-24.902,-14.648,222.656,0.000
1606137297.093,-37.598,-26.367,-23.438,-2.930,0.000
1606137297.097,-105.957,-33.691,-33.691,-273.438,0.000
1606137297.101,-92.285,-29.785,-24.902,-234.863,0.000
1606137297.105,-16.602,-30.762,-23.926,63.477,0.000
1606137297.109,25.391,-33.203,-31.250,219.727,0.000
1606137297.113,-33.203,-37.109,-32.227,37.598,0.000
1606137297.117,-111.328,-39.062,-33.203,-244.141,0.000
1606137297.121,-106.445,-35.645,-32.227,-257.812,0.000
1606137297.124,-18.555,-36.133,-24.902,29.785,0.000
1606137297.128,41.016,-23.438,-15.625,227.051,0.000
1606137297.132,-9.277,-22.949,-20.508,81.055,0.000
1606137297.136,-95.703,-37.598,-22.461,-210.938,0.000
1606137297.140,-102.051,-42.480,-25.391,-266.113,0.000
1606137297.144,-20.508,-38.086,-32.715,-0.977,0.000
1606137297.148,43.457,-27.832,-32.227,220.703,0.000
1606137297.152,7.812,-28.320,-26.855,122.070,0.000
1606137297.156,-82.520,-41.504,-26.367,-182.617,0.000
1606137297.160,-107.422,-41.016,-31.738,-286.621,0.000
1606137297.164,-32.715,-37.109,-27.832,-42.969,0.000
1606137297.167,44.434,-20.020,-21.973,221.191,0.000
1606137297.171,18.066,-14.648,-27.832,166.016,0.000
1606137297.175,-75.195,-35.156,-35.645,-150.391,0.000
1606137297.179,-103.516,-40.039,-31.250,-298.828,0.000
1606137297.183,-34.180,-39.551,-25.879,-92.773,0.000
1606137297.187,44.434,-32.715,-25.879,184.082,0.000
1606137297.191,40.039,-34.180,-25.391,178.223,0.000
1606137297.195,-50.781,-41.504,-25.391,-114.258,0.000
1606137297.199,-105.469,-39.551,-30.273,-292.480,0.000
1606137297.203,-57.129,-38.086,-33.203,-131.836,0.000
1606137297.207,26.855,-38.086,-31.738,159.180,0.000
1606137297.210,40.039,-36.621,-28.320,209.473,0.000
1606137297.214,-46.387,-41.504,-33.691,-72.754,0.000
1606137297.218,-110.840,-48.340,-39.062,-298.340,0.000
1606137297.222,-71.777,-44.434,-30.762,-178.711,0.000
1606137297.226,28.320,-30.762,-15.625,134.766,0.000
1606137297.230,51.758,-20.508,-18.066,224.121,0.000
1606137297.234,-31.738,-27.832,-28.320,-41.016,0.000
1606137297.238,-102.539,-42.480,-32.715,-281.250,0.000
1606137297.242,-82.520,-47.852,-31.250,-204.102,0.000
1606137297.246,12.207,-34.180,-22.949,111.328,0.000
1606137297.249,52.734,-25.391,-23.438,239.746,0.000
1606137297.253,-19.531,-33.203,-27.832,-2.441,0.000
1606137297.257,-99.609,-41.504,-32.715,-265.137,0.000
1606137297.261,-86.914,-35.645,-29.785,-225.586,0.000
1606137297.265,3.418,-21.973,-14.160,74.707,0.000
1606137297.269,42.969,-28.809,-14.160,235.840,0.000
1606137297.273,-17.578,-32.227,-26.367,49.316,0.000
1606137297.277,-94.238,-25.391,-28.809,-234.375,0.000
1606137297.281,-98.145,-25.391,-25.391,-257.812,0.000
1606137297.285,-2.441,-18.555,-25.391,30.273,0.000
1606137297.289,62.988,-17.090,-25.391,234.375,0.000
1606137297.292,8.789,-21.484,-23.438,95.215,0.000
1606137297.296,-80.078,-26.367,-27.832,-207.520,0.000
1606137297.300,-94.238,-30.762,-30.762,-283.691,0.000
1606137297.304,-18.555,-26.855,-25.391,-7.812,0.000
1606137297.308,48.828,-19.043,-22.461,231.934,0.000
1606137297.312,13.184,-22.949,-32.227,122.559,0.000
1606137297.316,-84.473,-37.598,-40.039,-194.336,0.000
1606137297.320,-108.398,-34.668,-34.180,-298.340,0.000
1606137297.324,-35.645,-25.879,-32.227,-56.641,0.000
1606137297.328,34.668,-31.250,-31.250,193.359,0.000
1606137297.332,21.484,-28.809,-31.738,145.020,0.000
1606137297.335,-66.895,-27.344,-31.738,-153.809,0.000
1606137297.339,-112.793,-30.273,-25.879,-301.270,0.000
1606137297.343,-56.152,-30.762,-26.855,-102.051,0.000
1606137297.347,27.344,-27.344,-26.855,167.480,0.000
1606137297.351,23.438,-20.020,-28.809,168.945,0.000
1606137297.355,-64.453,-26.855,-31.250,-113.281,0.000
1606137297.359,-114.258,-36.133,-33.203,-299.805,0.000
1606137297.363,-61.035,-31.738,-29.297,-143.555,0.000
1606137297.367,16.113,-25.879,-26.855,156.738,0.000
1606137297.371,22.461,-27.832,-37.109,206.543,0.000
1606137297.374,-51.270,-35.645,-38.574,-78.613,0.000
1606137297.378,-116.211,-38.086,-38.086,-297.852,0.000
1606137297.382,-77.148,-33.203,-37.598,-177.734,0.000
1606137297.386,20.508,-20.996,-30.273,125.488,0.000
1606137297.390,36.621,-22.461,-26.855,219.727,0.000
1606137297.394,-44.434,-34.668,-35.156,-25.879,0.000
1606137297.398,-108.398,-34.668,-36.621,-260.742,0.000
1606137297.402,-78.613,-30.273,-35.645,-188.477,0.000
1606137297.406,24.902,-29.297,-33.691,114.746,0.000
1606137297.410,43.945,-40.527,-29.297,242.676,0.000
1606137297.414,-39.062,-50.293,-29.297,8.789,0.000
1606137297.417,-103.516,-46.387,-30.762,-254.883,0.000
1606137297.421,-88.379,-36.133,-27.344,-235.352,0.000
1606137297.425,-0.488,-25.879,-18.066,59.082,0.000
1606137297.429,35.156,-19.531,-24.902,234.375,0.000
1606137297.433,-6.836,-20.508,-30.273,57.129,0.000
1606137297.437,-95.215,-27.832,-27.832,-231.445,0.000
1606137297.441,-105.469,-26.367,-35.645,-263.184,0.000
1606137297.445,-9.766,-27.344,-33.691,31.250,0.000
1606137297.449,22.461,-29.785,-29.785,239.746,0.000
1606137297.453,-20.996,-33.691,-29.297,104.492,0.000
1606137297.457,-91.309,-40.527,-24.414,-187.012,0.000
1606137297.460,-103.516,-45.410,-24.414,-272.949,0.000
1606137297.464,-24.414,-36.133,-22.949,-8.789,0.000
1606137297.468,44.434,-25.879,-22.949,230.469,0.000
1606137297.472,4.883,-24.902,-22.949,133.301,0.000
1606137297.476,-91.309,-30.762,-22.461,-175.293,0.000
1606137297.480,-117.188,-32.227,-21.973,-286.621,0.000
1606137297.484,-50.293,-29.785,-22.949,-53.223,0.000
1606137297.488,22.949,-28.809,-21.973,200.684,0.000
1606137297.492,12.695,-29.297,-18.555,163.574,0.000
1606137297.496,-72.266,-31.250,-25.879,-131.348,0.000
1606137297.499,-115.234,-33.691,-33.691,-291.504,0.000
1606137297.503,-62.988,-38.574,-32.227,-107.910,0.000
1606137297.507,24.902,-25.391,-28.809,178.711,0.000
1606137297.511,32.227,-10.254,-22.461,199.219,0.000
1606137297.515,-61.523,-31.738,-22.461,-98.145,0.000
1606137297.519,-115.234,-46.387,-26.855,-295.898,0.000
1606137297.523,-65.918,-39.062,-19.531,-143.555,0.000
1606137297.527,17.090,-32.227,-19.043,156.250,0.000
1606137297.531,30.762,-22.949,-18.066,212.402,0.000
1606137297.535,-48.340,-32.227,-17.578,-63.965,0.000
1606137297.539,-106.934,-41.504,-25.391,-279.297,0.000
1606137297.542,-70.801,-36.621,-30.273,-168.945,0.000
1606137297.546,10.254,-31.250,-29.785,123.535,0.000
1606137297.550,37.109,-26.855,-26.855,212.402,0.000
1606137297.554,-35.645,-32.715,-25.391,-34.180,0.000
1606137297.558,-109.375,-39.551,-23.438,-281.738,0.000
1606137297.562,-86.426,-38.086,-27.344,-216.309,0.000
1606137297.566,3.906,-32.715,-27.344,99.609,0.000
1606137297.570,42.480,-31.250,-16.602,231.445,0.000
1606137297.574,-20.996,-33.691,-22.949,17.578,0.000
1606137297.578,-101.074,-34.180,-38.086,-254.883,0.000
1606137297.582,-89.844,-35.156,-36.621,-233.887,0.000
1606137297.585,2.441,-32.227,-24.414,77.148,0.000
1606137297.589,52.734,-12.695,-21.973,250.488,0.000
1606137297.593,-4.395,-16.602,-25.879,69.336,0.000
1606137297.597,-95.215,-39.551,-28.320,-232.422,0.000
1606137297.601,-96.191,-36.133,-34.668,-269.043,0.000
1606137297.605,-11.230,-26.367,-29.785,21.973,0.000
1606137297.609,48.340,-20.996,-19.043,229.980,0.000
1606137297.613,2.441,-22.949,-20.020,88.867,0.000
1606137297.617,-91.309,-33.203,-31.738,-216.797,0.000
1606137297.621,-114.258,-35.156,-35.645,-276.367,0.000
1606137297.624,-20.508,-30.273,-32.227,-13.184,0.000
1606137297.628,55.664,-25.391,-23.438,217.285,0.000
1606137297.632,-14.648,-22.949,-21.973,132.812,0.000
1606137297.636,-97.656,-32.227,-23.438,-172.363,0.000
1606137297.640,-111.328,-38.574,-26.855,-290.039,0.000
1606137297.644,-33.203,-32.227,-31.738,-65.430,0.000
1606137297.648,40.039,-18.066,-24.902,201.172,0.000
1606137297.652,23.438,-17.090,-22.461,166.504,0.000
1606137297.656,-83.984,-32.715,-24.414,-142.578,0.000
1606137297.660,-121.582,-39.062,-30.273,-305.664,0.000
1606137297.664,-50.781,-35.645,-35.156,-121.582,0.000
1606137297.667,11.719,-35.645,-28.809,168.457,0.000
1606137297.671,15.625,-34.668,-21.973,195.312,0.000
1606137297.675,-48.340,-30.273,-26.855,-100.098,0.000
1606137297.679,-93.750,-26.855,-29.785,-291.992,0.000
1606137297.683,-49.805,-26.367,-25.879,-129.395,0.000
1606137297.687,42.480,-14.160,-17.090,170.898,0.000
1606137297.691,43.945,-3.418,-23.438,218.262,0.000
1606137297.695,-42.480,-23.438,-32.715,-64.941,0.000
1606137297.699,-102.539,-38.086,-31.250,-287.109,0.000
1606137297.703,-66.406,-34.668,-30.273,-175.781,0.000
1606137297.707,27.344,-28.809,-28.809,126.953,0.000
1606137297.710,52.246,-27.832,-31.738,226.562,0.000
1606137297.714,-20.996,-27.832,-35.156,-9.277,0.000
1606137297.718,-92.285,-32.227,-38.574,-264.648,0.000
1606137297.722,-76.172,-33.691,-34.668,-210.938,0.000
1606137297.726,21.484,-27.832,-24.414,108.887,0.000
1606137297.730,60.059,-27.344,-23.926,247.559,0.000
1606137297.734,-16.113,-26.367,-23.438,24.902,0.000
1606137297.738,-96.191,-33.203,-22.461,-242.188,0.000
1606137297.742,-79.590,-35.645,-28.809,-231.934,0.000
1606137297.746,15.625,-28.320,-32.715,62.988,0.000
1606137297.749,61.523,-28.320,-29.785,245.117,0.000
1606137297.753,-6.348,-27.344,-37.109,47.852,0.000
1606137297.757,-98.145,-28.809,-50.293,-256.348,0.000
1606137297.761,-93.750,-32.227,-51.270,-271.484,0.000
1606137297.765,-11.230,-31.250,-42.480,21.973,0.000
1606137297.769,32.227,-25.391,-34.668,223.145,0.000
1606137297.773,0.977,-17.578,-29.785,99.609,0.000
1606137297.777,-65.918,-20.508,-35.156,-191.406,0.000
1606137297.781,-85.938,-32.715,-42.480,-277.344,0.000
1606137297.785,-6.348,-29.785,-33.203,-26.367,0.000
1606137297.789,61.035,-40.039,-23.438,210.449,0.000
1606137297.792,25.391,-47.852,-31.738,138.672,0.000
1606137297.796,-55.176,-31.738,-40.527,-164.062,0.000
1606137297.800,-84.473,-32.227,-40.039,-290.527,0.000
1606137297.804,-29.785,-29.785,-32.227,-56.641,0.000
1606137297.808,48.828,-16.602,-25.879,219.238,0.000
1606137297.812,38.086,-16.113,-27.344,181.152,0.000
1606137297.816,-52.734,-24.414,-30.273,-133.301,0.000
1606137297.820,-87.891,-27.344,-32.227,-286.621,0.000
1606137297.824,-27.832,-25.391,-34.180,-91.309,0.000
1606137297.828,45.410,-25.879,-25.391,186.035,0.000
1606137297.832,44.922,-28.809,-19.043,202.148,0.000
1606137297.835,-38.086,-35.645,-31.738,-98.633,0.000
1606137297.839,-91.797,-36.133,-33.203,-287.109,0.000
1606137297.843,-49.316,-32.715,-27.832,-127.441,0.000
1606137297.847,34.180,-31.738,-27.344,157.227,0.000
1606137297.851,47.852,-21.973,-29.297,211.426,0.000
1606137297.855,-44.922,-23.926,-34.180,-63.477,0.000
1606137297.859,-98.633,-31.738,-41.504,-288.086,0.000
1606137297.863,-45.898,-31.250,-42.969,-179.688,0.000
1606137297.867,22.949,-20.996,-29.297,130.371,0.000
1606137297.871,42.969,-11.719,-26.367,240.234,0.000
1606137297.874,-24.414,-24.414,-33.691,-5.371,0.000
1606137297.878,-96.680,-32.715,-32.227,-268.555,0.000
1606137297.882,-75.684,-31.250,-26.855,-218.750,0.000
1606137297.886,9.766,-27.344,-20.020,94.238,0.000
1606137297.890,40.039,-23.438,-21.484,235.840,0.000
1606137297.894,-17.578,-25.879,-26.855,25.391,0.000
1606137297.898,-89.355,-31.250,-25.391,-239.746,0.000
1606137297.902,-77.148,-28.809,-21.973,-225.586,0.000
1606137297.906,7.812,-22.949,-25.391,67.383,0.000
1606137297.910,53.711,-23.438,-27.344,235.840,0.000
1606137297.914,5.859,-25.391,-24.414,65.430,0.000
1606137297.917,-73.242,-21.973,-29.297,-218.262,0.000
1606137297.921,-82.031,-22.461,-30.762,-256.348,0.000
1606137297.925,-2.930,-22.949,-24.414,30.273,0.000
1606137297.929,54.199,-23.926,-22.461,237.305,0.000
1606137297.933,12.207,-22.949,-25.391,100.586,0.000
1606137297.937,-72.754,-19.043,-29.785,-201.172,0.000
1606137297.941,-87.402,-24.414,-28.809,-279.297,0.000
1606137297.945,-9.766,-20.508,-21.484,-20.020,0.000
1606137297.949,59.082,-12.207,-21.484,226.562,0.000
1606137297.953,35.645,-15.625,-21.973,155.273,0.000
1606137297.957,-52.734,-24.414,-29.785,-156.250,0.000
1606137297.960,-91.309,-23.926,-29.297,-284.668,0.000
1606137297.964,-22.949,-15.625,-21.484,-53.711,0.000
1606137297.968,45.410,-10.742,-27.344,201.660,0.000
1606137297.972,15.137,-19.043,-31.250,152.344,0.000
1606137297.976,-71.777,-27.344,-30.762,-144.043,0.000
1606137297.980,-107.910,-28.320,-25.879,-301.270,0.000
1606137297.984,-46.387,-27.344,-23.438,-104.980,0.000
1606137297.988,30.762,-27.344,-30.762,177.734,0.000
1606137297.992,28.320,-27.344,-25.879,182.617,0.000
1606137297.996,-54.688,-26.855,-20.508,-93.262,0.000
1606137297.999,-104.980,-31.250,-22.949,-281.250,0.000
1606137298.003,-56.641,-29.785,-20.996,-140.137,0.000
1606137298.007,35.156,-26.855,-16.602,165.527,0.000
1606137298.011,43.945,-31.738,-27.344,224.121,0.000
1606137298.015,-42.969,-26.367,-37.598,-60.059,0.000
1606137298.019,-103.516,-25.391,-36.133,-283.691,0.000
1606137298.023,-58.105,-29.785,-35.645,-186.523,0.000
1606137298.027,28.809,-30.762,-37.598,112.305,0.000
1606137298.031,35.156,-31.738,-36.133,217.773,0.000
1606137298.035,-35.645,-30.762,-31.250,-22.949,0.000
1606137298.039,-102.539,-37.598,-32.227,-282.715,0.000
1606137298.042,-76.660,-32.715,-34.180,-227.051,0.000
1606137298.046,18.555,-21.484,-27.832,91.797,0.000
1606137298.050,51.758,-23.926,-23.438,227.539,0.000
1606137298.054,-15.625,-26.367,-24.414,15.625,0.000
1606137298.058,-82.520,-23.926,-28.320,-250.000,0.000
1606137298.062,-77.148,-24.414,-28.809,-248.047,0.000
1606137298.066,20.996,-24.902,-24.902,50.293,0.000
1606137298.070,73.730,-30.273,-23.438,242.188,0.000
1606137298.074,1.465,-26.367,-25.391,76.660,0.000
1606137298.078,-85.938,-24.902,-40.039,-232.910,0.000
1606137298.082,-89.355,-30.762,-46.875,-278.809,0.000
1606137298.085,-1.465,-23.926,-34.180,14.160,0.000
1606137298.089,44.434,-17.578,-26.367,238.281,0.000
1606137298.093,0.488,-22.949,-35.156,108.398,0.000
1606137298.097,-90.332,-34.668,-41.992,-209.961,0.000
1606137298.101,-108.398,-33.691,-40.039,-290.527,0.000
1606137298.105,-20.020,-22.461,-35.156,-11.719,0.000
1606137298.109,42.969,-15.625,-35.645,229.980,0.000
1606137298.113,7.812,-26.855,-36.621,134.277,0.000
1606137298.117,-85.449,-41.504,-39.551,-183.594,0.000
1606137298.121,-116.211,-40.527,-40.039,-304.199,0.000
1606137298.124,-39.062,-34.668,-30.762,-74.707,0.000
1606137298.128,43.457,-30.762,-20.020,194.824,0.000
1606137298.132,26.855,-33.203,-22.949,172.852,0.000
1606137298.136,-68.848,-39.551,-35.156,-132.812,0.000
1606137298.140,-117.188,-42.969,-37.598,-299.805,0.000
1606137298.144,-51.758,-40.527,-26.855,-112.793,0.000
1606137298.148,29.297,-26.367,-26.855,178.223,0.000
1606137298.152,29.785,-23.438,-30.273,205.078,0.000
1606137298.156,-53.223,-36.133,-28.809,-98.633,0.000
1606137298.160,-109.863,-37.109,-31.738,-304.688,0.000
1606137298.164,-60.059,-39.062,-30.273,-154.785,0.000
1606137298.167,25.879,-31.738,-30.762,146.484,0.000
1606137298.171,38.086,-21.973,-33.691,208.984,0.000
1606137298.175,-41.992,-31.738,-30.273,-67.383,0.000
1606137298.179,-111.816,-38.086,-36.133,-304.688,0.000
1606137298.183,-75.195,-35.645,-35.645,-201.172,0.000
1606137298.187,14.648,-36.133,-26.855,119.629,0.000
1606137298.191,36.133,-35.156,-28.809,225.586,0.000
1606137298.195,-26.855,-34.668,-28.320,-15.625,0.000
1606137298.199,-96.191,-40.527,-24.414,-268.555,0.000
1606137298.203,-76.660,-36.621,-28.809,-221.191,0.000
1606137298.207,11.719,-37.109,-31.738,84.961,0.000
1606137298.210,47.363,-42.480,-31.250,234.863,0.000
1606137298.214,-4.395,-32.227,-28.809,36.133,0.000
1606137298.218,-81.543,-28.809,-26.367,-247.559,0.000
1606137298.222,-81.543,-32.227,-25.879,-252.930,0.000
1606137298.226,4.883,-35.156,-24.414,46.875,0.000
1606137298.230,52.246,-31.250,-20.508,238.281,0.000
1606137298.234,-3.906,-27.344,-25.879,71.289,0.000
1606137298.238,-93.262,-34.668,-27.832,-236.816,0.000
1606137298.242,-96.680,-35.645,-21.973,-279.297,0.000
1606137298.246,-2.930,-22.949,-19.043,19.531,0.000
1606137298.249,46.387,-29.297,-23.438,226.562,0.000
1606137298.253,-8.301,-37.109,-29.785,80.078,0.000
1606137298.257,-99.609,-34.668,-25.879,-226.562,0.000
1606137298.261,-118.652,-36.133,-27.344,-305.664,0.000
1606137298.265,-29.297,-31.738,-33.203,-40.527,0.000
1606137298.269,47.363,-25.879,-33.203,213.867,0.000
1606137298.273,21.484,-24.414,-25.879,138.184,0.000
1606137298.277,-70.312,-29.297,-25.391,-170.898,0.000
1606137298.281,-106.934,-37.109,-31.250,-304.199,0.000
1606137298.285,-38.086,-35.645,-26.855,-88.867,0.000
1606137298.289,40.039,-21.973,-25.879,193.359,0.000
1606137298.292,29.785,-24.414,-26.855,183.594,0.000
1606137298.296,-66.406,-37.109,-35.156,-132.324,0.000
1606137298.300,-108.887,-33.691,-33.203,-304.199,0.000
1606137298.304,-43.457,-29.297,-24.414,-107.910,0.000
1606137298.308,35.645,-31.250,-32.227,178.711,0.000
1606137298.312,28.809,-26.855,-33.203,198.730,0.000
1606137298.316,-62.988,-31.250,-30.762,-95.703,0.000
1606137298.320,-115.723,-43.945,-35.156,-300.781,0.000
1606137298.324,-65.430,-37.598,-31.738,-147.461,0.000
1606137298.328,16.602,-33.203,-31.250,155.273,0.000
1606137298.332,34.180,-35.645,-26.855,225.586,0.000
1606137298.335,-43.457,-34.180,-22.461,-38.574,0.000
1606137298.339,-113.281,-38.574,-32.715,-277.832,0.000
1606137298.343,-77.637,-39.062,-39.551,-183.105,0.000
1606137298.347,9.766,-36.133,-32.715,121.582,0.000
1606137298.351,30.762,-40.527,-29.785,221.191,0.000
1606137298.355,-48.340,-39.551,-34.668,-22.949,0.000
1606137298.359,-120.605,-40.527,-33.203,-280.762,0.000
1606137298.363,-98.145,-39.551,-22.949,-231.934,0.000
1606137298.367,-2.930,-35.156,-18.555,80.566,0.000
1606137298.371,50.293,-28.809,-16.113,246.582,0.000
1606137298.374,2.930,-23.438,-20.020,36.133,0.000
1606137298.378,-99.121,-27.832,-30.762,-255.859,0.000
1606137298.382,-106.934,-29.297,-32.227,-250.977,0.000
1606137298.386,-2.441,-24.414,-19.531,53.223,0.000
1606137298.390,47.363,-24.414,-17.090,239.746,0.000
1606137298.394,-5.859,-23.926,-27.344,75.195,0.000
1606137298.398,-88.867,-21.973,-31.738,-226.074,0.000
1606137298.402,-93.750,-23.438,-28.809,-282.227,0.000
1606137298.406,-4.883,-18.066,-22.949,7.812,0.000
1606137298.410,57.129,-12.695,-24.414,231.934,0.000
1606137298.414,8.789,-20.020,-21.973,112.305,0.000
1606137298.417,-86.426,-29.297,-21.973,-195.312,0.000
1606137298.421,-108.398,-31.250,-28.809,-292.480,0.000
1606137298.425,-28.320,-22.461,-28.809,-36.133,0.000
1606137298.429,44.922,-16.602,-25.391,207.520,0.000
1606137298.433,14.160,-20.020,-27.832,131.348,0.000
1606137298.437,-82.031,-31.738,-27.344,-180.664,0.000
1606137298.441,-114.258,-36.621,-28.320,-317.383,0.000
1606137298.445,-45.410,-30.762,-20.020,-90.332,0.000
1606137298.449,33.691,-20.508,-15.625,192.871,0.000
1606137298.453,24.414,-21.484,-30.273,170.410,0.000
1606137298.457,-66.406,-31.738,-32.227,-136.719,0.000
1606137298.460,-115.723,-36.133,-28.809,-314.453,0.000
1606137298.464,-54.688,-30.273,-24.902,-125.488,0.000
1606137298.468,31.738,-29.785,-20.508,175.293,0.000
1606137298.472,26.367,-37.109,-20.020,199.707,0.000
1606137298.476,-59.570,-38.086,-25.879,-93.262,0.000
1606137298.480,-105.469,-34.180,-24.414,-297.852,0.000
1606137298.484,-56.152,-37.109,-19.531,-159.668,0.000
1606137298.488,24.902,-32.227,-25.391,140.625,0.000
1606137298.492,34.668,-28.809,-24.902,207.031,0.000
1606137298.496,-43.457,-41.992,-26.367,-56.641,0.000
1606137298.499,-101.074,-38.086,-35.156,-279.785,0.000
1606137298.503,-68.848,-38.574,-31.250,-189.453,0.000
1606137298.507,14.648,-39.551,-28.320,107.910,0.000
1606137298.511,41.992,-28.320,-26.855,229.980,0.000
1606137298.515,-35.156,-29.785,-30.273,-5.371,0.000
1606137298.519,-109.863,-32.715,-27.344,-276.367,0.000
1606137298.523,-87.891,-24.902,-27.832,-234.375,0.000
1606137298.527,4.395,-22.949,-34.180,82.031,0.000
1606137298.531,39.551,-34.180,-33.691,234.863,0.000
1606137298.535,-29.785,-37.598,-32.227,20.020,0.000
1606137298.539,-115.723,-37.109,-33.691,-268.066,0.000
1606137298.542,-107.422,-41.504,-44.434,-268.066,0.000
1606137298.546,-14.160,-36.621,-38.086,40.527,0.000
1606137298.550,51.758,-28.320,-29.785,228.027,0.000
1606137298.554,-1.465,-29.297,-33.203,65.430,0.000
1606137298.558,-100.098,-32.227,-35.156,-219.727,0.000
1606137298.562,-102.051,-29.297,-41.016,-270.020,0.000
1606137298.566,-20.020,-24.414,-32.715,2.930,0.000
1606137298.570,49.805,-20.508,-23.926,233.887,0.000
1606137298.574,16.602,-24.414,-25.879,134.766,0.000
1606137298.578,-85.449,-34.668,-29.297,-180.664,0.000
1606137298.582,-116.211,-41.504,-30.762,-290.039,0.000
1606137298.585,-35.156,-39.062,-29.785,-31.250,0.000
1606137298.589,47.363,-38.086,-26.367,230.957,0.000
1606137298.593,23.438,-31.250,-25.879,159.668,0.000
1606137298.597,-69.824,-28.809,-34.668,-157.715,0.000
1606137298.601,-104.004,-33.203,-33.691,-298.828,0.000
1606137298.605,-33.691,-26.855,-27.832,-76.172,0.000
1606137298.609,55.664,-19.043,-21.484,210.938,0.000
1606137298.613,35.156,-28.320,-21.484,188.965,0.000
1606137298.617,-68.359,-41.992,-22.949,-123.047,0.000
1606137298.621,-114.746,-43.457,-20.020,-291.992,0.000
1606137298.624,-63.965,-39.551,-25.879,-123.047,0.000
1606137298.628,15.625,-31.738,-20.996,158.203,0.000
1606137298.632,19.043,-24.902,-13.672,192.871,0.000
1606137298.636,-61.523,-33.691,-16.113,-88.867,0.000
1606137298.640,-114.258,-37.109,-20.996,-293.457,0.000
1606137298.644,-65.918,-26.855,-18.555,-160.645,0.000
1606137298.648,39.551,-24.414,-15.137,149.414,0.000
1606137298.652,43.457,-21.484,-16.113,227.539,0.000
1606137298.656,-53.223,-27.832,-18.555,-49.805,0.000
1606137298.660,-108.887,-34.668,-17.578,-285.645,0.000
1606137298.664,-69.824,-27.344,-16.602,-179.688,0.000
1606137298.667,24.414,-19.531,-22.949,126.953,0.000
1606137298.671,50.781,-14.160,-22.949,231.934,0.000
1606137298.675,-23.438,-26.367,-23.438,0.000,0.000
1606137298.679,-104.980,-38.574,-32.715,-263.184,0.000
1606137298.683,-90.332,-38.574,-28.809,-220.215,0.000
1606137298.687,0.977,-30.273,-20.996,91.797,0.000
1606137298.691,41.504,-24.414,-22.461,243.652,0.000
1606137298.695,-23.438,-35.645,-24.902,32.715,0.000
1606137298.699,-108.398,-35.645,-27.832,-250.000,0.000
1606137298.703,-108.887,-37.109,-33.203,-260.254,0.000
1606137298.707,-21.973,-33.203,-32.715,29.785,0.000
1606137298.710,38.574,-22.949,-27.832,232.422,0.000
1606137298.714,-6.348,-32.715,-24.902,84.961,0.000
1606137298.718,-97.168,-44.922,-30.762,-221.680,0.000
1606137298.722,-107.422,-43.457,-30.762,-282.715,0.000
1606137298.726,-19.043,-34.180,-25.879,0.000,0.000
1606137298.730,37.109,-22.461,-27.344,230.469,0.000
1606137298.734,-4.395,-23.438,-25.391,118.652,0.000
1606137298.738,-90.332,-35.156,-25.391,-194.336,0.000
1606137298.742,-114.746,-41.016,-33.203,-300.293,0.000
1606137298.746,-31.250,-32.715,-32.715,-42.969,0.000
1606137298.749,47.852,-22.949,-22.949,219.238,0.000
1606137298.753,20.996,-28.320,-20.020,155.273,0.000
1606137298.757,-70.312,-35.156,-21.484,-150.391,0.000
1606137298.761,-104.980,-36.621,-28.320,-287.109,0.000
1606137298.765,-38.086,-32.227,-23.438,-68.848,0.000
1606137298.769,45.898,-24.414,-15.137,206.543,0.000
1606137298.773,43.945,-21.484,-22.949,177.246,0.000
1606137298.777,-43.457,-23.926,-25.879,-120.117,0.000
1606137298.781,-97.168,-27.832,-27.832,-291.992,0.000
1606137298.785,-37.598,-24.902,-24.414,-112.305,0.000
1606137298.789,52.246,-20.020,-12.695,189.941,0.000
1606137298.792,51.270,-18.555,-13.184,222.656,0.000
1606137298.796,-38.086,-26.367,-28.320,-70.801,0.000
1606137298.800,-104.980,-31.250,-32.227,-289.062,0.000
1606137298.804,-65.918,-28.320,-26.367,-158.203,0.000
1606137298.808,44.434,-13.672,-19.531,149.414,0.000
1606137298.812,57.129,-8.789,-19.531,225.586,0.000
1606137298.816,-36.133,-24.902,-23.926,-44.922,0.000
1606137298.820,-97.168,-35.645,-24.414,-285.156,0.000
