timestamps,TP9,AF7,AF8,TP10,Right AUX
1606134757.875,0.000,0.000,0.000,0.000,0.000
1606134757.879,0.000,0.000,0.000,0.977,0.000
1606134757.883,-3.906,-1.465,-1.465,-8.789,0.000
1606134757.887,5.371,2.441,2.441,10.254,0.000
1606134757.891,-25.391,-15.625,-14.160,-41.016,0.000
1606134757.894,-107.910,-40.527,-35.156,-265.625,0.000
1606134757.898,-101.074,-36.621,-30.273,-271.484,0.000
1606134757.902,-16.602,-30.762,-27.344,40.527,0.000
1606134757.906,34.668,-29.297,-23.438,237.305,0.000
1606134757.910,-14.648,-34.668,-23.438,58.594,0.000
1606134757.914,-97.168,-35.156,-32.715,-257.812,0.000
1606134757.918,-92.285,-29.297,-34.668,-295.898,0.000
1606134757.922,-1.953,-19.043,-27.344,26.855,0.000
1606134757.926,47.363,-21.973,-25.879,253.906,0.000
1606134757.930,-4.883,-31.738,-35.156,97.168,0.000
1606134757.933,-94.238,-34.668,-37.598,-228.516,0.000
1606134757.937,-110.352,-34.180,-34.668,-316.406,0.000
1606134757.941,-28.320,-26.367,-29.785,-12.695,0.000
1606134757.945,38.086,-20.020,-25.391,262.695,0.000
1606134757.949,8.789,-23.438,-35.645,143.555,0.000
1606134757.953,-78.613,-26.855,-41.016,-205.078,0.000
1606134757.957,-120.117,-23.438,-39.551,-342.773,0.000
1606134757.961,-53.711,-25.391,-32.715,-87.402,0.000
1606134757.965,35.156,-28.809,-30.273,212.891,0.000
1606134757.969,24.414,-30.273,-33.691,166.504,0.000
1606134757.973,-81.543,-32.715,-38.574,-173.340,0.000
1606134757.976,-130.859,-36.133,-29.785,-321.777,0.000
1606134757.980,-49.805,-25.879,-23.926,-106.934,0.000
1606134757.984,31.738,-12.695,-33.691,155.273,0.000
1606134757.988,1.465,-20.020,-29.297,169.922,0.000
1606134757.992,-87.402,-17.090,-23.438,-102.051,0.000
1606134757.996,-116.699,-8.301,-36.133,-312.988,0.000
1606134758.000,-60.059,-22.949,-40.527,-173.340,0.000
1606134758.004,22.949,-25.879,-34.180,156.738,0.000
1606134758.008,22.461,-20.020,-29.785,213.379,0.000
1606134758.012,-81.055,-39.062,-26.855,-82.520,0.000
1606134758.016,-142.090,-43.945,-30.273,-321.289,0.000
1606134758.019,-91.309,-31.250,-30.762,-212.402,0.000
1606134758.023,-11.230,-37.109,-20.020,130.371,0.000
1606134758.027,13.184,-33.203,-17.090,229.980,0.000
1606134758.031,-43.457,-25.391,-25.391,-52.734,0.000
1606134758.035,-111.816,-40.039,-23.438,-286.621,0.000
1606134758.039,-91.309,-30.762,-19.043,-206.055,0.000
1606134758.043,-14.160,-16.113,-26.367,84.961,0.000
1606134758.047,30.762,-26.367,-27.832,222.168,0.000
1606134758.051,-32.227,-34.180,-29.785,-14.648,0.000
1606134758.055,-132.324,-37.598,-28.320,-293.945,0.000
1606134758.058,-117.188,-41.992,-27.832,-242.676,0.000
1606134758.062,-21.973,-39.551,-29.785,76.660,0.000
1606134758.066,37.109,-28.809,-26.367,244.629,0.000
1606134758.070,-2.441,-24.414,-26.855,55.664,0.000
1606134758.074,-92.773,-34.668,-26.855,-248.535,0.000
1606134758.078,-112.793,-43.945,-24.414,-286.133,0.000
1606134758.082,-35.156,-37.109,-26.855,6.836,0.000
1606134758.086,29.785,-30.762,-18.555,254.395,0.000
1606134758.090,-10.742,-22.461,-31.738,96.191,0.000
1606134758.094,-106.445,-20.508,-49.316,-266.113,0.000
1606134758.098,-119.141,-29.785,-47.363,-330.566,0.000
1606134758.101,-28.320,-28.320,-35.645,-20.508,0.000
1606134758.105,28.320,-30.273,-29.297,222.656,0.000
1606134758.109,-5.371,-31.250,-26.855,104.980,0.000
1606134758.113,-95.703,-24.414,-33.691,-225.098,0.000
1606134758.117,-128.906,-25.391,-35.645,-343.750,0.000
1606134758.121,-53.223,-23.926,-27.832,-83.984,0.000
1606134758.125,23.926,-21.973,-30.273,191.895,0.000
1606134758.129,21.973,-29.785,-26.855,166.016,0.000
1606134758.133,-57.617,-28.320,-28.809,-133.301,0.000
1606134758.137,-102.539,-25.391,-44.922,-324.707,0.000
1606134758.141,-45.898,-16.113,-40.039,-120.605,0.000
1606134758.144,11.719,-12.695,-26.367,196.289,0.000
1606134758.148,6.348,-20.996,-31.250,198.730,0.000
1606134758.152,-66.895,-24.414,-36.133,-111.816,0.000
1606134758.156,-114.746,-33.691,-35.156,-294.434,0.000
1606134758.160,-61.523,-35.645,-32.227,-117.188,0.000
1606134758.164,24.902,-26.367,-28.320,174.805,0.000
1606134758.168,27.344,-30.762,-25.879,231.445,0.000
1606134758.172,-53.223,-38.086,-25.391,-60.547,0.000
1606134758.176,-94.727,-34.180,-31.250,-268.555,0.000
1606134758.180,-50.781,-29.297,-30.762,-126.465,0.000
1606134758.183,20.020,-26.367,-25.391,159.180,0.000
1606134758.187,44.434,-30.762,-30.273,252.441,0.000
1606134758.191,-38.086,-17.578,-38.086,-25.879,0.000
1606134758.195,-118.652,-18.066,-37.109,-285.156,0.000
1606134758.199,-81.543,-33.691,-36.133,-192.383,0.000
1606134758.203,11.719,-29.297,-27.832,134.277,0.000
1606134758.207,41.016,-28.320,-20.508,260.742,0.000
1606134758.211,-21.973,-33.691,-26.855,16.113,0.000
1606134758.215,-102.051,-39.062,-37.109,-269.531,0.000
1606134758.219,-99.121,-38.086,-34.180,-247.559,0.000
1606134758.223,-16.602,-35.645,-22.461,81.055,0.000
1606134758.226,31.250,-35.645,-20.020,268.555,0.000
1606134758.230,-19.043,-41.504,-28.809,60.059,0.000
1606134758.234,-104.004,-47.852,-34.668,-254.395,0.000
1606134758.238,-101.562,-39.062,-36.133,-274.902,0.000
1606134758.242,-3.418,-21.484,-29.785,48.340,0.000
1606134758.246,40.527,-29.297,-25.391,267.578,0.000
1606134758.250,-5.371,-38.086,-26.367,106.934,0.000
1606134758.254,-86.426,-43.945,-27.344,-213.379,0.000
1606134758.258,-93.750,-41.992,-32.715,-282.227,0.000
1606134758.262,-17.578,-33.203,-36.133,5.371,0.000
1606134758.266,41.016,-29.785,-28.320,252.441,0.000
1606134758.269,5.371,-29.785,-23.438,149.414,0.000
1606134758.273,-81.543,-29.297,-40.039,-176.758,0.000
1606134758.277,-102.539,-30.273,-46.387,-298.340,0.000
1606134758.281,-33.691,-30.762,-33.691,-47.363,0.000
1606134758.285,38.086,-26.367,-26.367,232.910,0.000
1606134758.289,19.531,-29.785,-29.297,178.711,0.000
1606134758.293,-64.941,-33.203,-29.785,-146.973,0.000
1606134758.297,-102.051,-38.574,-27.832,-295.898,0.000
1606134758.301,-46.875,-30.762,-25.879,-76.660,0.000
1606134758.305,31.738,-16.602,-21.973,213.379,0.000
1606134758.308,37.109,-19.531,-23.926,196.777,0.000
1606134758.312,-38.574,-21.484,-32.227,-125.977,0.000
1606134758.316,-85.449,-26.855,-35.156,-305.176,0.000
1606134758.320,-41.992,-10.254,-27.832,-109.863,0.000
1606134758.324,35.156,-5.371,-24.902,188.965,0.000
1606134758.328,37.598,-24.414,-26.367,219.727,0.000
1606134758.332,-43.945,-27.832,-30.762,-78.613,0.000
1606134758.336,-97.656,-27.344,-33.691,-303.223,0.000
1606134758.340,-68.359,-27.344,-26.855,-169.922,0.000
1606134758.344,34.668,-25.391,-24.414,151.367,0.000
1606134758.348,57.617,-21.973,-26.855,248.535,0.000
1606134758.351,-33.203,-29.785,-25.879,-24.902,0.000
1606134758.355,-81.055,-32.227,-20.020,-273.926,0.000
1606134758.359,-51.758,-22.949,-23.926,-171.875,0.000
1606134758.363,30.273,-15.137,-25.879,155.762,0.000
1606134758.367,66.895,-14.160,-13.672,290.527,0.000
1606134758.371,-2.930,-21.484,-16.602,43.457,0.000
1606134758.375,-86.914,-33.203,-24.902,-253.906,0.000
1606134758.379,-75.684,-31.738,-31.738,-229.980,0.000
1606134758.383,4.395,-9.277,-26.855,97.656,0.000
1606134758.387,42.969,-19.043,-13.184,264.648,0.000
1606134758.391,-3.906,-36.621,-16.113,61.523,0.000
1606134758.394,-87.891,-37.598,-21.973,-239.258,0.000
1606134758.398,-92.285,-37.598,-27.344,-259.277,0.000
1606134758.402,-8.789,-33.203,-27.344,55.176,0.000
1606134758.406,46.387,-29.297,-20.508,265.137,0.000
1606134758.410,2.930,-32.227,-16.602,104.980,0.000
1606134758.414,-89.844,-38.086,-20.508,-211.914,0.000
1606134758.418,-107.422,-39.551,-30.273,-288.086,0.000
1606134758.422,-30.273,-30.273,-32.715,-7.812,0.000
1606134758.426,31.738,-26.367,-24.902,243.652,0.000
1606134758.430,-1.465,-30.762,-23.926,140.625,0.000
1606134758.433,-80.566,-32.227,-28.320,-183.594,0.000
1606134758.437,-113.281,-39.551,-33.691,-302.734,0.000
1606134758.441,-43.945,-39.062,-29.785,-41.992,0.000
1606134758.445,34.180,-27.344,-20.020,247.070,0.000
1606134758.449,14.160,-25.879,-20.508,193.359,0.000
1606134758.453,-69.824,-32.715,-27.344,-138.184,0.000
1606134758.457,-104.980,-35.645,-28.320,-279.297,0.000
1606134758.461,-32.227,-18.555,-27.344,-45.410,0.000
1606134758.465,53.711,-8.789,-24.414,231.934,0.000
1606134758.469,24.902,-27.344,-23.926,198.242,0.000
1606134758.473,-64.453,-35.156,-29.297,-124.023,0.000
1606134758.476,-107.422,-39.062,-28.320,-303.223,0.000
1606134758.480,-60.059,-41.016,-25.879,-122.070,0.000
1606134758.484,25.391,-27.832,-21.973,184.082,0.000
1606134758.488,27.344,-26.367,-22.461,221.680,0.000
1606134758.492,-54.199,-34.668,-31.738,-82.031,0.000
1606134758.496,-110.352,-34.668,-34.668,-302.734,0.000
1606134758.500,-72.266,-36.621,-31.250,-157.227,0.000
1606134758.504,17.578,-29.785,-21.973,175.781,0.000
1606134758.508,40.039,-23.926,-25.391,260.742,0.000
1606134758.512,-38.086,-25.879,-29.297,-27.344,0.000
1606134758.516,-104.004,-25.391,-22.461,-288.086,0.000
1606134758.519,-75.195,-39.062,-22.949,-205.078,0.000
1606134758.523,17.090,-38.086,-27.832,128.418,0.000
1606134758.527,54.199,-23.438,-28.320,266.113,0.000
1606134758.531,-16.602,-27.832,-25.879,20.996,0.000
1606134758.535,-82.520,-30.273,-31.250,-256.348,0.000
1606134758.539,-70.801,-30.762,-32.715,-227.051,0.000
1606134758.543,8.301,-27.832,-22.461,88.867,0.000
1606134758.547,50.781,-26.367,-24.902,258.789,0.000
1606134758.551,-11.719,-30.762,-29.785,53.711,0.000
1606134758.555,-88.867,-29.297,-26.855,-236.328,0.000
1606134758.558,-83.008,-29.785,-27.344,-246.094,0.000
1606134758.562,-3.418,-39.551,-30.762,50.293,0.000
1606134758.566,50.781,-28.320,-30.273,249.512,0.000
1606134758.570,4.883,-17.578,-22.949,96.680,0.000
1606134758.574,-78.125,-29.297,-26.367,-220.703,0.000
1606134758.578,-97.168,-36.621,-36.133,-291.504,0.000
1606134758.582,-26.367,-32.715,-32.715,-3.906,0.000
1606134758.586,42.480,-27.832,-29.297,244.141,0.000
1606134758.590,12.207,-27.344,-31.250,127.930,0.000
1606134758.594,-80.078,-29.297,-39.062,-197.266,0.000
1606134758.598,-102.051,-28.320,-34.180,-287.598,0.000
1606134758.601,-28.809,-18.066,-23.926,-20.508,0.000
1606134758.605,35.156,-16.113,-23.438,233.887,0.000
1606134758.609,12.207,-24.902,-29.297,157.227,0.000
1606134758.613,-64.453,-25.391,-28.320,-164.551,0.000
1606134758.617,-91.309,-24.414,-22.949,-293.457,0.000
1606134758.621,-37.598,-28.320,-20.996,-62.988,0.000
1606134758.625,33.203,-23.926,-19.531,218.750,0.000
1606134758.629,18.555,-20.020,-17.578,195.801,0.000
1606134758.633,-68.848,-29.785,-22.949,-137.695,0.000
1606134758.637,-107.422,-33.691,-29.297,-320.801,0.000
1606134758.641,-52.246,-34.668,-25.391,-129.883,0.000
1606134758.644,18.555,-26.855,-22.949,174.316,0.000
1606134758.648,39.062,-14.160,-22.461,223.145,0.000
1606134758.652,-40.039,-20.508,-20.020,-73.730,0.000
1606134758.656,-107.910,-24.414,-16.602,-300.781,0.000
1606134758.660,-63.477,-28.809,-17.578,-171.387,0.000
1606134758.664,20.020,-28.809,-15.625,141.113,0.000
1606134758.668,42.969,-20.020,-11.719,221.680,0.000
1606134758.672,-30.273,-24.902,-16.113,-58.594,0.000
1606134758.676,-98.145,-31.250,-25.391,-317.871,0.000
1606134758.680,-62.988,-19.043,-26.855,-215.820,0.000
1606134758.683,20.508,-17.578,-23.438,113.770,0.000
1606134758.687,46.875,-25.879,-24.902,232.910,0.000
1606134758.691,-14.160,-27.832,-30.273,2.930,0.000
1606134758.695,-91.309,-34.668,-36.621,-257.324,0.000
1606134758.699,-80.078,-39.062,-34.180,-229.492,0.000
1606134758.703,14.648,-32.227,-25.879,83.496,0.000
1606134758.707,51.270,-24.902,-21.484,251.465,0.000
1606134758.711,-1.953,-16.602,-19.531,55.664,0.000
1606134758.715,-73.242,-20.508,-25.391,-222.656,0.000
1606134758.719,-79.590,-32.227,-31.738,-234.375,0.000
1606134758.723,15.625,-27.832,-24.414,68.848,0.000
1606134758.726,63.477,-20.508,-21.973,263.184,0.000
1606134758.730,-10.742,-22.461,-29.785,94.727,0.000
1606134758.734,-90.332,-27.344,-35.156,-211.426,0.000
1606134758.738,-94.238,-30.273,-33.691,-263.672,0.000
1606134758.742,-17.578,-28.809,-31.738,35.156,0.000
1606134758.746,56.152,-18.555,-24.902,274.902,0.000
1606134758.750,24.902,-20.020,-21.973,150.391,0.000
1606134758.754,-62.500,-26.367,-24.414,-174.316,0.000
1606134758.758,-82.520,-20.508,-22.461,-271.484,0.000
1606134758.762,-15.137,-8.789,-29.297,-11.719,0.000
1606134758.766,50.293,-17.578,-34.668,251.465,0.000
1606134758.769,31.250,-22.461,-28.320,185.547,0.000
1606134758.773,-59.082,-26.855,-30.762,-140.137,0.000
1606134758.777,-93.750,-35.156,-30.273,-270.508,0.000
1606134758.781,-27.344,-30.273,-27.344,-41.016,0.000
1606134758.785,50.781,-26.855,-27.832,235.840,0.000
1606134758.789,43.945,-29.297,-26.367,220.215,0.000
1606134758.793,-42.480,-34.668,-27.832,-103.027,0.000
1606134758.797,-87.402,-35.156,-34.668,-282.715,0.000
1606134758.801,-33.691,-23.926,-32.227,-89.355,0.000
1606134758.805,51.270,-20.996,-24.414,218.262,0.000
1606134758.808,52.734,-23.438,-27.344,239.258,0.000
1606134758.812,-34.180,-22.949,-36.621,-75.684,0.000
1606134758.816,-90.332,-25.879,-34.668,-285.645,0.000
1606134758.820,-51.270,-24.414,-29.297,-132.812,0.000
1606134758.824,40.527,-23.926,-22.461,190.918,0.000
1606134758.828,58.594,-25.391,-21.973,261.230,0.000
1606134758.832,-29.297,-31.250,-28.809,-31.250,0.000
1606134758.836,-95.703,-34.180,-29.785,-270.996,0.000
1606134758.840,-59.570,-27.344,-34.180,-177.246,0.000
1606134758.844,30.273,-15.137,-32.715,139.648,0.000
1606134758.848,48.340,-20.020,-18.066,254.883,0.000
1606134758.851,-31.250,-34.668,-14.648,-16.113,0.000
1606134758.855,-100.098,-35.645,-27.832,-295.410,0.000
1606134758.859,-76.660,-29.785,-28.809,-232.422,0.000
1606134758.863,10.742,-23.438,-18.066,95.215,0.000
1606134758.867,49.316,-20.508,-22.949,244.629,0.000
1606134758.871,-16.113,-28.809,-35.645,23.926,0.000
1606134758.875,-97.168,-36.133,-34.668,-274.414,0.000
1606134758.879,-82.520,-32.227,-29.785,-271.973,0.000
1606134758.883,-4.883,-28.320,-26.855,51.270,0.000
1606134758.887,40.527,-27.832,-20.020,242.676,0.000
1606134758.891,0.488,-24.414,-20.020,59.570,0.000
1606134758.894,-83.008,-34.180,-23.438,-260.254,0.000
1606134758.898,-85.938,-36.621,-24.902,-284.180,0.000
1606134758.902,3.906,-23.438,-19.043,36.621,0.000
1606134758.906,54.688,-16.113,-17.578,252.441,0.000
1606134758.910,3.906,-21.484,-20.020,111.816,0.000
1606134758.914,-78.613,-29.785,-25.391,-210.938,0.000
1606134758.918,-94.238,-32.227,-34.180,-300.293,0.000
1606134758.922,-24.414,-27.344,-26.855,-19.043,0.000
1606134758.926,41.992,-23.438,-21.484,241.211,0.000
1606134758.930,20.996,-21.484,-23.926,166.992,0.000
1606134758.933,-75.195,-33.691,-33.691,-171.387,0.000
1606134758.937,-114.258,-44.922,-33.203,-300.293,0.000
1606134758.941,-44.434,-41.504,-28.809,-67.871,0.000
1606134758.945,26.367,-33.203,-22.461,202.148,0.000
1606134758.949,7.812,-36.621,-21.484,177.734,0.000
1606134758.953,-79.590,-47.852,-33.203,-153.809,0.000
1606134758.957,-118.652,-44.922,-33.691,-318.359,0.000
1606134758.961,-48.828,-33.691,-27.832,-121.582,0.000
1606134758.965,31.738,-28.809,-24.414,161.621,0.000
1606134758.969,19.043,-30.273,-29.785,166.992,0.000
1606134758.973,-51.758,-32.715,-36.621,-123.047,0.000
1606134758.976,-104.004,-37.598,-35.645,-318.359,0.000
1606134758.980,-81.055,-41.016,-34.668,-167.480,0.000
1606134758.984,17.578,-32.715,-32.227,157.227,0.000
1606134758.988,32.227,-28.320,-24.414,224.121,0.000
1606134758.992,-45.898,-31.738,-25.879,-58.105,0.000
1606134758.996,-98.633,-37.109,-28.320,-290.527,0.000
1606134759.000,-72.754,-41.504,-24.414,-187.500,0.000
1606134759.004,17.578,-30.273,-23.926,126.953,0.000
1606134759.008,44.434,-28.320,-23.438,240.723,0.000
1606134759.012,-33.203,-36.621,-29.297,-17.578,0.000
1606134759.016,-97.168,-39.551,-35.156,-298.828,0.000
1606134759.019,-71.289,-39.551,-27.344,-224.121,0.000
1606134759.023,16.602,-32.715,-21.973,110.840,0.000
1606134759.027,45.410,-26.855,-28.809,243.652,0.000
1606134759.031,-25.879,-33.203,-36.133,10.742,0.000
1606134759.035,-99.609,-35.645,-34.180,-279.297,0.000
1606134759.039,-97.168,-40.039,-29.785,-263.672,0.000
1606134759.043,1.953,-46.875,-25.391,54.688,0.000
1606134759.047,55.176,-31.250,-20.508,247.070,0.000
1606134759.051,-13.184,-27.344,-20.020,66.406,0.000
1606134759.055,-78.125,-28.809,-25.879,-235.840,0.000
1606134759.058,-88.867,-26.855,-30.762,-272.461,0.000
1606134759.062,-17.090,-26.367,-30.273,25.879,0.000
1606134759.066,44.922,-28.809,-28.809,256.836,0.000
1606134759.070,8.789,-34.668,-26.855,124.512,0.000
1606134759.074,-76.172,-36.621,-28.320,-199.219,0.000
1606134759.078,-101.074,-34.668,-32.715,-286.621,0.000
1606134759.082,-22.461,-35.156,-32.227,-16.113,0.000
1606134759.086,45.410,-31.250,-26.855,240.723,0.000
1606134759.090,10.254,-26.855,-28.320,159.180,0.000
1606134759.094,-72.754,-32.715,-34.668,-175.781,0.000
1606134759.098,-100.586,-40.039,-33.203,-307.129,0.000
1606134759.101,-33.203,-38.574,-20.996,-51.758,0.000
1606134759.105,50.293,-27.832,-14.648,241.699,0.000
1606134759.109,33.203,-27.344,-20.508,198.730,0.000
1606134759.113,-62.500,-33.203,-26.367,-131.836,0.000
1606134759.117,-88.379,-26.855,-25.879,-288.574,0.000
1606134759.121,-31.250,-23.926,-21.973,-80.078,0.000
1606134759.125,19.043,-28.320,-20.020,203.125,0.000
1606134759.129,15.625,-27.832,-21.973,200.684,0.000
1606134759.133,-66.406,-31.250,-32.227,-109.375,0.000
1606134759.137,-117.188,-35.645,-37.109,-313.477,0.000
1606134759.141,-69.824,-34.180,-31.738,-143.066,0.000
1606134759.144,20.996,-24.902,-28.320,175.781,0.000
1606134759.148,30.762,-20.996,-32.715,227.051,0.000
1606134759.152,-56.152,-25.391,-33.203,-70.801,0.000
1606134759.156,-123.535,-32.227,-35.645,-310.059,0.000
1606134759.160,-80.566,-34.180,-39.062,-200.684,0.000
1606134759.164,18.066,-23.438,-35.645,127.441,0.000
1606134759.168,36.133,-15.625,-38.086,227.051,0.000
1606134759.172,-35.645,-27.344,-39.062,-42.480,0.000
1606134759.176,-107.422,-33.691,-39.551,-300.781,0.000
1606134759.180,-81.055,-29.297,-36.621,-217.285,0.000
1606134759.183,11.230,-26.367,-27.832,125.488,0.000
1606134759.187,40.527,-27.832,-26.367,258.789,0.000
1606134759.191,-25.391,-27.832,-29.297,11.230,0.000
1606134759.195,-96.680,-27.832,-35.645,-270.508,0.000
1606134759.199,-79.590,-27.832,-34.668,-241.699,0.000
1606134759.203,12.695,-22.949,-27.344,83.984,0.000
1606134759.207,52.246,-21.973,-20.020,284.180,0.000
1606134759.211,5.859,-19.531,-19.043,99.609,0.000
1606134759.215,-74.219,-23.438,-28.809,-240.234,0.000
1606134759.219,-98.633,-34.668,-33.203,-285.645,0.000
1606134759.223,-20.508,-31.250,-33.203,29.785,0.000
1606134759.226,29.297,-26.367,-32.227,244.629,0.000
1606134759.230,-20.508,-36.621,-37.598,85.449,0.000
1606134759.234,-102.051,-48.828,-44.434,-237.305,0.000
1606134759.238,-111.328,-51.270,-43.945,-303.711,0.000
1606134759.242,-30.273,-42.480,-35.645,-7.324,0.000
1606134759.246,30.273,-34.180,-24.902,228.516,0.000
1606134759.250,-4.395,-36.133,-30.273,120.117,0.000
1606134759.254,-87.891,-37.109,-33.691,-200.195,0.000
1606134759.258,-111.816,-37.109,-27.344,-318.848,0.000
1606134759.262,-46.875,-35.156,-25.391,-72.266,0.000
1606134759.266,29.785,-31.738,-20.996,204.590,0.000
1606134759.269,19.531,-30.762,-20.996,163.574,0.000
1606134759.273,-70.801,-36.133,-21.484,-158.691,0.000
1606134759.277,-113.770,-39.551,-23.438,-327.148,0.000
1606134759.281,-51.758,-39.551,-28.809,-115.234,0.000
1606134759.285,30.762,-37.109,-25.391,178.711,0.000
1606134759.289,31.250,-26.855,-20.508,188.965,0.000
1606134759.293,-54.688,-26.367,-27.344,-111.328,0.000
1606134759.297,-110.840,-38.086,-40.527,-311.523,0.000
1606134759.301,-57.129,-36.621,-37.109,-133.789,0.000
1606134759.305,34.668,-22.461,-28.320,181.152,0.000
1606134759.308,40.039,-15.625,-26.367,220.215,0.000
1606134759.312,-44.922,-23.926,-25.879,-83.008,0.000
1606134759.316,-103.516,-34.668,-26.855,-296.875,0.000
1606134759.320,-51.758,-29.297,-34.668,-155.762,0.000
1606134759.324,35.645,-26.367,-33.203,154.785,0.000
1606134759.328,42.969,-25.879,-24.414,246.094,0.000
1606134759.332,-32.227,-25.391,-30.273,-21.973,0.000
1606134759.336,-76.172,-24.414,-35.156,-276.367,0.000
1606134759.340,-44.922,-26.367,-38.086,-206.055,0.000
1606134759.344,16.602,-26.855,-33.203,117.188,0.000
1606134759.348,45.898,-20.996,-22.949,273.926,0.000
1606134759.351,-17.578,-25.391,-30.273,47.363,0.000
1606134759.355,-91.797,-34.180,-35.645,-241.211,0.000
1606134759.359,-77.148,-31.250,-36.133,-223.633,0.000
1606134759.363,14.160,-26.367,-36.621,89.355,0.000
1606134759.367,60.059,-22.461,-22.461,270.996,0.000
1606134759.371,5.371,-27.344,-20.508,85.938,0.000
1606134759.375,-76.172,-31.738,-31.250,-217.285,0.000
1606134759.379,-87.891,-33.691,-34.668,-255.859,0.000
1606134759.383,-5.859,-29.297,-21.973,57.617,0.000
1606134759.387,46.875,-21.484,-9.766,283.203,0.000
1606134759.391,6.836,-23.438,-17.578,121.094,0.000
1606134759.394,-71.777,-25.879,-24.414,-203.613,0.000
1606134759.398,-93.750,-25.391,-22.461,-271.484,0.000
1606134759.402,-16.113,-29.785,-25.391,16.602,0.000
1606134759.406,48.828,-24.414,-33.691,243.164,0.000
1606134759.410,8.789,-22.949,-40.039,121.094,0.000
1606134759.414,-82.031,-29.785,-34.180,-193.359,0.000
1606134759.418,-107.422,-30.762,-31.250,-303.711,0.000
1606134759.422,-33.691,-26.855,-38.086,-59.570,0.000
1606134759.426,34.668,-21.973,-31.250,208.008,0.000
1606134759.430,8.789,-30.762,-25.879,155.273,0.000
1606134759.433,-80.566,-40.527,-33.203,-167.969,0.000
1606134759.437,-125.977,-36.621,-38.574,-335.449,0.000
1606134759.441,-56.641,-28.320,-36.621,-108.887,0.000
1606134759.445,28.809,-21.484,-28.809,200.684,0.000
1606134759.449,17.090,-29.297,-19.531,193.359,0.000
1606134759.453,-75.195,-38.086,-23.438,-126.953,0.000
1606134759.457,-121.094,-35.156,-30.273,-320.801,0.000
1606134759.461,-68.359,-39.551,-25.879,-135.254,0.000
1606134759.465,32.715,-34.180,-20.996,182.617,0.000
1606134759.469,51.758,-19.043,-23.926,224.609,0.000
1606134759.473,-49.805,-23.438,-27.832,-79.590,0.000
1606134759.476,-99.609,-29.297,-31.250,-300.781,0.000
1606134759.480,-53.223,-22.949,-37.598,-163.086,0.000
1606134759.484,24.414,-20.508,-33.203,153.320,0.000
1606134759.488,45.410,-23.438,-28.809,236.816,0.000
1606134759.492,-25.879,-23.438,-33.203,-27.832,0.000
1606134759.496,-84.961,-31.250,-33.691,-282.715,0.000
1606134759.500,-54.199,-34.180,-31.250,-209.473,0.000
1606134759.504,34.180,-30.273,-27.344,115.723,0.000
1606134759.508,65.430,-27.344,-26.855,252.441,0.000
1606134759.512,-13.672,-35.645,-33.691,9.766,0.000
1606134759.516,-83.008,-37.109,-41.992,-268.555,0.000
1606134759.519,-62.988,-35.156,-36.621,-222.168,0.000
1606134759.523,17.090,-39.062,-26.367,105.469,0.000
1606134759.527,51.758,-29.785,-19.043,272.461,0.000
1606134759.531,-10.742,-31.250,-29.297,59.082,0.000
1606134759.535,-80.078,-33.203,-38.574,-244.141,0.000
1606134759.539,-66.895,-29.297,-30.762,-245.117,0.000
1606134759.543,3.418,-40.527,-25.391,66.895,0.000
1606134759.547,41.992,-39.062,-20.508,268.066,0.000
1606134759.551,-7.324,-33.691,-20.996,111.816,0.000
1606134759.555,-96.191,-37.109,-30.762,-210.449,0.000
1606134759.558,-95.703,-39.062,-33.203,-295.410,0.000
1606134759.562,-18.066,-40.527,-33.203,-9.766,0.000
1606134759.566,21.973,-34.668,-28.809,236.816,0.000
1606134759.570,-5.859,-31.250,-27.344,116.699,0.000
1606134759.574,-86.426,-32.227,-26.855,-205.566,0.000
1606134759.578,-109.863,-34.180,-27.832,-299.316,0.000
1606134759.582,-32.715,-29.297,-23.438,-26.367,0.000
1606134759.586,41.016,-20.996,-20.508,243.652,0.000
1606134759.590,9.277,-23.438,-20.996,172.363,0.000
1606134759.594,-82.520,-33.203,-29.297,-166.504,0.000
1606134759.598,-113.281,-32.715,-37.598,-330.566,0.000
1606134759.601,-41.504,-33.691,-35.645,-101.074,0.000
1606134759.605,28.809,-35.645,-30.762,195.801,0.000
1606134759.609,17.090,-27.832,-24.902,187.012,0.000
1606134759.613,-67.383,-31.250,-30.762,-128.906,0.000
1606134759.617,-114.746,-28.809,-32.227,-316.406,0.000
1606134759.621,-50.293,-27.344,-19.531,-115.234,0.000
1606134759.625,36.133,-16.113,-18.066,184.082,0.000
1606134759.629,46.387,-7.812,-32.227,201.172,0.000
1606134759.633,-48.828,-20.020,-44.434,-107.910,0.000
1606134759.637,-133.789,-25.879,-39.551,-339.355,0.000
1606134759.641,-86.914,-36.621,-30.273,-189.941,0.000
1606134759.644,13.672,-38.086,-29.785,143.066,0.000
1606134759.648,36.621,-27.832,-29.297,231.445,0.000
1606134759.652,-42.480,-24.902,-33.203,-50.781,0.000
1606134759.656,-107.910,-32.715,-40.039,-317.383,0.000
1606134759.660,-78.613,-38.574,-37.598,-229.980,0.000
1606134759.664,3.906,-29.297,-29.785,105.957,0.000
1606134759.668,37.598,-26.855,-30.273,234.863,0.000
1606134759.672,-30.273,-29.785,-37.109,-26.367,0.000
1606134759.676,-104.004,-32.227,-33.691,-296.875,0.000
1606134759.680,-80.566,-34.180,-31.250,-227.539,0.000
1606134759.683,1.465,-39.062,-31.250,89.355,0.000
1606134759.687,38.574,-37.109,-29.297,231.934,0.000
1606134759.691,-15.137,-40.039,-36.133,23.926,0.000
1606134759.695,-93.750,-47.852,-31.738,-252.930,0.000
1606134759.699,-92.773,-44.922,-24.902,-257.812,0.000
1606134759.703,-3.418,-33.691,-23.438,54.199,0.000
1606134759.707,49.805,-25.879,-19.043,264.648,0.000
1606134759.711,-6.348,-30.762,-22.461,94.727,0.000
1606134759.715,-92.773,-33.203,-34.180,-234.375,0.000
1606134759.719,-103.516,-31.250,-32.227,-291.992,0.000
1606134759.723,-1.953,-28.809,-24.414,21.484,0.000
1606134759.726,60.547,-20.508,-24.902,249.023,0.000
1606134759.730,-1.953,-29.785,-23.926,119.629,0.000
1606134759.734,-85.938,-39.551,-34.668,-202.148,0.000
1606134759.738,-94.727,-41.016,-41.016,-306.641,0.000
1606134759.742,-14.160,-38.574,-31.738,-26.855,0.000
1606134759.746,47.852,-24.902,-29.297,241.699,0.000
1606134759.750,18.555,-23.926,-30.273,171.387,0.000
1606134759.754,-71.289,-33.691,-31.250,-157.227,0.000
1606134759.758,-103.027,-34.180,-30.762,-303.711,0.000
1606134759.762,-38.574,-27.832,-23.438,-69.824,0.000
1606134759.766,27.344,-34.180,-23.926,208.984,0.000
1606134759.769,18.066,-27.344,-21.484,179.199,0.000
1606134759.773,-63.965,-22.461,-20.508,-133.789,0.000
1606134759.777,-113.770,-38.574,-22.949,-309.082,0.000
1606134759.781,-56.641,-41.016,-24.414,-117.188,0.000
1606134759.785,25.879,-29.297,-30.273,176.270,0.000
1606134759.789,20.508,-25.879,-24.902,200.195,0.000
1606134759.793,-71.289,-30.273,-26.855,-98.633,0.000
1606134759.797,-119.141,-34.668,-27.344,-304.199,0.000
1606134759.801,-76.660,-33.203,-20.996,-162.598,0.000
1606134759.805,-1.465,-25.391,-18.066,140.137,0.000
1606134759.808,17.578,-20.508,-15.137,214.355,0.000
1606134759.812,-51.758,-20.996,-20.020,-84.473,0.000
1606134759.816,-142.578,-30.762,-20.020,-333.496,0.000
1606134759.820,-124.512,-29.785,-8.789,-222.656,0.000
1606134759.824,-40.039,-25.391,-3.418,84.961,0.000
1606134759.828,-18.066,-22.949,-13.672,187.500,0.000
1606134759.832,-93.750,-22.461,-20.508,-80.078,0.000
1606134759.836,-178.711,-21.484,-10.254,-368.164,0.000
1606134759.840,-175.781,-19.043,-1.465,-335.449,0.000
1606134759.844,-95.215,-14.160,4.395,-17.578,0.000
1606134759.848,-52.734,-10.254,9.277,140.137,0.000
1606134759.851,-120.117,-6.348,5.371,-77.637,0.000
1606134759.855,-217.285,-8.789,-4.883,-380.371,0.000
1606134759.859,-218.750,-15.137,-3.906,-385.742,0.000
1606134759.863,-125.488,-0.977,-3.418,-63.965,0.000
1606134759.867,-71.289,13.672,-2.441,135.254,0.000
1606134759.871,-128.906,3.418,2.930,-45.410,0.000
1606134759.875,-214.844,-5.859,-6.348,-365.234,0.000
1606134759.879,-224.121,1.953,-18.066,-427.734,0.000
1606134759.883,-145.508,-4.395,-16.602,-133.789,0.000
1606134759.887,-76.660,2.441,-5.371,114.258,0.000
1606134759.891,-130.859,12.695,-12.207,-17.578,0.000
1606134759.894,-223.633,4.395,-21.484,-360.352,0.000
1606134759.898,-231.934,2.441,-21.973,-449.219,0.000
1606134759.902,-160.156,0.488,-25.391,-172.363,0.000
1606134759.906,-87.891,6.348,-15.137,98.145,0.000
1606134759.910,-104.980,9.766,-6.348,37.598,0.000
1606134759.914,-174.316,0.977,-13.672,-281.250,0.000
1606134759.918,-196.777,-11.719,-17.090,-411.621,0.000
1606134759.922,-133.301,-13.184,-11.719,-158.691,0.000
1606134759.926,-40.039,1.465,-16.113,132.324,0.000
1606134759.930,-48.828,0.000,-15.625,112.793,0.000
1606134759.933,-139.648,-12.695,-14.160,-205.078,0.000
1606134759.937,-169.434,-19.043,-33.203,-385.742,0.000
1606134759.941,-111.816,-24.902,-39.062,-186.523,0.000
1606134759.945,-21.484,-20.996,-27.832,140.625,0.000
1606134759.949,7.812,-18.066,-27.832,194.824,0.000
1606134759.953,-62.988,-29.297,-27.344,-100.098,0.000
1606134759.957,-109.863,-26.855,-32.227,-311.523,0.000
1606134759.961,-70.801,-36.133,-38.086,-136.719,0.000
1606134759.965,10.254,-55.176,-33.203,198.730,0.000
1606134759.969,52.734,-40.039,-37.598,241.699,0.000
1606134759.973,-23.438,-42.969,-41.504,-60.547,0.000
1606134759.976,-105.957,-55.664,-43.457,-297.363,0.000
1606134759.980,-51.758,-51.270,-45.410,-164.062,0.000
1606134759.984,56.641,-41.016,-46.875,171.875,0.000
1606134759.988,88.867,-40.039,-45.410,282.227,0.000
1606134759.992,8.301,-47.852,-43.945,31.250,0.000
1606134759.996,-70.801,-52.734,-51.758,-242.676,0.000
1606134760.000,-43.945,-57.617,-47.852,-175.781,0.000
1606134760.004,49.805,-43.945,-43.945,159.668,0.000
1606134760.008,98.145,-27.344,-52.734,309.082,0.000
1606134760.012,28.809,-37.598,-55.176,77.148,0.000
1606134760.016,-47.363,-47.363,-55.176,-216.797,0.000
1606134760.019,-54.688,-56.641,-61.523,-217.773,0.000
1606134760.023,31.738,-60.547,-50.293,121.582,0.000
1606134760.027,99.609,-44.434,-47.852,334.473,0.000
1606134760.031,46.387,-43.457,-55.176,133.789,0.000
1606134760.035,-28.320,-52.734,-46.387,-170.898,0.000
1606134760.039,-28.809,-48.828,-43.945,-200.195,0.000
1606134760.043,51.270,-36.133,-48.340,96.680,0.000
1606134760.047,109.863,-35.645,-45.410,329.590,0.000
1606134760.051,71.289,-37.598,-41.504,208.008,0.000
1606134760.055,-15.137,-35.156,-43.457,-114.258,0.000
1606134760.058,-33.203,-36.133,-41.016,-213.867,0.000
1606134760.062,47.363,-40.527,-41.992,47.852,0.000
1606134760.066,109.375,-38.086,-44.434,295.410,0.000
1606134760.070,77.148,-42.969,-44.434,195.312,0.000
1606134760.074,-18.555,-50.781,-47.363,-143.066,0.000
1606134760.078,-56.641,-45.410,-39.551,-258.789,0.000
1606134760.082,11.719,-39.551,-31.250,-2.441,0.000
1606134760.086,83.008,-30.273,-30.273,279.785,0.000
1606134760.090,72.754,-30.762,-36.621,246.094,0.000
1606134760.094,-22.461,-39.551,-45.898,-100.586,0.000
1606134760.098,-69.824,-45.898,-47.852,-279.297,0.000
1606134760.101,-16.602,-47.852,-41.016,-56.152,0.000
1606134760.105,64.941,-43.945,-38.574,251.465,0.000
1606134760.109,70.312,-41.992,-37.598,265.137,0.000
1606134760.113,-26.367,-45.410,-42.480,-71.777,0.000
1606134760.117,-89.355,-50.293,-40.039,-286.133,0.000
1606134760.121,-39.062,-53.711,-32.715,-109.375,0.000
1606134760.125,52.246,-42.969,-34.180,208.008,0.000
1606134760.129,67.383,-39.551,-33.203,261.719,0.000
1606134760.133,-13.184,-44.922,-31.738,-34.180,0.000
1606134760.137,-85.449,-51.270,-35.645,-283.691,0.000
1606134760.141,-48.340,-51.758,-40.039,-177.734,0.000
1606134760.144,67.871,-39.062,-36.621,158.691,0.000
1606134760.148,77.148,-31.738,-32.227,267.578,0.000
1606134760.152,-19.043,-37.109,-37.109,-14.160,0.000
1606134760.156,-82.520,-45.410,-42.480,-295.898,0.000
1606134760.160,-62.012,-44.434,-38.574,-217.285,0.000
1606134760.164,36.133,-33.203,-34.180,128.906,0.000
1606134760.168,71.777,-23.926,-36.133,257.812,0.000
1606134760.172,-7.324,-29.297,-36.621,10.742,0.000
1606134760.176,-83.008,-38.574,-36.133,-270.508,0.000
1606134760.180,-66.406,-39.062,-35.156,-245.605,0.000
1606134760.183,21.973,-32.715,-29.785,82.031,0.000
1606134760.187,55.664,-30.762,-26.367,259.277,0.000
1606134760.191,-0.488,-33.203,-25.879,72.266,0.000
1606134760.195,-81.055,-40.527,-35.645,-228.027,0.000
1606134760.199,-93.262,-44.434,-39.551,-272.461,0.000
1606134760.203,-4.395,-37.109,-26.855,29.297,0.000
1606134760.207,55.176,-32.227,-19.043,260.254,0.000
1606134760.211,9.766,-30.762,-23.438,114.258,0.000
1606134760.215,-77.148,-32.227,-28.809,-209.961,0.000
1606134760.219,-107.422,-35.156,-28.809,-280.273,0.000
1606134760.223,-35.156,-32.715,-27.832,-1.465,0.000
1606134760.226,38.574,-29.785,-30.762,254.883,0.000
1606134760.230,7.324,-31.250,-23.438,164.062,0.000
1606134760.234,-89.844,-36.133,-24.902,-186.035,0.000
1606134760.238,-118.164,-37.598,-38.086,-320.312,0.000
1606134760.242,-46.387,-35.645,-33.691,-55.664,0.000
1606134760.246,31.250,-35.645,-28.320,231.934,0.000
1606134760.250,17.578,-37.598,-31.250,186.035,0.000
1606134760.254,-75.684,-45.410,-35.156,-156.250,0.000
1606134760.258,-117.676,-49.316,-41.504,-336.426,0.000
1606134760.262,-52.734,-37.109,-41.016,-114.746,0.000
1606134760.266,31.250,-26.367,-31.250,194.824,0.000
1606134760.269,40.039,-29.297,-24.902,198.730,0.000
1606134760.273,-34.180,-36.133,-25.391,-113.770,0.000
1606134760.277,-97.168,-39.062,-38.086,-313.477,0.000
1606134760.281,-50.781,-30.273,-38.574,-145.996,0.000
1606134760.285,40.039,-20.020,-24.902,186.035,0.000
1606134760.289,46.875,-24.902,-22.949,237.305,0.000
1606134760.293,-40.039,-32.715,-33.691,-83.984,0.000
1606134760.297,-104.492,-29.785,-40.527,-323.730,0.000
1606134760.301,-67.871,-19.531,-36.133,-196.777,0.000
1606134760.305,15.625,-24.414,-29.297,135.742,0.000
1606134760.308,26.367,-36.621,-27.832,239.746,0.000
1606134760.312,-43.945,-37.598,-34.668,-28.809,0.000
1606134760.316,-102.539,-45.410,-37.109,-288.086,0.000
1606134760.320,-89.844,-46.387,-32.715,-220.703,0.000
1606134760.324,-4.883,-38.086,-26.855,98.633,0.000
1606134760.328,30.273,-37.109,-20.508,249.512,0.000
1606134760.332,-19.043,-40.039,-24.902,29.297,0.000
1606134760.336,-90.820,-39.062,-29.297,-256.348,0.000
1606134760.340,-100.586,-30.273,-32.227,-242.188,0.000
1606134760.344,-7.812,-20.020,-28.809,81.055,0.000
1606134760.348,40.527,-27.344,-25.391,262.207,0.000
1606134760.351,-20.508,-34.668,-27.344,68.848,0.000
1606134760.355,-97.656,-33.203,-26.855,-235.352,0.000
1606134760.359,-97.168,-31.738,-29.297,-266.113,0.000
1606134760.363,-11.719,-31.250,-28.320,41.992,0.000
1606134760.367,37.598,-36.133,-28.320,254.395,0.000
1606134760.371,-9.277,-38.574,-28.320,97.168,0.000
1606134760.375,-94.238,-43.457,-31.250,-222.168,0.000
1606134760.379,-109.375,-32.715,-34.668,-285.645,0.000
1606134760.383,-17.090,-13.184,-31.738,-1.465,0.000
1606134760.387,61.035,-23.438,-28.809,235.840,0.000
1606134760.391,20.508,-31.250,-28.809,128.418,0.000
1606134760.394,-79.102,-31.738,-33.203,-192.871,0.000
1606134760.398,-102.051,-30.273,-37.598,-303.711,0.000
1606134760.402,-30.762,-28.809,-30.273,-51.758,0.000
1606134760.406,41.016,-22.949,-30.273,224.121,0.000
1606134760.410,15.137,-19.531,-36.133,158.203,0.000
1606134760.414,-73.242,-24.414,-37.109,-172.852,0.000
1606134760.418,-93.750,-24.414,-40.527,-319.824,0.000
1606134760.422,-39.551,-24.902,-41.016,-101.562,0.000
1606134760.426,31.250,-21.484,-40.527,194.336,0.000
1606134760.430,23.438,-16.602,-34.180,208.008,0.000
1606134760.433,-69.824,-23.926,-37.109,-116.699,0.000
1606134760.437,-119.141,-30.273,-44.922,-330.566,0.000
1606134760.441,-67.383,-22.949,-40.527,-142.578,0.000
1606134760.445,19.531,-16.113,-36.621,184.570,0.000
1606134760.449,35.156,-24.902,-22.949,231.445,0.000
1606134760.453,-49.316,-30.273,-24.414,-73.730,0.000
1606134760.457,-113.281,-30.762,-33.691,-320.312,0.000
1606134760.461,-70.312,-29.297,-29.297,-189.453,0.000
1606134760.465,22.949,-18.066,-25.391,145.508,0.000
1606134760.469,41.992,-12.207,-20.508,222.168,0.000
1606134760.473,-39.551,-20.508,-23.438,-58.105,0.000
1606134760.476,-100.098,-24.902,-34.180,-302.734,0.000
1606134760.480,-68.359,-20.996,-35.156,-222.168,0.000
1606134760.484,20.020,-17.578,-31.250,108.887,0.000
1606134760.488,54.688,-17.578,-26.855,243.652,0.000
1606134760.492,-20.508,-20.020,-29.297,-0.977,0.000
1606134760.496,-94.238,-24.902,-39.551,-284.180,0.000
1606134760.500,-70.801,-22.461,-38.086,-251.465,0.000
1606134760.504,21.973,-13.672,-30.273,76.660,0.000
1606134760.508,69.824,-10.742,-26.367,244.629,0.000
1606134760.512,8.301,-18.555,-30.273,42.480,0.000
1606134760.516,-70.312,-23.926,-32.227,-254.883,0.000
1606134760.519,-72.754,-25.879,-38.086,-270.020,0.000
1606134760.523,13.184,-22.949,-32.227,55.664,0.000
1606134760.527,74.219,-20.508,-22.949,262.207,0.000
1606134760.531,7.324,-26.367,-30.762,83.984,0.000
1606134760.535,-86.914,-28.809,-35.645,-234.863,0.000
1606134760.539,-101.074,-35.156,-33.691,-293.457,0.000
1606134760.543,-24.902,-37.109,-30.273,2.441,0.000
1606134760.547,41.504,-31.250,-30.273,243.652,0.000
1606134760.551,1.465,-35.156,-27.344,126.465,0.000
1606134760.555,-88.379,-32.715,-28.809,-206.543,0.000
1606134760.558,-112.305,-33.691,-35.156,-313.965,0.000
1606134760.562,-52.734,-38.574,-29.785,-38.574,0.000
1606134760.566,21.973,-35.156,-19.043,247.559,0.000
1606134760.570,5.371,-33.203,-16.602,183.105,0.000
1606134760.574,-85.938,-35.645,-18.066,-166.992,0.000
1606134760.578,-115.723,-37.109,-22.461,-318.848,0.000
1606134760.582,-58.105,-40.039,-27.832,-105.469,0.000
1606134760.586,14.648,-33.691,-23.438,198.242,0.000
1606134760.590,9.766,-25.391,-21.973,198.730,0.000
1606134760.594,-78.613,-30.273,-27.344,-143.066,0.000
1606134760.598,-121.582,-34.668,-23.438,-336.914,0.000
1606134760.601,-65.918,-30.762,-23.438,-148.926,0.000
1606134760.605,21.973,-25.879,-27.344,171.875,0.000
1606134760.609,36.621,-26.855,-30.762,209.961,0.000
1606134760.613,-47.852,-31.250,-30.762,-95.703,0.000
1606134760.617,-106.934,-35.156,-27.832,-308.105,0.000
1606134760.621,-66.895,-18.555,-31.738,-161.133,0.000
1606134760.625,14.160,-4.395,-30.273,158.691,0.000
1606134760.629,35.645,-22.461,-24.414,235.840,0.000
1606134760.633,-41.504,-30.762,-25.879,-48.340,0.000
1606134760.637,-107.422,-33.691,-32.227,-302.246,0.000
1606134760.641,-83.984,-38.574,-31.738,-214.355,0.000
1606134760.644,5.371,-34.668,-26.367,125.000,0.000
1606134760.648,40.527,-30.762,-23.926,265.137,0.000
1606134760.652,-35.645,-37.109,-30.273,5.371,0.000
1606134760.656,-117.188,-45.898,-30.762,-293.945,0.000
1606134760.660,-99.121,-41.016,-22.461,-245.605,0.000
1606134760.664,2.441,-31.250,-15.625,108.887,0.000
1606134760.668,50.781,-31.738,-9.766,274.902,0.000
1606134760.672,-8.301,-34.180,-14.648,48.828,0.000
1606134760.676,-91.797,-40.039,-25.879,-260.742,0.000
1606134760.680,-85.449,-37.598,-33.203,-269.043,0.000
1606134760.683,4.395,-29.785,-31.250,51.270,0.000
1606134760.687,53.223,-26.367,-23.438,264.160,0.000
1606134760.691,10.742,-35.156,-22.461,99.121,0.000
1606134760.695,-80.078,-41.504,-23.438,-221.680,0.000
1606134760.699,-107.422,-42.480,-19.531,-284.668,0.000
1606134760.703,-32.227,-45.898,-16.113,10.254,0.000
1606134760.707,30.762,-41.992,-20.508,250.977,0.000
1606134760.711,-1.953,-39.551,-21.484,143.555,0.000
1606134760.715,-94.238,-39.062,-25.391,-181.152,0.000
1606134760.719,-120.117,-34.180,-25.879,-298.828,0.000
1606134760.723,-42.969,-29.785,-23.438,-36.621,0.000
1606134760.726,43.457,-23.438,-26.367,243.164,0.000
1606134760.730,20.020,-25.879,-29.785,170.898,0.000
1606134760.734,-76.172,-35.156,-37.109,-170.410,0.000
1606134760.738,-120.605,-41.016,-33.691,-305.664,0.000
1606134760.742,-55.664,-41.016,-24.414,-50.781,0.000
1606134760.746,30.273,-33.203,-17.578,243.164,0.000
1606134760.750,17.090,-37.598,-19.043,215.332,0.000
1606134760.754,-74.707,-41.992,-17.578,-102.539,0.000
1606134760.758,-118.164,-38.086,-17.090,-291.504,0.000
1606134760.762,-62.500,-30.762,-24.414,-107.422,0.000
1606134760.766,24.902,-30.762,-22.461,202.148,0.000
1606134760.769,40.039,-35.156,-24.902,235.352,0.000
1606134760.773,-44.922,-36.621,-35.156,-71.777,0.000
1606134760.777,-104.004,-37.598,-36.133,-298.340,0.000
1606134760.781,-62.988,-30.762,-33.691,-145.508,0.000
1606134760.785,22.949,-28.320,-24.414,184.570,0.000
1606134760.789,41.992,-27.344,-17.578,260.742,0.000
1606134760.793,-35.156,-31.738,-22.461,-31.250,0.000
1606134760.797,-101.074,-32.227,-24.902,-290.039,0.000
1606134760.801,-73.242,-23.926,-24.414,-192.383,0.000
1606134760.805,13.184,-17.578,-20.020,137.207,0.000
1606134760.808,44.922,-16.602,-12.207,255.859,0.000
1606134760.812,-25.879,-23.926,-20.508,-7.812,0.000
1606134760.816,-91.309,-29.297,-31.738,-283.691,0.000
1606134760.820,-76.172,-20.508,-30.273,-231.445,0.000
1606134760.824,0.977,-15.625,-26.855,96.191,0.000
1606134760.828,44.922,-24.902,-22.949,266.113,0.000
1606134760.832,-20.508,-28.809,-31.250,35.645,0.000
1606134760.836,-105.957,-37.598,-39.551,-279.785,0.000
1606134760.840,-103.027,-37.109,-33.691,-275.879,0.000
1606134760.844,6.348,-25.391,-25.879,50.293,0.000
1606134760.848,59.570,-22.949,-20.508,253.906,0.000
1606134760.851,-14.160,-25.391,-24.414,80.078,0.000
1606134760.855,-89.844,-40.039,-31.250,-239.746,0.000
1606134760.859,-96.191,-35.156,-30.273,-295.898,0.000
1606134760.863,-15.625,-13.672,-26.367,3.418,0.000
1606134760.867,51.270,-25.879,-26.855,237.305,0.000
1606134760.871,14.160,-33.203,-24.414,112.793,0.000
1606134760.875,-75.195,-37.109,-24.902,-204.102,0.000
1606134760.879,-91.797,-38.574,-25.879,-298.340,0.000
1606134760.883,-21.973,-36.133,-27.344,-26.855,0.000
1606134760.887,41.504,-33.203,-25.391,237.305,0.000
1606134760.891,19.531,-28.809,-25.391,146.973,0.000
1606134760.894,-71.289,-33.691,-30.273,-191.406,0.000
1606134760.898,-105.469,-41.992,-32.227,-311.523,0.000
1606134760.902,-39.551,-39.551,-36.133,-74.219,0.000
1606134760.906,26.855,-33.203,-33.203,200.195,0.000
1606134760.910,16.113,-36.133,-25.391,172.363,0.000
1606134760.914,-71.289,-39.062,-28.809,-145.508,0.000
1606134760.918,-117.676,-37.109,-38.574,-320.801,0.000
1606134760.922,-56.641,-33.691,-35.645,-123.047,0.000
1606134760.926,27.344,-30.762,-24.902,183.105,0.000
1606134760.930,31.738,-31.738,-24.414,205.078,0.000
1606134760.933,-55.664,-37.109,-27.832,-101.562,0.000
1606134760.937,-115.723,-40.039,-29.785,-320.312,0.000
1606134760.941,-64.941,-31.250,-27.832,-165.039,0.000
1606134760.945,10.742,-21.484,-22.461,166.504,0.000
1606134760.949,14.160,-26.367,-23.926,229.492,0.000
1606134760.953,-57.617,-33.203,-23.438,-65.918,0.000
1606134760.957,-117.188,-38.574,-23.438,-307.129,0.000
1606134760.961,-82.520,-35.645,-24.902,-177.734,0.000
1606134760.965,12.207,-31.738,-25.879,154.297,0.000
1606134760.969,40.527,-31.250,-22.461,260.254,0.000
1606134760.973,-33.203,-32.227,-28.320,-0.977,0.000
1606134760.976,-104.980,-38.574,-31.250,-275.879,0.000
1606134760.980,-87.891,-41.016,-30.762,-222.656,0.000
1606134760.984,1.953,-36.133,-30.762,98.145,0.000
1606134760.988,41.992,-33.203,-29.297,262.207,0.000
1606134760.992,-11.230,-29.785,-32.227,55.664,0.000
1606134760.996,-82.520,-35.156,-33.691,-237.305,0.000
1606134761.000,-74.219,-38.086,-29.785,-236.816,0.000
1606134761.004,13.672,-24.414,-24.902,77.148,0.000
1606134761.008,55.664,-18.555,-21.484,265.625,0.000
1606134761.012,9.766,-23.926,-21.973,76.660,0.000
1606134761.016,-83.496,-33.691,-26.367,-241.699,0.000
1606134761.019,-105.469,-41.504,-25.391,-287.598,0.000
1606134761.023,-15.625,-36.133,-19.531,17.578,0.000
1606134761.027,48.340,-31.250,-19.043,247.559,0.000
1606134761.031,3.906,-37.598,-24.414,105.957,0.000
1606134761.035,-86.914,-33.691,-21.973,-217.285,0.000
1606134761.039,-103.027,-27.832,-22.461,-300.781,0.000
1606134761.043,-29.297,-32.227,-28.320,-28.809,0.000
1606134761.047,39.551,-27.344,-21.973,234.863,0.000
1606134761.051,7.812,-31.250,-22.949,151.855,0.000
1606134761.055,-89.355,-38.574,-27.344,-179.688,0.000
1606134761.058,-122.070,-35.645,-26.367,-312.500,0.000
1606134761.062,-51.758,-29.297,-21.973,-57.129,0.000
1606134761.066,26.855,-27.344,-16.113,231.934,0.000
1606134761.070,13.672,-30.762,-18.066,183.594,0.000
1606134761.074,-73.730,-32.715,-26.367,-151.855,0.000
1606134761.078,-126.465,-37.109,-35.645,-330.566,0.000
1606134761.082,-77.148,-36.621,-33.691,-113.281,0.000
1606134761.086,17.090,-28.320,-26.855,211.426,0.000
1606134761.090,26.367,-26.855,-23.438,217.285,0.000
1606134761.094,-79.102,-37.109,-20.996,-117.188,0.000
1606134761.098,-135.254,-43.945,-22.461,-331.055,0.000
1606134761.101,-65.430,-22.461,-30.762,-148.926,0.000
1606134761.105,22.461,-7.324,-41.016,170.410,0.000
1606134761.109,21.484,-24.902,-42.480,209.473,0.000
1606134761.113,-57.129,-26.855,-39.551,-79.102,0.000
1606134761.117,-122.070,-29.297,-43.457,-324.707,0.000
1606134761.121,-86.914,-33.203,-36.621,-219.238,0.000
1606134761.125,5.859,-31.738,-27.344,112.793,0.000
1606134761.129,27.344,-29.785,-30.762,227.051,0.000
1606134761.133,-45.410,-32.715,-36.621,-28.320,0.000
1606134761.137,-112.305,-42.969,-41.016,-297.363,0.000
1606134761.141,-84.473,-33.203,-36.621,-233.398,0.000
1606134761.144,5.859,-22.949,-35.156,97.656,0.000
1606134761.148,41.016,-30.762,-33.203,257.324,0.000
1606134761.152,-21.973,-41.016,-31.250,30.273,0.000
1606134761.156,-96.680,-44.434,-34.180,-266.113,0.000
1606134761.160,-82.520,-38.574,-32.715,-241.211,0.000
1606134761.164,13.672,-27.832,-32.227,87.891,0.000
1606134761.168,56.641,-28.809,-36.621,263.672,0.000
1606134761.172,-7.812,-38.574,-38.574,66.895,0.000
1606134761.176,-89.844,-41.504,-41.016,-236.816,0.000
1606134761.180,-94.238,-41.992,-41.992,-267.090,0.000
1606134761.183,-13.184,-37.598,-37.598,38.574,0.000
1606134761.187,41.504,-30.273,-29.785,259.766,0.000
1606134761.191,1.953,-33.203,-25.879,109.863,0.000
1606134761.195,-83.984,-37.109,-24.414,-212.402,0.000
1606134761.199,-100.098,-37.598,-28.320,-289.062,0.000
1606134761.203,-16.113,-38.086,-34.180,-16.113,0.000
1606134761.207,46.875,-30.762,-30.273,219.727,0.000
1606134761.211,8.301,-30.273,-25.879,127.441,0.000
1606134761.215,-87.891,-44.922,-35.645,-200.195,0.000
1606134761.219,-115.723,-48.828,-39.551,-331.055,0.000
1606134761.223,-34.668,-39.062,-28.320,-78.613,0.000
1606134761.226,43.945,-28.320,-21.484,213.867,0.000
1606134761.230,25.391,-29.785,-23.926,169.922,0.000
1606134761.234,-66.406,-40.039,-24.414,-157.227,0.000
1606134761.238,-102.051,-33.691,-24.902,-317.383,0.000
1606134761.242,-40.039,-20.508,-23.926,-93.750,0.000
1606134761.246,39.062,-21.484,-24.414,220.703,0.000
1606134761.250,33.691,-25.391,-19.043,225.098,0.000
1606134761.254,-62.988,-33.691,-20.508,-107.910,0.000
1606134761.258,-117.188,-36.621,-26.367,-317.871,0.000
1606134761.262,-65.430,-34.668,-26.367,-148.438,0.000
1606134761.266,18.555,-30.762,-18.555,166.992,0.000
1606134761.269,28.809,-28.809,-15.625,216.797,0.000
1606134761.273,-52.246,-36.133,-28.809,-72.754,0.000
1606134761.277,-113.770,-40.039,-28.809,-309.570,0.000
1606134761.281,-83.496,-31.738,-24.902,-205.078,0.000
1606134761.285,-1.953,-25.391,-23.926,119.141,0.000
1606134761.289,14.160,-28.320,-22.461,227.051,0.000
1606134761.293,-59.082,-32.227,-24.902,-40.527,0.000
1606134761.297,-125.000,-39.062,-23.438,-307.129,0.000
1606134761.301,-105.957,-39.062,-28.320,-240.723,0.000
1606134761.305,-6.836,-27.832,-28.320,97.656,0.000
1606134761.308,34.180,-22.949,-23.438,241.699,0.000
1606134761.312,-39.062,-34.180,-30.273,-1.953,0.000
1606134761.316,-113.770,-35.156,-33.203,-285.645,0.000
1606134761.320,-102.051,-36.621,-32.227,-258.301,0.000
1606134761.324,-29.785,-42.480,-33.691,37.598,0.000
1606134761.328,16.602,-34.668,-31.738,217.285,0.000
1606134761.332,-22.949,-32.715,-31.250,42.480,0.000
1606134761.336,-100.098,-32.715,-33.691,-273.438,0.000
1606134761.340,-114.258,-34.668,-37.109,-299.805,0.000
1606134761.344,-34.668,-32.715,-36.133,9.277,0.000
1606134761.348,16.602,-26.367,-30.762,224.121,0.000
1606134761.351,-20.996,-28.809,-34.668,81.055,0.000
1606134761.355,-99.609,-35.156,-35.156,-233.398,0.000
1606134761.359,-114.746,-32.715,-34.668,-312.500,0.000
1606134761.363,-30.762,-25.879,-36.621,-29.297,0.000
1606134761.367,34.668,-20.996,-31.250,229.492,0.000
1606134761.371,-0.977,-20.508,-33.203,122.559,0.000
1606134761.375,-94.238,-28.809,-40.039,-221.680,0.000
1606134761.379,-121.094,-28.320,-40.527,-337.402,0.000
1606134761.383,-40.527,-23.926,-43.945,-83.496,0.000
1606134761.387,36.621,-23.926,-40.039,193.359,0.000
1606134761.391,17.090,-23.438,-41.016,151.367,0.000
1606134761.394,-66.895,-22.949,-47.852,-179.688,0.000
1606134761.398,-105.469,-29.297,-45.898,-339.844,0.000
1606134761.402,-45.898,-29.297,-38.574,-108.887,0.000
1606134761.406,30.762,-25.879,-34.180,200.684,0.000
1606134761.410,15.625,-25.391,-35.645,195.801,0.000
1606134761.414,-68.359,-25.391,-42.969,-124.512,0.000
1606134761.418,-122.070,-31.250,-48.340,-330.566,0.000
1606134761.422,-77.148,-23.926,-44.434,-164.551,0.000
1606134761.426,16.602,-16.113,-34.180,158.203,0.000
1606134761.430,27.344,-21.973,-27.832,211.426,0.000
1606134761.433,-61.035,-32.715,-31.738,-97.168,0.000
1606134761.437,-121.582,-37.598,-35.156,-335.938,0.000
1606134761.441,-83.496,-32.715,-30.273,-208.496,0.000
1606134761.445,1.953,-29.785,-20.020,128.906,0.000
1606134761.449,24.902,-29.785,-23.926,229.004,0.000
1606134761.453,-48.340,-31.250,-32.715,-57.617,0.000
1606134761.457,-115.234,-38.574,-31.738,-321.777,0.000
1606134761.461,-95.215,-19.043,-32.227,-227.539,0.000
1606134761.465,-10.742,-6.836,-37.109,100.586,0.000
1606134761.469,23.926,-25.879,-35.156,225.098,0.000
1606134761.473,-41.016,-35.156,-32.715,-10.742,0.000
1606134761.476,-114.258,-37.109,-34.668,-287.109,0.000
1606134761.480,-97.656,-29.297,-30.762,-257.812,0.000
1606134761.484,-15.625,-22.949,-25.391,53.711,0.000
1606134761.488,26.367,-21.973,-23.438,222.168,0.000
1606134761.492,-20.508,-25.391,-20.996,31.738,0.000
1606134761.496,-100.586,-35.645,-22.461,-270.508,0.000
1606134761.500,-102.051,-36.133,-29.785,-302.734,0.000
1606134761.504,-22.949,-28.809,-32.715,9.766,0.000
1606134761.508,24.414,-28.320,-28.320,232.422,0.000
1606134761.512,-16.602,-32.227,-32.227,72.266,0.000
1606134761.516,-97.656,-39.062,-34.668,-250.000,0.000
1606134761.519,-118.164,-36.133,-34.180,-330.566,0.000
1606134761.523,-36.621,-24.902,-27.344,-27.344,0.000
1606134761.527,20.996,-29.785,-22.461,213.379,0.000
1606134761.531,-23.438,-37.109,-28.809,94.238,0.000
1606134761.535,-106.934,-37.598,-36.621,-207.031,0.000
1606134761.539,-125.000,-38.086,-34.180,-322.754,0.000
1606134761.543,-44.922,-37.109,-26.855,-69.336,0.000
1606134761.547,21.484,-32.227,-29.297,195.312,0.000
1606134761.551,-0.977,-29.297,-29.297,140.625,0.000
1606134761.555,-76.172,-29.297,-26.367,-171.875,0.000
1606134761.558,-116.699,-38.574,-29.785,-329.590,0.000
1606134761.562,-64.941,-40.527,-31.250,-122.559,0.000
1606134761.566,19.043,-32.715,-22.949,177.246,0.000
1606134761.570,16.602,-31.738,-20.996,181.641,0.000
1606134761.574,-73.242,-43.457,-29.785,-145.020,0.000
1606134761.578,-123.535,-48.828,-35.645,-342.773,0.000
1606134761.582,-69.824,-43.945,-31.738,-150.879,0.000
1606134761.586,21.973,-36.621,-26.855,175.781,0.000
1606134761.590,24.414,-32.715,-23.926,226.074,0.000
1606134761.594,-62.500,-42.480,-32.715,-81.543,0.000
1606134761.598,-119.141,-46.875,-34.180,-312.988,0.000
1606134761.601,-82.520,-41.992,-25.879,-172.363,0.000
1606134761.605,2.441,-37.109,-18.555,157.227,0.000
1606134761.609,15.137,-37.598,-17.578,241.699,0.000
1606134761.613,-59.570,-41.992,-28.320,-42.969,0.000
1606134761.617,-116.699,-42.480,-40.039,-303.711,0.000
1606134761.621,-93.262,-38.086,-41.016,-226.074,0.000
1606134761.625,-10.254,-31.250,-28.809,103.027,0.000
1606134761.629,23.926,-32.227,-24.902,246.094,0.000
1606134761.633,-38.086,-38.086,-30.273,5.371,0.000
1606134761.637,-105.469,-43.945,-34.668,-275.391,0.000
1606134761.641,-88.867,-47.852,-36.621,-235.840,0.000
1606134761.644,-0.977,-36.133,-28.809,92.285,0.000
1606134761.648,40.527,-30.762,-24.902,267.578,0.000
1606134761.652,-15.625,-39.062,-33.203,62.988,0.000
1606134761.656,-93.750,-48.828,-37.109,-252.930,0.000
1606134761.660,-95.703,-40.527,-31.250,-280.273,0.000
1606134761.664,-13.184,-25.879,-26.367,33.203,0.000
1606134761.668,39.551,-26.855,-24.414,231.934,0.000
1606134761.672,-10.254,-30.273,-25.879,66.895,0.000
1606134761.676,-100.098,-37.109,-31.250,-257.812,0.000
1606134761.680,-110.352,-34.668,-32.227,-318.848,0.000
1606134761.683,-28.809,-28.809,-30.273,-24.902,0.000
1606134761.687,33.691,-22.461,-28.320,213.867,0.000
1606134761.691,-6.348,-22.949,-26.855,110.352,0.000
1606134761.695,-95.703,-36.621,-29.785,-205.566,0.000
1606134761.699,-115.723,-36.621,-32.227,-314.453,0.000
1606134761.703,-46.387,-20.508,-32.715,-68.848,0.000
1606134761.707,11.230,-19.043,-25.391,183.105,0.000
1606134761.711,-14.648,-24.414,-25.879,120.117,0.000
1606134761.715,-91.797,-31.250,-38.574,-201.660,0.000
1606134761.719,-116.211,-32.227,-43.945,-345.703,0.000
1606134761.723,-40.039,-25.391,-42.480,-111.816,0.000
1606134761.726,48.828,-16.602,-42.480,191.406,0.000
1606134761.730,49.805,-7.812,-45.410,185.059,0.000
1606134761.734,-29.297,-17.090,-54.688,-129.883,0.000
1606134761.738,-60.547,-21.973,-57.617,-287.598,0.000
1606134761.742,2.930,8.789,-58.105,-78.125,0.000
1606134761.746,87.402,2.930,-59.082,213.379,0.000
1606134761.750,100.586,-16.602,-59.570,230.469,0.000
1606134761.754,34.668,-6.836,-66.895,-60.547,0.000
1606134761.758,-0.977,-6.348,-69.824,-252.441,0.000
1606134761.762,47.852,-7.324,-64.453,-89.355,0.000
1606134761.766,136.719,0.000,-58.105,240.723,0.000
1606134761.769,157.227,1.465,-59.570,320.312,0.000
1606134761.773,88.867,-6.836,-61.035,39.551,0.000
1606134761.777,28.320,-14.160,-61.035,-205.566,0.000
1606134761.781,55.664,-17.090,-52.734,-107.910,0.000
1606134761.785,142.090,-12.207,-46.875,224.609,0.000
1606134761.789,174.316,-10.254,-48.340,354.004,0.000
1606134761.793,104.004,-15.137,-38.574,104.980,0.000
1606134761.797,19.043,-21.973,-39.062,-181.641,0.000
1606134761.801,27.832,-31.250,-43.457,-150.391,0.000
1606134761.805,104.004,-26.367,-35.156,170.898,0.000
1606134761.808,133.301,-23.926,-31.738,331.543,0.000
1606134761.812,71.777,-30.762,-34.668,118.652,0.000
1606134761.816,-3.418,-31.738,-37.598,-183.105,0.000
1606134761.820,-1.953,-33.203,-33.203,-187.012,0.000
1606134761.824,74.219,-31.738,-27.344,123.047,0.000
1606134761.828,119.629,-24.902,-21.484,318.359,0.000
1606134761.832,66.406,-27.344,-23.438,155.273,0.000
1606134761.836,-21.484,-37.598,-31.738,-150.879,0.000
1606134761.840,-33.203,-34.180,-29.785,-211.426,0.000
1606134761.844,40.527,-27.832,-21.973,69.336,0.000
1606134761.848,91.797,-32.715,-15.137,296.875,0.000
1606134761.851,58.594,-29.297,-18.555,186.035,0.000
1606134761.855,-29.785,-33.691,-28.809,-131.348,0.000
1606134761.859,-54.199,-37.109,-32.227,-247.070,0.000
1606134761.863,7.812,-32.227,-28.320,7.812,0.000
1606134761.867,64.941,-31.250,-20.508,267.578,0.000
1606134761.871,42.480,-32.715,-20.020,195.801,0.000
1606134761.875,-39.551,-43.457,-28.320,-134.766,0.000
1606134761.879,-73.242,-41.016,-36.133,-277.832,0.000
1606134761.883,-14.648,-31.250,-28.320,-46.875,0.000
1606134761.887,59.082,-31.738,-21.973,232.910,0.000
1606134761.891,53.711,-33.691,-21.973,219.238,0.000
1606134761.894,-32.227,-36.621,-25.879,-104.980,0.000
1606134761.898,-76.172,-36.621,-32.715,-290.527,0.000
1606134761.902,-22.461,-32.715,-25.879,-92.773,0.000
1606134761.906,56.152,-28.320,-22.949,213.867,0.000
1606134761.910,60.547,-24.902,-25.879,236.328,0.000
1606134761.914,-22.949,-26.855,-26.855,-69.336,0.000
1606134761.918,-74.219,-30.762,-28.809,-279.785,0.000
1606134761.922,-33.203,-28.320,-28.809,-135.742,0.000
1606134761.926,46.875,-22.461,-23.926,183.105,0.000
1606134761.930,60.059,-18.066,-24.414,265.625,0.000
1606134761.933,-22.461,-22.461,-25.391,-26.367,0.000
1606134761.937,-94.238,-30.273,-23.926,-288.574,0.000
1606134761.941,-68.359,-39.062,-29.297,-197.754,0.000
1606134761.945,22.461,-34.180,-27.344,133.789,0.000
1606134761.949,46.875,-23.438,-24.414,258.301,0.000
1606134761.953,-23.926,-29.785,-27.344,6.348,0.000
1606134761.957,-93.262,-34.668,-27.344,-269.531,0.000
1606134761.961,-77.148,-31.738,-27.832,-222.656,0.000
1606134761.965,11.719,-27.344,-27.344,102.051,0.000
1606134761.969,43.945,-31.250,-26.855,256.836,0.000
1606134761.973,-12.695,-33.203,-30.273,46.875,0.000
1606134761.976,-80.566,-33.691,-32.227,-237.793,0.000
1606134761.980,-75.684,-32.227,-28.809,-236.816,0.000
1606134761.984,7.324,-29.297,-28.809,70.312,0.000
1606134761.988,53.223,-30.273,-26.855,256.348,0.000
1606134761.992,2.441,-27.832,-24.414,86.914,0.000
1606134761.996,-85.449,-35.156,-28.320,-228.027,0.000
1606134762.000,-92.773,-32.227,-29.297,-279.785,0.000
1606134762.004,-9.277,-22.461,-23.438,23.926,0.000
1606134762.008,47.852,-25.391,-27.832,244.629,0.000
1606134762.012,4.395,-30.273,-29.785,110.840,0.000
1606134762.016,-80.566,-36.621,-26.855,-210.449,0.000
1606134762.019,-93.262,-27.832,-29.297,-300.781,0.000
1606134762.023,-17.090,-20.508,-25.391,-22.461,0.000
1606134762.027,44.922,-30.273,-23.926,235.840,0.000
1606134762.031,11.230,-39.062,-25.391,148.438,0.000
1606134762.035,-71.289,-45.898,-29.297,-175.293,0.000
1606134762.039,-99.609,-29.785,-30.762,-300.293,0.000
1606134762.043,-37.598,-20.020,-29.297,-71.777,0.000
1606134762.047,38.574,-32.227,-24.902,203.125,0.000
1606134762.051,30.273,-30.762,-24.414,179.688,0.000
1606134762.055,-56.152,-34.180,-30.762,-139.648,0.000
1606134762.058,-106.934,-37.598,-35.645,-318.359,0.000
1606134762.062,-50.293,-33.203,-31.738,-115.234,0.000
1606134762.066,38.574,-24.414,-21.973,200.684,0.000
1606134762.070,37.598,-26.367,-20.508,223.145,0.000
1606134762.074,-50.781,-40.527,-28.809,-105.957,0.000
1606134762.078,-106.445,-38.574,-31.738,-336.914,0.000
1606134762.082,-64.453,-25.391,-29.785,-180.664,0.000
1606134762.086,21.484,-27.832,-26.855,146.973,0.000
1606134762.090,41.504,-31.250,-25.879,220.703,0.000
1606134762.094,-32.715,-34.180,-31.738,-72.266,0.000
1606134762.098,-90.820,-38.086,-37.109,-316.406,0.000
1606134762.101,-62.500,-28.809,-33.203,-203.613,0.000
1606134762.105,30.762,-21.484,-29.297,113.770,0.000
1606134762.109,49.316,-20.996,-20.508,225.098,0.000
1606134762.113,-31.250,-23.926,-20.996,-21.484,0.000
1606134762.117,-94.238,-34.668,-28.320,-284.668,0.000
1606134762.121,-79.590,-16.113,-22.461,-220.703,0.000
1606134762.125,0.488,-1.465,-18.555,97.168,0.000
1606134762.129,35.156,-25.879,-16.113,236.328,0.000
1606134762.133,-26.367,-32.715,-20.508,20.508,0.000
1606134762.137,-98.145,-31.250,-26.367,-257.812,0.000
1606134762.141,-94.727,-34.180,-24.414,-249.023,0.000
1606134762.144,-10.742,-29.785,-17.090,62.500,0.000
1606134762.148,43.457,-20.508,-10.254,258.789,0.000
1606134762.152,-13.184,-25.391,-15.625,79.102,0.000
1606134762.156,-102.539,-38.086,-24.414,-242.676,0.000
1606134762.160,-111.816,-30.273,-24.414,-283.203,0.000
1606134762.164,-29.297,-25.879,-23.438,26.367,0.000
1606134762.168,31.250,-33.691,-22.949,250.977,0.000
1606134762.172,-12.207,-34.180,-25.391,113.281,0.000
1606134762.176,-101.074,-40.527,-34.180,-211.914,0.000
1606134762.180,-115.723,-30.762,-33.691,-292.969,0.000
1606134762.183,-34.668,-24.414,-25.391,-17.578,0.000
1606134762.187,34.668,-30.273,-22.949,225.098,0.000
1606134762.191,4.883,-32.227,-26.367,123.535,0.000
1606134762.195,-82.031,-38.574,-26.855,-198.730,0.000
1606134762.199,-108.398,-40.039,-26.855,-316.895,0.000
1606134762.203,-40.527,-35.156,-23.438,-77.637,0.000
1606134762.207,32.715,-27.832,-20.020,207.520,0.000
1606134762.211,16.113,-23.926,-20.996,175.781,0.000
1606134762.215,-75.684,-32.715,-26.855,-155.273,0.000
1606134762.219,-118.164,-30.762,-29.785,-332.031,0.000
1606134762.223,-57.617,0.977,-19.531,-123.535,0.000
1606134762.226,25.391,-2.930,-20.508,174.316,0.000
1606134762.230,24.902,-30.273,-30.273,182.129,0.000
1606134762.234,-56.152,-34.668,-32.227,-127.441,0.000
1606134762.238,-104.004,-34.180,-28.809,-323.730,0.000
1606134762.242,-58.594,-28.809,-24.902,-154.785,0.000
1606134762.246,22.949,-26.855,-20.020,154.297,0.000
1606134762.250,33.691,-24.902,-17.578,209.473,0.000
1606134762.254,-35.645,-28.809,-22.461,-69.824,0.000
1606134762.258,-93.262,-30.762,-24.902,-302.246,0.000
1606134762.262,-66.895,-7.324,-22.461,-197.754,0.000
1606134762.266,12.207,-6.836,-18.066,138.672,0.000
1606134762.269,31.738,-27.344,-18.555,241.211,0.000
1606134762.273,-38.086,-32.715,-26.367,-34.668,0.000
1606134762.277,-109.863,-36.133,-34.180,-290.527,0.000
1606134762.281,-89.355,-31.250,-33.691,-221.191,0.000
1606134762.285,2.441,-29.297,-27.344,100.586,0.000
1606134762.289,38.086,-31.738,-22.949,256.348,0.000
1606134762.293,-32.227,-33.691,-25.391,27.344,0.000
1606134762.297,-108.887,-33.203,-29.785,-268.555,0.000
1606134762.301,-92.285,-30.762,-24.902,-236.328,0.000
1606134762.305,4.395,-26.855,-17.090,89.355,0.000
1606134762.308,50.781,-23.438,-11.230,271.973,0.000
1606134762.312,-14.160,-26.855,-19.531,74.219,0.000
1606134762.316,-102.539,-41.992,-34.180,-250.000,0.000
1606134762.320,-100.586,-27.344,-30.273,-280.762,0.000
1606134762.324,-16.113,-2.930,-26.367,35.156,0.000
1606134762.328,43.457,-21.484,-27.832,256.348,0.000
1606134762.332,1.953,-29.297,-29.785,112.305,0.000
1606134762.336,-92.285,-25.879,-30.273,-200.684,0.000
1606134762.340,-104.980,-31.250,-27.344,-278.809,0.000
1606134762.344,-31.250,-32.227,-26.855,-5.371,0.000
1606134762.348,32.227,-27.344,-23.926,245.605,0.000
1606134762.351,-4.883,-27.344,-21.973,151.855,0.000
1606134762.355,-102.539,-41.992,-26.855,-185.547,0.000
1606134762.359,-130.859,-28.320,-29.297,-308.105,0.000
1606134762.363,-52.246,-9.766,-23.438,-53.711,0.000
1606134762.367,22.949,-22.949,-22.461,211.914,0.000
1606134762.371,5.859,-29.785,-30.762,166.016,0.000
1606134762.375,-76.172,-36.621,-34.668,-155.273,0.000
1606134762.379,-112.305,-38.574,-33.691,-322.266,0.000
1606134762.383,-31.738,-31.738,-28.320,-97.656,0.000
1606134762.387,54.199,-20.996,-11.230,215.820,0.000
1606134762.391,37.598,-18.066,-15.625,202.637,0.000
1606134762.394,-52.246,-28.320,-32.715,-125.488,0.000
1606134762.398,-88.867,-29.297,-35.156,-296.875,0.000
1606134762.402,-22.949,-19.043,-24.414,-122.070,0.000
1606134762.406,50.781,-19.043,-17.578,169.922,0.000
1606134762.410,38.086,-18.066,-28.809,197.754,0.000
1606134762.414,-63.477,-20.996,-33.203,-115.234,0.000
1606134762.418,-147.461,-26.367,-25.879,-350.586,0.000
1606134762.422,-121.094,-24.902,-18.555,-245.117,0.000
1606134762.426,-44.922,-26.367,-9.277,60.059,0.000
1606134762.430,-37.598,-25.879,-6.348,163.574,0.000
1606134762.433,-127.930,-28.320,-14.648,-121.582,0.000
1606134762.437,-219.238,-38.086,-18.555,-406.738,0.000
1606134762.441,-205.566,-37.598,-12.207,-335.449,0.000
1606134762.445,-133.789,-33.203,-1.953,-16.602,0.000
1606134762.449,-115.234,-36.133,-6.348,103.027,0.000
1606134762.453,-195.801,-39.551,-12.207,-141.113,0.000
1606134762.457,-291.992,-45.898,-7.324,-440.430,0.000
1606134762.461,-283.691,-16.113,-5.859,-423.340,0.000
1606134762.465,-193.359,-5.859,-2.930,-89.844,0.000
1606134762.469,-168.457,-33.203,-1.465,61.035,0.000
1606134762.473,-236.816,-36.133,0.977,-154.297,0.000
1606134762.476,-317.383,-44.434,0.977,-457.520,0.000
1606134762.480,-315.918,-53.711,-6.348,-491.699,0.000
1606134762.484,-233.887,-44.434,-0.488,-184.570,0.000
1606134762.488,-188.477,-35.156,2.930,32.715,0.000
1606134762.492,-233.398,-32.715,0.000,-106.445,0.000
1606134762.496,-316.406,-42.969,-1.465,-426.270,0.000
1606134762.500,-332.031,-25.391,-7.324,-517.090,0.000
1606134762.504,-237.305,2.930,-15.137,-221.680,0.000
1606134762.508,-154.785,-18.066,-10.254,46.387,0.000
1606134762.512,-191.406,-30.762,-4.883,-59.082,0.000
1606134762.516,-262.207,-41.504,-12.207,-370.605,0.000
1606134762.519,-261.719,-47.852,-15.625,-463.867,0.000
1606134762.523,-182.129,-40.527,-14.160,-203.125,0.000
1606134762.527,-95.215,-39.551,-8.301,86.426,0.000
1606134762.531,-102.539,-37.598,-19.043,39.062,0.000
1606134762.535,-178.223,-41.016,-29.785,-266.602,0.000
1606134762.539,-196.777,-28.809,-24.414,-400.391,0.000
1606134762.543,-127.441,-24.902,-22.949,-180.176,0.000
1606134762.547,-40.039,-55.176,-24.902,125.000,0.000
1606134762.551,-25.879,-63.965,-28.809,143.066,0.000
1606134762.555,-98.145,-55.176,-30.762,-150.879,0.000
1606134762.558,-136.719,-47.852,-30.762,-321.289,0.000
1606134762.562,-77.148,-47.852,-32.715,-144.043,0.000
1606134762.566,6.348,-52.734,-35.156,165.527,0.000
1606134762.570,16.113,-51.270,-41.016,222.656,0.000
1606134762.574,-62.500,-61.035,-45.898,-69.824,0.000
1606134762.578,-119.141,-63.477,-48.340,-294.922,0.000
1606134762.582,-70.312,-55.664,-41.504,-157.715,0.000
1606134762.586,28.809,-47.363,-31.250,187.012,0.000
1606134762.590,54.199,-41.504,-34.668,282.227,0.000
1606134762.594,-25.879,-57.129,-42.480,-2.441,0.000
1606134762.598,-96.680,-68.848,-45.898,-271.973,0.000
1606134762.601,-56.641,-30.273,-43.945,-183.105,0.000
1606134762.605,44.434,-13.672,-37.109,166.504,0.000
1606134762.609,81.543,-40.527,-32.715,308.594,0.000
1606134762.613,17.090,-49.316,-38.574,63.965,0.000
1606134762.617,-60.059,-55.664,-48.828,-225.586,0.000
1606134762.621,-43.457,-44.434,-51.270,-195.801,0.000
1606134762.625,55.664,-41.504,-44.434,136.719,0.000
1606134762.629,106.934,-47.852,-35.645,324.707,0.000
1606134762.633,52.246,-41.504,-38.086,129.883,0.000
1606134762.637,-30.762,-44.434,-44.922,-188.477,0.000
1606134762.641,-20.996,-41.016,-46.875,-207.520,0.000
1606134762.644,75.195,-28.809,-39.551,123.047,0.000
1606134762.648,130.371,-25.391,-33.203,343.750,0.000
1606134762.652,92.285,-20.508,-34.180,187.500,0.000
1606134762.656,1.465,-26.367,-43.945,-149.414,0.000
1606134762.660,-24.902,-31.738,-43.457,-229.004,0.000
1606134762.664,57.617,-28.809,-43.457,62.988,0.000
1606134762.668,118.652,-30.273,-41.016,313.477,0.000
1606134762.672,74.707,-36.133,-39.551,196.777,0.000
1606134762.676,-25.879,-48.828,-45.898,-146.484,0.000
1606134762.680,-55.176,-45.410,-46.875,-250.488,0.000
1606134762.683,17.090,-23.926,-42.480,4.883,0.000
1606134762.687,83.496,-24.414,-35.645,259.766,0.000
1606134762.691,56.641,-35.645,-34.668,198.730,0.000
1606134762.695,-39.551,-37.109,-38.574,-135.742,0.000
1606134762.699,-77.637,-40.039,-42.969,-290.527,0.000
1606134762.703,-4.395,-31.738,-39.062,-50.293,0.000
1606134762.707,79.102,-21.484,-32.227,254.395,0.000
1606134762.711,69.336,-22.461,-31.250,246.582,0.000
1606134762.715,-21.973,-32.715,-33.203,-83.984,0.000
1606134762.719,-71.777,-31.738,-34.180,-288.574,0.000
1606134762.723,-16.113,-30.273,-24.902,-97.168,0.000
1606134762.726,71.289,-30.762,-18.066,227.539,0.000
1606134762.730,68.848,-28.320,-20.996,252.441,0.000
1606134762.734,-30.273,-45.898,-29.297,-74.219,0.000
1606134762.738,-90.332,-52.246,-35.645,-305.176,0.000
1606134762.742,-39.551,-24.902,-30.273,-152.832,0.000
1606134762.746,50.293,-22.949,-29.297,183.594,0.000
1606134762.750,60.547,-36.133,-33.203,262.695,0.000
1606134762.754,-20.508,-41.992,-37.109,-28.809,0.000
1606134762.758,-84.961,-42.480,-36.133,-282.715,0.000
1606134762.762,-53.711,-34.180,-31.250,-185.059,0.000
1606134762.766,45.410,-25.391,-26.367,165.039,0.000
1606134762.769,81.543,-24.414,-20.996,302.246,0.000
1606134762.773,4.883,-28.320,-29.785,42.480,0.000
1606134762.777,-66.895,-30.762,-34.180,-256.348,0.000
1606134762.781,-49.316,-4.395,-32.715,-227.051,0.000
1606134762.785,38.086,15.137,-32.227,105.469,0.000
1606134762.789,87.402,-14.160,-26.367,288.086,0.000
1606134762.793,28.320,-26.855,-27.832,74.707,0.000
1606134762.797,-61.523,-31.738,-31.250,-244.141,0.000
1606134762.801,-59.082,-35.645,-35.645,-258.301,0.000
1606134762.805,28.320,-28.809,-32.715,76.172,0.000
1606134762.808,72.266,-28.320,-24.414,292.480,0.000
1606134762.812,21.484,-35.645,-26.855,114.258,0.000
1606134762.816,-58.105,-39.062,-27.344,-219.238,0.000
1606134762.820,-74.219,-13.672,-27.344,-279.297,0.000
1606134762.824,8.789,-5.859,-30.273,24.902,0.000
1606134762.828,78.613,-31.250,-29.785,276.855,0.000
1606134762.832,27.832,-37.109,-24.902,153.320,0.000
1606134762.836,-67.871,-40.039,-28.320,-193.848,0.000
1606134762.840,-86.426,-32.715,-33.203,-305.176,0.000
1606134762.844,-9.766,-27.344,-27.344,-30.762,0.000
1606134762.848,59.082,-35.645,-23.926,247.559,0.000
1606134762.851,35.645,-37.109,-26.855,174.316,0.000
1606134762.855,-48.828,-34.668,-28.320,-159.668,0.000
1606134762.859,-86.426,-35.645,-28.320,-311.523,0.000
1606134762.863,-19.531,-28.320,-26.367,-63.965,0.000
1606134762.867,69.336,-25.879,-19.531,247.559,0.000
1606134762.871,51.270,-28.809,-26.855,215.820,0.000
1606134762.875,-59.570,-39.551,-37.109,-130.859,0.000
1606134762.879,-115.234,-39.551,-37.109,-318.359,0.000
1606134762.883,-54.688,-28.320,-36.621,-111.328,0.000
1606134762.887,37.109,-25.391,-31.738,220.703,0.000
1606134762.891,48.828,-30.762,-33.203,246.582,0.000
1606134762.894,-36.621,-42.969,-37.598,-82.520,0.000
1606134762.898,-91.797,-36.133,-35.156,-302.734,0.000
1606134762.902,-44.434,-25.391,-34.180,-154.297,0.000
1606134762.906,37.598,-37.598,-29.785,173.828,0.000
1606134762.910,59.570,-35.156,-30.273,259.766,0.000
1606134762.914,-16.602,-33.691,-33.691,-33.203,0.000
1606134762.918,-105.469,-42.969,-34.668,-310.547,0.000
1606134762.922,-72.754,-26.855,-36.621,-208.496,0.000
1606134762.926,30.762,-18.555,-33.203,135.742,0.000
1606134762.930,61.035,-27.832,-25.879,259.277,0.000
1606134762.933,-16.113,-32.227,-33.691,-4.395,0.000
1606134762.937,-91.797,-34.180,-46.875,-302.246,0.000
1606134762.941,-71.777,-32.715,-43.457,-252.930,0.000
1606134762.945,24.414,-27.344,-32.715,99.121,0.000
1606134762.949,74.707,-24.902,-27.344,279.785,0.000
1606134762.953,4.395,-33.203,-32.227,51.270,0.000
1606134762.957,-83.984,-36.621,-38.574,-268.555,0.000
1606134762.961,-75.195,-15.625,-41.016,-263.184,0.000
1606134762.965,16.602,0.977,-31.250,73.242,0.000
1606134762.969,57.129,-20.020,-21.973,270.996,0.000
1606134762.973,-7.812,-29.785,-24.414,82.031,0.000
1606134762.976,-87.402,-34.668,-27.832,-240.234,0.000
1606134762.980,-100.586,-32.227,-28.809,-297.852,0.000
1606134762.984,-18.555,-25.879,-26.855,12.695,0.000
1606134762.988,46.387,-29.785,-19.531,257.324,0.000
1606134762.992,2.441,-31.250,-17.090,125.977,0.000
1606134762.996,-88.379,-36.621,-20.996,-208.496,0.000
1606134763.000,-110.840,-41.992,-22.461,-312.500,0.000
1606134763.004,-33.203,-35.645,-20.508,-20.508,0.000
1606134763.008,42.969,-23.438,-20.508,262.207,0.000
1606134763.012,11.230,-25.879,-26.855,167.969,0.000
1606134763.016,-90.820,-37.598,-30.762,-185.547,0.000
1606134763.019,-125.977,-37.598,-30.762,-335.938,0.000
1606134763.023,-55.664,-28.809,-31.738,-85.938,0.000
1606134763.027,29.297,-31.250,-30.762,227.051,0.000
1606134763.031,20.508,-40.527,-29.785,194.336,0.000
1606134763.035,-73.730,-43.457,-32.715,-157.715,0.000
1606134763.039,-116.699,-34.668,-34.180,-333.008,0.000
1606134763.043,-49.316,-25.391,-34.180,-119.629,0.000
1606134763.047,45.898,-28.809,-28.809,197.754,0.000
1606134763.051,44.434,-31.738,-32.715,223.633,0.000
1606134763.055,-42.969,-39.551,-39.062,-96.191,0.000
1606134763.058,-95.703,-38.086,-41.992,-326.660,0.000
1606134763.062,-56.152,-16.113,-45.410,-175.293,0.000
1606134763.066,27.344,-16.113,-36.621,156.738,0.000
1606134763.070,38.086,-26.367,-30.273,231.934,0.000
1606134763.074,-48.340,-31.250,-30.273,-61.035,0.000
1606134763.078,-110.352,-31.250,-27.344,-318.848,0.000
1606134763.082,-78.125,-35.156,-28.320,-207.520,0.000
1606134763.086,13.672,-33.691,-29.297,135.742,0.000
1606134763.090,49.316,-25.879,-30.273,257.812,0.000
1606134763.094,-41.504,-31.250,-36.133,-11.230,0.000
1606134763.098,-126.465,-40.527,-39.551,-299.805,0.000
1606134763.101,-107.910,-18.066,-40.039,-241.211,0.000
1606134763.105,-14.648,-15.137,-34.180,95.703,0.000
1606134763.109,20.508,-37.109,-31.738,253.418,0.000
1606134763.113,-54.199,-41.504,-38.086,20.508,0.000
1606134763.117,-125.488,-42.480,-37.109,-280.762,0.000
1606134763.121,-102.539,-37.109,-34.668,-272.949,0.000
1606134763.125,-8.789,-28.809,-34.668,60.059,0.000
1606134763.129,56.641,-20.020,-31.738,269.043,0.000
1606134763.133,-4.395,-24.902,-32.227,83.496,0.000
1606134763.137,-109.375,-35.156,-35.645,-263.184,0.000
1606134763.141,-104.492,-33.203,-32.715,-307.129,0.000
1606134763.144,1.953,-26.367,-25.879,28.809,0.000
1606134763.148,73.242,-20.508,-21.973,282.715,0.000
1606134763.152,29.785,-21.484,-26.367,138.672,0.000
1606134763.156,-60.547,-40.527,-28.809,-216.797,0.000
1606134763.160,-81.055,-14.160,-24.414,-318.848,0.000
1606134763.164,-5.859,32.227,-24.902,-17.090,0.000
1606134763.168,63.965,-7.812,-27.344,270.996,0.000
1606134763.172,23.926,-37.109,-27.344,172.852,0.000
1606134763.176,-82.520,-34.180,-28.320,-184.570,0.000
1606134763.180,-111.816,-35.645,-31.738,-322.266,0.000
1606134763.183,-34.668,-37.598,-28.320,-59.570,0.000
1606134763.187,44.922,-31.738,-23.926,245.605,0.000
1606134763.191,24.414,-29.785,-25.879,212.891,0.000
1606134763.195,-75.684,-45.898,-33.691,-142.578,0.000
1606134763.199,-125.000,-43.457,-36.133,-332.031,0.000
1606134763.203,-64.453,-23.926,-34.668,-112.305,0.000
1606134763.207,27.832,-24.414,-31.738,208.008,0.000
1606134763.211,33.203,-28.320,-32.227,229.492,0.000
1606134763.215,-56.152,-35.156,-34.668,-109.375,0.000
1606134763.219,-111.816,-35.645,-34.668,-334.961,0.000
1606134763.223,-54.688,-31.250,-28.320,-158.203,0.000
1606134763.226,40.527,-26.367,-22.461,190.918,0.000
1606134763.230,43.945,-20.508,-25.391,258.301,0.000
1606134763.234,-51.758,-37.109,-35.645,-70.801,0.000
1606134763.238,-110.840,-47.852,-38.086,-328.613,0.000
1606134763.242,-75.684,-28.320,-35.645,-196.777,0.000
1606134763.246,11.719,-30.762,-31.738,157.227,0.000
1606134763.250,36.133,-41.016,-27.344,264.648,0.000
1606134763.254,-41.504,-42.969,-31.738,-32.227,0.000
1606134763.258,-114.258,-43.945,-30.762,-320.312,0.000
1606134763.262,-72.266,-16.602,-27.832,-237.305,0.000
1606134763.266,26.367,-20.020,-26.367,117.188,0.000
1606134763.269,53.223,-40.039,-23.926,269.531,0.000
1606134763.273,-9.766,-36.133,-31.738,23.438,0.000
1606134763.277,-102.051,-39.062,-36.133,-291.016,0.000
1606134763.281,-85.449,-39.062,-37.109,-286.133,0.000
1606134763.285,13.672,-36.621,-36.133,64.453,0.000
1606134763.289,65.918,-36.621,-30.273,279.785,0.000
1606134763.293,8.301,-38.574,-31.738,58.105,0.000
1606134763.297,-81.055,-41.016,-33.691,-273.438,0.000
1606134763.301,-90.820,-22.461,-35.645,-300.781,0.000
1606134763.305,-4.883,-11.230,-34.180,19.043,0.000
1606134763.308,55.664,-29.297,-31.250,267.578,0.000
1606134763.312,9.766,-41.992,-30.273,118.652,0.000
1606134763.316,-90.820,-43.945,-34.180,-234.863,0.000
1606134763.320,-108.887,-34.180,-38.086,-316.895,0.000
1606134763.324,-25.391,-28.320,-29.785,0.488,0.000
1606134763.328,44.922,-28.320,-23.438,269.043,0.000
1606134763.332,14.160,-23.438,-27.832,153.320,0.000
1606134763.336,-83.984,-26.855,-31.738,-203.613,0.000
1606134763.340,-116.699,-27.344,-33.691,-333.984,0.000
1606134763.344,-38.086,-20.996,-31.250,-65.430,0.000
1606134763.348,44.922,-23.438,-25.391,237.305,0.000
1606134763.351,24.902,-24.414,-28.320,170.410,0.000
1606134763.355,-72.266,-25.391,-28.809,-185.547,0.000
1606134763.359,-115.723,-28.809,-30.273,-348.633,0.000
1606134763.363,-47.852,-26.855,-28.809,-124.023,0.000
1606134763.367,37.598,-24.902,-21.484,210.938,0.000
1606134763.371,26.855,-28.809,-26.367,217.285,0.000
1606134763.375,-67.383,-37.109,-34.180,-132.324,0.000
1606134763.379,-114.746,-25.391,-32.227,-341.797,0.000
1606134763.383,-59.082,-2.930,-29.297,-152.832,0.000
1606134763.387,34.180,-16.602,-28.809,176.758,0.000
1606134763.391,39.551,-28.320,-27.344,238.281,0.000
1606134763.394,-53.223,-34.668,-24.902,-79.590,0.000
1606134763.398,-112.793,-41.016,-30.762,-333.008,0.000
1606134763.402,-67.871,-31.738,-26.855,-189.941,0.000
1606134763.406,31.250,-30.273,-19.531,165.527,0.000
1606134763.410,60.059,-30.273,-21.484,274.414,0.000
1606134763.414,-21.973,-25.391,-24.414,-11.719,0.000
1606134763.418,-96.680,-33.203,-29.785,-297.363,0.000
1606134763.422,-69.824,-35.645,-33.691,-229.980,0.000
1606134763.426,26.367,-21.973,-30.762,127.930,0.000
1606134763.430,61.523,-20.020,-26.367,293.457,0.000
1606134763.433,-20.508,-32.227,-31.738,24.902,0.000
1606134763.437,-107.910,-42.480,-37.109,-307.129,0.000
1606134763.441,-92.285,-27.344,-34.668,-275.879,0.000
1606134763.445,8.301,-9.277,-24.414,83.496,0.000
1606134763.449,60.059,-22.949,-20.020,276.855,0.000
1606134763.453,6.348,-27.832,-30.762,61.523,0.000
1606134763.457,-80.566,-32.227,-33.203,-272.461,0.000
1606134763.461,-101.562,-37.598,-24.902,-292.480,0.000
1606134763.465,-18.555,-38.086,-26.367,36.133,0.000
1606134763.469,45.898,-38.574,-31.250,254.883,0.000
1606134763.473,-5.859,-32.715,-35.156,87.402,0.000
1606134763.476,-104.492,-41.504,-42.480,-259.277,0.000
1606134763.480,-118.164,-43.457,-46.387,-345.703,0.000
1606134763.484,-28.809,-34.180,-40.039,-43.945,0.000
1606134763.488,32.715,-37.109,-36.621,230.469,0.000
1606134763.492,-1.953,-37.598,-34.180,126.465,0.000
1606134763.496,-95.703,-46.875,-36.133,-226.562,0.000
1606134763.500,-129.395,-45.898,-38.574,-354.980,0.000
1606134763.504,-47.852,-41.504,-33.203,-80.566,0.000
1606134763.508,35.645,-32.227,-26.367,217.285,0.000
1606134763.512,17.090,-25.879,-22.949,164.062,0.000
1606134763.516,-85.938,-47.852,-33.203,-193.359,0.000
1606134763.519,-136.230,-45.410,-41.016,-369.141,0.000
1606134763.523,-58.594,-26.367,-35.156,-108.887,0.000
1606134763.527,27.832,-37.109,-25.879,225.098,0.000
1606134763.531,7.324,-46.875,-27.344,200.195,0.000
1606134763.535,-87.891,-60.059,-37.598,-147.949,0.000
1606134763.539,-139.648,-44.434,-35.156,-352.539,0.000
1606134763.543,-85.449,-7.812,-27.344,-158.691,0.000
1606134763.547,8.789,-28.320,-28.320,190.918,0.000
1606134763.551,20.020,-41.016,-29.785,247.559,0.000
1606134763.555,-64.453,-38.086,-28.320,-75.195,0.000
1606134763.558,-123.047,-43.457,-31.738,-331.543,0.000
1606134763.562,-82.031,-44.434,-29.785,-198.730,0.000
1606134763.566,19.531,-40.039,-26.367,157.715,0.000
1606134763.570,47.363,-37.109,-27.344,266.113,0.000
1606134763.574,-38.574,-45.898,-33.203,-39.062,0.000
1606134763.578,-96.191,-47.852,-40.039,-332.031,0.000
1606134763.582,-70.801,-27.832,-34.668,-243.164,0.000
1606134763.586,15.625,-22.461,-24.902,120.117,0.000
1606134763.590,64.941,-28.809,-24.902,272.461,0.000
1606134763.594,-6.836,-34.668,-26.367,18.555,0.000
1606134763.598,-84.473,-43.457,-34.180,-301.758,0.000
1606134763.601,-77.637,-37.109,-46.387,-273.438,0.000
1606134763.605,7.812,-31.250,-45.410,83.984,0.000
1606134763.609,56.641,-32.715,-37.598,270.508,0.000
1606134763.613,-3.418,-36.133,-36.133,58.594,0.000
1606134763.617,-91.797,-37.598,-41.016,-260.742,0.000
1606134763.621,-96.191,-35.156,-42.480,-284.668,0.000
1606134763.625,-3.906,-27.344,-35.156,47.852,0.000
1606134763.629,51.758,-29.297,-28.320,270.996,0.000
1606134763.633,-6.348,-35.645,-24.902,113.770,0.000
1606134763.637,-103.516,-40.527,-30.762,-219.238,0.000
1606134763.641,-116.211,-41.504,-33.691,-302.246,0.000
1606134763.644,-30.273,-38.086,-24.414,3.906,0.000
1606134763.648,35.156,-36.621,-22.949,271.973,0.000
1606134763.652,-6.836,-36.621,-33.203,151.855,0.000
1606134763.656,-103.027,-44.922,-43.457,-212.402,0.000
1606134763.660,-127.441,-41.016,-43.945,-328.613,0.000
1606134763.664,-41.992,-37.109,-37.598,-37.109,0.000
1606134763.668,37.598,-39.062,-31.738,251.465,0.000
1606134763.672,22.461,-34.668,-28.320,187.500,0.000
1606134763.676,-71.289,-38.086,-36.133,-176.270,0.000
1606134763.680,-105.957,-39.551,-40.039,-342.773,0.000
1606134763.683,-27.832,-31.250,-27.832,-91.797,0.000
1606134763.687,56.152,-25.391,-29.785,228.027,0.000
1606134763.691,50.781,-28.809,-34.180,220.215,0.000
1606134763.695,-41.992,-38.086,-37.598,-130.371,0.000
1606134763.699,-98.145,-37.598,-41.016,-342.285,0.000
1606134763.703,-42.480,-32.227,-33.691,-143.555,0.000
1606134763.707,45.898,-30.273,-27.832,201.660,0.000
1606134763.711,45.898,-28.809,-27.832,248.535,0.000
1606134763.715,-48.340,-29.297,-29.785,-81.055,0.000
1606134763.719,-110.352,-34.180,-29.785,-334.473,0.000
1606134763.723,-70.801,-22.461,-35.156,-199.219,0.000
1606134763.726,16.602,-14.160,-35.645,159.180,0.000
1606134763.730,34.668,-25.391,-24.414,259.766,0.000
1606134763.734,-54.688,-31.250,-27.344,-59.570,0.000
1606134763.738,-117.676,-33.203,-40.527,-343.262,0.000
1606134763.742,-76.172,-27.832,-32.227,-224.609,0.000
1606134763.746,1.465,-26.855,-19.043,124.512,0.000
1606134763.750,23.438,-30.273,-17.578,268.555,0.000
1606134763.754,-41.992,-37.109,-18.066,25.879,0.000
1606134763.758,-99.609,-42.480,-17.578,-261.719,0.000
1606134763.762,-69.336,-41.016,-22.949,-201.172,0.000
1606134763.766,35.156,-40.039,-23.438,157.227,0.000
1606134763.769,94.238,-35.156,-21.973,351.074,0.000
1606134763.773,34.180,-28.809,-27.344,132.812,0.000
1606134763.777,-54.199,-42.480,-31.738,-208.984,0.000
1606134763.781,-57.617,-47.363,-26.855,-228.516,0.000
1606134763.785,52.734,-34.180,-20.020,113.281,0.000
1606134763.789,114.258,-24.902,-17.578,332.520,0.000
1606134763.793,44.434,-25.391,-19.043,157.715,0.000
1606134763.797,-37.598,-33.203,-28.320,-187.500,0.000
1606134763.801,-40.039,-27.832,-31.738,-250.488,0.000
1606134763.805,49.316,-20.508,-26.855,66.406,0.000
1606134763.808,110.352,-23.926,-24.902,308.105,0.000
1606134763.812,62.988,-26.855,-29.785,173.340,0.000
1606134763.816,-36.621,-34.668,-37.598,-185.059,0.000
1606134763.820,-62.500,-26.367,-41.016,-305.176,0.000
1606134763.824,13.672,-13.672,-35.156,-18.555,0.000
1606134763.828,86.426,-18.555,-21.973,276.855,0.000
1606134763.832,52.246,-28.809,-25.391,198.730,0.000
1606134763.836,-45.410,-39.551,-40.039,-161.621,0.000
1606134763.840,-82.520,-39.062,-36.621,-312.988,0.000
1606134763.844,-19.531,-33.203,-31.738,-67.871,0.000
1606134763.848,64.941,-26.855,-27.832,255.859,0.000
1606134763.851,50.781,-25.879,-21.973,240.234,0.000
1606134763.855,-61.523,-41.504,-24.902,-122.559,0.000
1606134763.859,-115.723,-47.363,-30.273,-328.613,0.000
1606134763.863,-55.664,-34.180,-26.855,-118.652,0.000
1606134763.867,27.832,-33.691,-17.578,214.844,0.000
1606134763.871,22.949,-37.598,-20.508,239.746,0.000
1606134763.875,-49.316,-40.527,-20.996,-76.172,0.000
1606134763.879,-95.215,-40.527,-19.043,-298.828,0.000
1606134763.883,-71.777,-39.551,-23.926,-143.555,0.000
1606134763.887,30.762,-30.762,-20.020,213.379,0.000
1606134763.891,66.406,-24.414,-20.508,293.945,0.000
1606134763.894,-17.578,-31.738,-22.949,-13.184,0.000
1606134763.898,-83.008,-36.133,-25.391,-273.926,0.000
1606134763.902,-58.105,-37.109,-29.297,-186.035,0.000
1606134763.906,26.855,-35.645,-27.344,152.832,0.000
1606134763.910,62.012,-30.273,-21.973,281.250,0.000
1606134763.914,-4.395,-31.250,-20.508,14.648,0.000
1606134763.918,-81.543,-41.016,-26.855,-290.039,0.000
1606134763.922,-67.871,-38.086,-30.762,-246.094,0.000
1606134763.926,29.785,-29.785,-26.367,108.398,0.000
1606134763.930,72.266,-28.320,-21.484,286.133,0.000
1606134763.933,4.395,-32.715,-25.879,57.617,0.000
1606134763.937,-76.172,-37.598,-33.691,-260.742,0.000
1606134763.941,-69.336,-31.250,-30.762,-256.836,0.000
1606134763.945,17.090,-21.973,-26.367,84.473,0.000
1606134763.949,57.129,-22.461,-29.297,275.879,0.000
1606134763.953,0.977,-30.762,-28.809,73.730,0.000
1606134763.957,-92.285,-35.645,-28.809,-256.348,0.000
1606134763.961,-104.492,-32.227,-34.180,-299.805,0.000
1606134763.965,-6.836,-31.738,-32.715,27.344,0.000
1606134763.969,60.059,-30.273,-24.414,283.203,0.000
1606134763.973,5.859,-33.203,-25.391,139.160,0.000
1606134763.976,-103.516,-37.598,-29.297,-216.309,0.000
1606134763.980,-127.441,-34.180,-30.273,-322.266,0.000
1606134763.984,-42.969,-30.273,-26.855,-29.785,0.000
1606134763.988,25.391,-24.902,-20.020,269.043,0.000
1606134763.992,22.949,-20.508,-20.996,212.402,0.000
1606134763.996,-69.824,-29.297,-24.414,-146.973,0.000
1606134764.000,-144.043,-40.527,-34.668,-313.965,0.000
1606134764.004,-59.082,-21.973,-39.062,-56.152,0.000
1606134764.008,43.457,-14.648,-32.227,255.859,0.000
1606134764.012,17.090,-29.785,-26.855,227.051,0.000
1606134764.016,-83.984,-36.621,-27.832,-130.371,0.000
1606134764.019,-126.953,-45.410,-37.598,-332.031,0.000
1606134764.023,-62.988,-40.039,-36.621,-122.070,0.000
1606134764.027,30.273,-23.926,-28.809,213.379,0.000
1606134764.031,35.645,-19.531,-26.855,242.188,0.000
1606134764.035,-43.457,-28.809,-27.832,-80.078,0.000
1606134764.039,-98.633,-24.414,-33.203,-307.129,0.000
1606134764.043,-49.805,-9.277,-33.691,-162.109,0.000
1606134764.047,38.574,-16.113,-27.832,170.410,0.000
1606134764.051,45.898,-23.438,-27.832,239.746,0.000
1606134764.055,-34.180,-27.344,-35.156,-62.988,0.000
1606134764.058,-95.703,-33.203,-44.922,-327.637,0.000
1606134764.062,-51.270,-26.855,-33.691,-206.055,0.000
1606134764.066,43.457,-25.391,-20.996,152.832,0.000
1606134764.070,76.660,-25.879,-26.855,262.695,0.000
1606134764.074,-4.883,-26.855,-31.738,-14.648,0.000
1606134764.078,-107.910,-31.250,-37.109,-309.082,0.000
1606134764.082,-82.520,-29.297,-33.691,-244.141,0.000
1606134764.086,15.137,-28.320,-24.902,113.770,0.000
1606134764.090,56.641,-25.879,-21.973,275.879,0.000
1606134764.094,-15.625,-33.691,-26.855,34.668,0.000
1606134764.098,-110.840,-40.039,-36.133,-290.039,0.000
1606134764.101,-102.051,-48.340,-33.691,-280.273,0.000
1606134764.105,-10.742,-50.781,-26.367,63.477,0.000
1606134764.109,39.062,-34.180,-19.043,270.020,0.000
1606134764.113,-17.578,-37.598,-26.367,83.984,0.000
1606134764.117,-105.469,-48.340,-36.621,-248.535,0.000
1606134764.121,-103.027,-44.434,-32.227,-278.809,0.000
1606134764.125,2.930,-40.527,-18.555,35.645,0.000
1606134764.129,55.664,-26.855,-13.184,273.438,0.000
1606134764.133,8.301,-21.973,-22.461,147.949,0.000
1606134764.137,-85.449,-36.133,-24.902,-205.078,0.000
1606134764.141,-114.746,-34.180,-24.414,-301.758,0.000
1606134764.144,-28.809,-28.809,-26.367,0.488,0.000
1606134764.148,46.875,-29.297,-23.926,264.648,0.000
1606134764.152,19.043,-27.344,-25.391,159.180,0.000
1606134764.156,-76.172,-35.156,-29.785,-190.918,0.000
1606134764.160,-112.305,-34.668,-25.879,-331.055,0.000
1606134764.164,-46.387,-30.762,-24.414,-80.566,0.000
1606134764.168,43.945,-27.344,-26.855,222.656,0.000
1606134764.172,22.461,-29.785,-32.715,179.688,0.000
1606134764.176,-73.730,-42.480,-34.668,-157.227,0.000
1606134764.180,-103.027,-36.621,-30.273,-312.988,0.000
1606134764.183,-42.480,-25.879,-27.344,-116.699,0.000
1606134764.187,46.387,-27.344,-23.438,189.453,0.000
1606134764.191,59.570,-24.414,-31.250,210.449,0.000
1606134764.195,-36.621,-28.809,-36.133,-113.770,0.000
1606134764.199,-103.027,-30.273,-34.668,-327.148,0.000
1606134764.203,-51.270,-23.438,-33.203,-171.875,0.000
1606134764.207,47.852,-21.484,-23.926,166.016,0.000
1606134764.211,70.801,-17.090,-20.020,245.117,0.000
1606134764.215,-17.578,-22.949,-23.438,-59.570,0.000
1606134764.219,-83.008,-26.367,-26.367,-317.383,0.000
1606134764.223,-58.105,-25.879,-26.367,-189.453,0.000
1606134764.226,31.250,-24.414,-29.785,160.156,0.000
1606134764.230,64.941,-19.531,-26.367,258.301,0.000
1606134764.234,-24.902,-33.203,-24.414,-24.902,0.000
1606134764.238,-99.609,-38.086,-30.762,-297.363,0.000
1606134764.242,-65.430,-10.254,-32.227,-221.680,0.000
1606134764.246,17.090,-4.883,-25.391,118.164,0.000
1606134764.250,62.988,-20.508,-24.414,274.902,0.000
1606134764.254,-21.484,-23.438,-25.391,42.480,0.000
1606134764.258,-100.586,-26.367,-26.367,-269.043,0.000
1606134764.262,-76.660,-32.227,-31.250,-261.719,0.000
1606134764.266,-13.184,-30.762,-31.738,67.383,0.000
1606134764.269,56.641,-24.902,-26.855,277.344,0.000
1606134764.273,10.742,-26.367,-31.250,89.355,0.000
1606134764.277,-115.723,-37.109,-36.133,-253.418,0.000
1606134764.281,-100.098,-37.598,-36.621,-287.109,0.000
1606134764.285,-6.348,-32.227,-28.320,37.109,0.000
1606134764.289,14.648,-31.250,-25.391,259.766,0.000
1606134764.293,-15.137,-34.180,-25.391,102.051,0.000
1606134764.297,-102.051,-39.062,-22.949,-235.840,0.000
1606134764.301,-143.066,-41.504,-33.203,-320.312,0.000
1606134764.305,-41.504,-41.016,-33.203,-11.230,0.000
1606134764.308,60.547,-29.785,-25.879,260.254,0.000
1606134764.312,20.020,-36.133,-27.344,140.137,0.000
1606134764.316,-86.914,-44.434,-25.879,-180.664,0.000
1606134764.320,-86.426,-41.016,-24.414,-301.758,0.000
1606134764.324,-35.156,-45.410,-26.367,-70.312,0.000
1606134764.328,40.527,-38.086,-28.320,239.258,0.000
1606134764.332,60.547,-32.227,-24.414,207.520,0.000
1606134764.336,-54.688,-39.062,-24.414,-109.375,0.000
1606134764.340,-126.465,-43.457,-30.273,-271.484,0.000
1606134764.344,-42.480,-41.992,-27.344,-79.102,0.000
1606134764.348,39.551,-36.621,-23.438,212.891,0.000
1606134764.351,11.230,-34.668,-20.020,235.352,0.000
1606134764.355,-64.941,-35.645,-22.461,-74.707,0.000
1606134764.359,-101.074,-37.109,-28.809,-292.969,0.000
1606134764.363,-58.105,-39.551,-23.926,-127.441,0.000
1606134764.367,10.254,-33.203,-19.531,196.289,0.000
1606134764.371,44.922,-25.879,-24.902,246.094,0.000
1606134764.375,-37.598,-37.598,-30.762,-58.594,0.000
1606134764.379,-116.211,-41.992,-30.762,-297.363,0.000
1606134764.383,-66.406,-35.645,-26.855,-171.875,0.000
1606134764.387,5.371,-36.621,-22.461,158.203,0.000
1606134764.391,38.086,-29.785,-19.043,262.207,0.000
1606134764.394,-18.066,-32.715,-20.508,-10.742,0.000
1606134764.398,-104.492,-37.598,-23.926,-283.691,0.000
1606134764.402,-78.125,-28.320,-23.438,-221.680,0.000
1606134764.406,26.367,-25.391,-19.043,99.121,0.000
1606134764.410,64.941,-25.879,-22.949,249.512,0.000
1606134764.414,8.789,-26.367,-20.508,33.691,0.000
1606134764.418,-56.641,-35.645,-17.090,-245.605,0.000
1606134764.422,-41.016,-29.297,-29.785,-247.070,0.000
1606134764.426,40.039,-18.555,-25.879,78.125,0.000
1606134764.430,89.844,-14.648,-26.855,265.137,0.000
1606134764.433,23.438,-15.137,-35.645,50.781,0.000
1606134764.437,-77.148,-28.320,-32.715,-273.438,0.000
1606134764.441,-89.844,-37.109,-27.832,-285.645,0.000
1606134764.445,14.160,-32.715,-26.367,58.105,0.000
1606134764.449,75.195,-24.414,-22.949,276.855,0.000
1606134764.453,16.113,-28.809,-18.066,124.023,0.000
1606134764.457,-62.500,-35.645,-19.531,-208.008,0.000
1606134764.461,-72.266,-25.391,-22.949,-290.527,0.000
1606134764.465,3.418,-21.973,-21.973,15.137,0.000
1606134764.469,67.871,-22.461,-18.555,282.715,0.000
1606134764.473,37.598,-20.020,-18.555,178.223,0.000
1606134764.476,-59.082,-22.949,-23.926,-156.738,0.000
1606134764.480,-84.961,-29.297,-28.809,-287.109,0.000
1606134764.484,-6.836,-27.832,-27.832,-36.621,0.000
1606134764.488,47.363,-21.973,-20.508,257.324,0.000
1606134764.492,21.973,-24.902,-21.484,210.449,0.000
1606134764.496,-43.945,-26.367,-31.738,-123.535,0.000
1606134764.500,-76.660,-29.785,-37.598,-302.734,0.000
1606134764.504,-13.672,-28.320,-32.227,-96.191,0.000
1606134764.508,72.754,-23.926,-30.762,223.145,0.000
1606134764.512,61.523,-25.879,-27.832,234.863,0.000
1606134764.516,-31.738,-29.785,-27.832,-78.125,0.000
1606134764.519,-80.566,-43.457,-31.250,-292.480,0.000
1606134764.523,-25.391,-44.434,-35.156,-131.836,0.000
1606134764.527,68.848,-27.344,-31.250,194.336,0.000
1606134764.531,77.148,-20.996,-22.461,249.512,0.000
1606134764.535,-8.789,-28.809,-28.320,-56.641,0.000
1606134764.539,-69.336,-34.668,-35.156,-291.992,0.000
1606134764.543,-38.086,-29.297,-27.832,-173.828,0.000
1606134764.547,42.480,-26.367,-21.484,148.926,0.000
1606134764.551,59.570,-29.297,-23.438,252.441,0.000
1606134764.555,-16.602,-30.762,-29.785,-20.020,0.000
1606134764.558,-80.566,-34.180,-33.203,-291.504,0.000
1606134764.562,-57.617,-45.898,-32.227,-230.469,0.000
1606134764.566,19.531,-40.039,-29.785,98.633,0.000
1606134764.570,57.617,-23.926,-27.832,258.301,0.000
1606134764.574,-8.789,-26.367,-24.414,21.973,0.000
1606134764.578,-97.656,-35.156,-31.250,-277.344,0.000
1606134764.582,-86.914,-37.598,-35.645,-252.930,0.000
1606134764.586,1.953,-31.250,-27.832,80.078,0.000
1606134764.590,48.340,-24.414,-22.461,258.301,0.000
1606134764.594,-6.836,-27.832,-24.902,57.617,0.000
1606134764.598,-97.656,-30.762,-31.250,-249.023,0.000
1606134764.601,-108.887,-34.668,-34.180,-289.062,0.000
1606134764.605,-20.996,-37.109,-29.785,2.441,0.000
1606134764.609,33.691,-29.297,-21.973,230.957,0.000
1606134764.613,-15.137,-27.344,-22.949,94.238,0.000
1606134764.617,-90.820,-30.273,-31.738,-235.352,0.000
1606134764.621,-88.867,-32.227,-32.227,-316.895,0.000
1606134764.625,-4.395,-24.902,-25.391,-19.531,0.000
1606134764.629,62.500,-16.602,-22.461,233.887,0.000
1606134764.633,23.926,-17.578,-23.926,124.023,0.000
1606134764.637,-74.707,-25.391,-30.273,-215.820,0.000
1606134764.641,-100.098,-31.250,-37.109,-336.426,0.000
1606134764.644,-12.695,-21.973,-39.551,-65.918,0.000
1606134764.648,58.594,-12.695,-31.250,206.543,0.000
1606134764.652,25.391,-17.578,-23.438,144.531,0.000
1606134764.656,-80.078,-27.832,-29.785,-194.336,0.000
1606134764.660,-105.957,-30.762,-38.086,-362.305,0.000
1606134764.664,-35.156,-26.855,-31.250,-116.699,0.000
1606134764.668,24.414,-20.996,-19.531,197.266,0.000
1606134764.672,10.254,-24.902,-18.066,189.941,0.000
1606134764.676,-100.586,-30.762,-23.438,-144.531,0.000
1606134764.680,-132.812,-28.320,-25.391,-336.426,0.000
1606134764.683,-55.664,-23.926,-27.832,-152.832,0.000
1606134764.687,22.461,-21.973,-28.809,170.410,0.000
1606134764.691,11.230,-23.926,-24.414,221.680,0.000
1606134764.695,-83.984,-25.391,-25.879,-94.727,0.000
1606134764.699,-134.766,-31.738,-34.668,-333.984,0.000
1606134764.703,-92.285,-36.621,-34.180,-189.453,0.000
1606134764.707,-9.766,-28.320,-27.344,135.742,0.000
1606134764.711,19.531,-15.137,-28.809,217.285,0.000
1606134764.715,-65.430,-23.926,-28.809,-53.223,0.000
1606134764.719,-131.836,-35.645,-31.250,-304.688,0.000
1606134764.723,-94.727,-36.133,-31.738,-232.422,0.000
1606134764.726,-7.324,-31.738,-25.879,96.191,0.000
1606134764.730,31.738,-24.414,-25.391,228.516,0.000
1606134764.734,-35.645,-27.344,-28.809,-20.508,0.000
1606134764.738,-108.887,-34.180,-32.715,-300.293,0.000
1606134764.742,-84.473,-32.715,-31.738,-248.535,0.000
1606134764.746,0.977,-23.926,-28.320,80.078,0.000
1606134764.750,39.062,-17.090,-27.344,244.629,0.000
1606134764.754,-1.465,-19.531,-31.738,38.086,0.000
1606134764.758,-81.055,-26.367,-38.086,-268.066,0.000
1606134764.762,-87.402,-26.855,-33.691,-269.531,0.000
1606134764.766,1.953,-17.090,-24.902,55.176,0.000
1606134764.769,65.430,-13.184,-23.438,252.441,0.000
1606134764.773,19.531,-20.996,-25.391,84.961,0.000
1606134764.777,-73.730,-27.832,-27.832,-239.746,0.000
1606134764.781,-87.402,-27.832,-27.344,-307.617,0.000
1606134764.785,-17.090,-20.020,-21.973,-4.883,0.000
1606134764.789,38.086,-16.113,-16.113,233.398,0.000
1606134764.793,5.371,-23.438,-17.578,106.934,0.000
1606134764.797,-79.590,-24.902,-25.391,-227.051,0.000
1606134764.801,-103.027,-32.227,-23.438,-328.613,0.000
1606134764.805,-31.250,-30.273,-16.113,-55.176,0.000
1606134764.808,38.086,-10.254,-14.160,217.285,0.000
1606134764.812,3.418,-11.719,-14.648,153.320,0.000
1606134764.816,-72.754,-22.949,-20.508,-180.664,0.000
1606134764.820,-99.121,-26.367,-22.949,-333.008,0.000
1606134764.824,-57.617,-22.461,-21.973,-110.840,0.000
1606134764.828,25.879,-20.020,-22.461,202.148,0.000
1606134764.832,20.508,-24.414,-13.672,215.820,0.000
1606134764.836,-61.035,-29.297,-17.090,-102.539,0.000
1606134764.840,-101.562,-30.273,-29.297,-308.105,0.000
1606134764.844,-43.945,-22.949,-28.320,-137.207,0.000
1606134764.848,38.574,-22.461,-19.531,186.035,0.000
1606134764.851,42.969,-26.367,-19.531,235.840,0.000
1606134764.855,-52.246,-25.879,-26.367,-71.289,0.000
1606134764.859,-118.652,-31.738,-29.785,-319.336,0.000
1606134764.863,-63.477,-31.738,-26.855,-176.270,0.000
1606134764.867,29.297,-21.973,-22.949,164.062,0.000
1606134764.871,50.293,-20.508,-19.043,247.070,0.000
1606134764.875,-36.133,-30.273,-27.344,-58.594,0.000
1606134764.879,-104.980,-36.133,-37.598,-311.523,0.000
1606134764.883,-57.129,-41.016,-34.180,-214.355,0.000
1606134764.887,21.973,-34.668,-25.391,106.934,0.000
1606134764.891,24.414,-27.344,-22.461,243.164,0.000
1606134764.894,-32.715,-28.809,-29.297,-16.602,0.000
1606134764.898,-108.887,-32.715,-32.715,-304.688,0.000
1606134764.902,-102.051,-32.227,-29.785,-253.906,0.000
1606134764.906,0.488,-28.320,-25.391,93.750,0.000
1606134764.910,40.039,-30.762,-23.438,270.508,0.000
1606134764.914,-23.926,-34.180,-27.832,38.574,0.000
1606134764.918,-96.680,-34.668,-35.156,-277.344,0.000
1606134764.922,-81.543,-32.227,-37.109,-270.020,0.000
1606134764.926,19.043,-24.902,-34.180,65.918,0.000
1606134764.930,62.988,-18.555,-27.832,265.625,0.000
1606134764.933,-5.371,-21.484,-25.879,68.359,0.000
1606134764.937,-94.238,-33.691,-28.320,-265.625,0.000
1606134764.941,-99.121,-24.414,-31.250,-320.312,0.000
1606134764.945,-12.695,-8.301,-26.367,-8.301,0.000
1606134764.949,41.504,-20.996,-20.020,230.957,0.000
1606134764.953,4.395,-22.949,-24.414,103.027,0.000
1606134764.957,-75.684,-25.879,-31.250,-220.703,0.000
1606134764.961,-97.656,-32.715,-33.691,-322.266,0.000
1606134764.965,-21.973,-24.414,-32.715,-43.457,0.000
1606134764.969,45.898,-19.043,-30.762,224.609,0.000
1606134764.973,24.414,-19.043,-30.273,149.902,0.000
1606134764.976,-66.895,-24.414,-38.574,-175.781,0.000
1606134764.980,-99.609,-15.137,-41.992,-322.266,0.000
1606134764.984,-34.180,-6.348,-33.203,-81.055,0.000
1606134764.988,40.039,-17.578,-24.902,219.238,0.000
1606134764.992,39.062,-19.531,-25.879,193.848,0.000
1606134764.996,-51.758,-22.949,-27.832,-145.020,0.000
1606134765.000,-101.562,-19.531,-30.762,-332.520,0.000
1606134765.004,-35.645,-16.113,-27.832,-129.883,0.000
1606134765.008,51.758,-12.695,-18.555,187.012,0.000
1606134765.012,43.945,-17.578,-20.508,206.543,0.000
1606134765.016,-44.922,-31.250,-29.297,-116.211,0.000
1606134765.019,-102.539,-33.203,-32.715,-331.055,0.000
1606134765.023,-62.988,-27.832,-28.320,-164.062,0.000
1606134765.027,28.320,-29.297,-21.973,168.945,0.000
1606134765.031,41.504,-31.250,-18.066,243.652,0.000
1606134765.035,-41.016,-37.598,-22.461,-56.152,0.000
1606134765.039,-99.609,-36.621,-26.367,-305.176,0.000
1606134765.043,-70.801,-25.391,-19.043,-197.754,0.000
1606134765.047,11.719,-27.832,-10.742,129.395,0.000
1606134765.051,30.273,-31.738,-12.695,244.141,0.000
1606134765.055,-55.176,-33.691,-17.090,-26.855,0.000
1606134765.058,-129.395,-35.645,-19.531,-303.711,0.000
1606134765.062,-106.445,-35.645,-18.066,-246.094,0.000
1606134765.066,-17.090,-30.762,-15.137,87.891,0.000
1606134765.070,23.438,-25.879,-13.184,268.555,0.000
1606134765.074,-34.180,-29.297,-14.160,45.898,0.000
1606134765.078,-114.258,-36.133,-18.555,-280.762,0.000
1606134765.082,-109.863,-43.945,-20.996,-281.738,0.000
1606134765.086,-17.578,-39.551,-19.043,44.434,0.000
1606134765.090,36.133,-30.273,-16.113,253.906,0.000
1606134765.094,-13.672,-28.809,-16.602,83.496,0.000
1606134765.098,-94.727,-28.320,-20.996,-237.305,0.000
1606134765.101,-102.051,-28.809,-26.855,-294.922,0.000
1606134765.105,-15.137,-23.438,-20.996,15.625,0.000
1606134765.109,43.945,-23.438,-17.578,254.395,0.000
1606134765.113,0.488,-27.832,-22.949,119.629,0.000
1606134765.117,-82.520,-20.996,-23.926,-195.801,0.000
1606134765.121,-102.539,-25.391,-27.344,-294.922,0.000
1606134765.125,-33.203,-33.691,-27.832,-31.250,0.000
1606134765.129,33.691,-23.926,-20.508,227.539,0.000
1606134765.133,7.812,-18.555,-18.066,144.531,0.000
1606134765.137,-87.891,-28.320,-20.508,-188.965,0.000
1606134765.141,-121.582,-35.645,-26.855,-320.312,0.000
1606134765.144,-51.758,-31.738,-25.391,-65.430,0.000
1606134765.148,25.879,-24.414,-22.949,235.840,0.000
1606134765.152,18.066,-21.484,-23.438,205.566,0.000
1606134765.156,-64.453,-23.438,-24.414,-132.324,0.000
1606134765.160,-109.375,-22.949,-27.344,-313.477,0.000
1606134765.164,-50.781,-26.855,-26.855,-98.633,0.000
1606134765.168,35.156,-26.367,-22.461,211.426,0.000
1606134765.172,27.344,-24.902,-28.809,210.938,0.000
1606134765.176,-60.547,-29.297,-34.668,-107.910,0.000
1606134765.180,-97.656,-27.344,-31.738,-305.176,0.000
1606134765.183,-42.480,-23.438,-30.273,-133.789,0.000
1606134765.187,34.180,-20.020,-23.438,188.965,0.000
1606134765.191,47.363,-17.578,-20.996,249.512,0.000
1606134765.195,-37.109,-23.926,-28.809,-61.035,0.000
1606134765.199,-88.867,-24.414,-30.762,-312.012,0.000
1606134765.203,-43.457,-18.555,-23.926,-187.500,0.000
1606134765.207,28.809,-18.555,-20.020,154.785,0.000
1606134765.211,54.688,-16.113,-23.926,264.648,0.000
1606134765.215,-22.461,-18.555,-26.367,-17.578,0.000
1606134765.219,-102.051,-22.949,-25.879,-309.082,0.000
1606134765.223,-82.520,-23.926,-24.414,-246.582,0.000
1606134765.226,22.461,-21.973,-20.020,104.980,0.000
1606134765.230,56.152,-19.043,-14.648,272.461,0.000
1606134765.234,-12.695,-17.578,-16.113,38.574,0.000
1606134765.238,-90.332,-18.555,-22.461,-268.555,0.000
1606134765.242,-85.449,-18.066,-18.555,-254.883,0.000
1606134765.246,8.301,-13.184,-9.277,78.613,0.000
1606134765.250,58.105,-12.695,-6.836,277.344,0.000
1606134765.254,7.324,-24.902,-11.719,92.285,0.000
1606134765.258,-78.613,-33.203,-19.531,-231.934,0.000
1606134765.262,-96.191,-36.133,-21.484,-285.645,0.000
1606134765.266,-15.137,-34.668,-18.555,23.438,0.000
1606134765.269,42.480,-27.832,-12.695,256.836,0.000
1606134765.273,-2.441,-30.273,-10.254,118.652,0.000
1606134765.277,-84.961,-37.109,-20.508,-209.473,0.000
1606134765.281,-103.516,-37.598,-22.949,-298.340,0.000
1606134765.285,-29.297,-34.668,-18.066,-17.090,0.000
1606134765.289,45.410,-27.832,-15.625,248.047,0.000
1606134765.293,19.531,-25.879,-17.090,159.668,0.000
1606134765.297,-75.684,-34.180,-20.996,-182.617,0.000
1606134765.301,-109.863,-35.156,-24.902,-318.359,0.000
1606134765.305,-37.598,-23.926,-20.508,-60.547,0.000
1606134765.308,42.480,-19.043,-12.207,225.098,0.000
1606134765.312,19.531,-24.414,-12.695,173.828,0.000
1606134765.316,-69.336,-28.320,-16.113,-161.621,0.000
1606134765.320,-104.492,-20.996,-21.484,-327.148,0.000
1606134765.324,-35.645,-13.184,-24.414,-115.723,0.000
1606134765.328,53.711,-15.137,-18.066,195.312,0.000
1606134765.332,33.691,-18.555,-16.113,220.703,0.000
1606134765.336,-57.129,-22.949,-21.973,-103.027,0.000
1606134765.340,-100.098,-21.973,-24.902,-322.266,0.000
1606134765.344,-49.805,-21.484,-22.461,-148.926,0.000
1606134765.348,37.109,-20.508,-16.602,184.082,0.000
1606134765.351,43.945,-16.602,-13.184,253.906,0.000
1606134765.355,-39.062,-20.996,-14.160,-51.270,0.000
1606134765.359,-95.215,-28.809,-14.160,-297.363,0.000
1606134765.363,-63.477,-31.250,-18.555,-179.199,0.000
1606134765.367,25.879,-22.949,-14.648,154.785,0.000
1606134765.371,50.781,-20.996,-14.648,257.812,0.000
1606134765.375,-31.738,-29.785,-18.555,-28.320,0.000
1606134765.379,-102.051,-29.785,-18.555,-306.152,0.000
1606134765.383,-77.148,-25.879,-17.578,-231.934,0.000
1606134765.387,9.766,-23.438,-8.789,111.816,0.000
1606134765.391,28.809,-25.879,-11.230,238.770,0.000
1606134765.394,-32.715,-34.668,-19.531,-2.930,0.000
1606134765.398,-108.398,-35.645,-21.973,-271.973,0.000
1606134765.402,-121.582,-23.438,-23.438,-252.930,0.000
1606134765.406,-26.855,-20.508,-19.531,69.824,0.000
1606134765.410,20.020,-31.738,-15.137,252.441,0.000
1606134765.414,-31.738,-33.203,-18.066,57.617,0.000
1606134765.418,-103.516,-30.762,-21.484,-258.301,0.000
1606134765.422,-104.980,-33.203,-21.484,-291.992,0.000
1606134765.426,-17.578,-26.367,-18.066,23.438,0.000
1606134765.430,43.457,-12.695,-16.602,252.930,0.000
1606134765.433,4.395,-11.719,-20.508,109.863,0.000
1606134765.437,-88.867,-23.926,-30.273,-226.074,0.000
1606134765.441,-106.445,-26.855,-35.156,-295.898,0.000
1606134765.445,-20.996,-20.020,-32.715,0.977,0.000
1606134765.449,40.039,-19.043,-31.738,243.164,0.000
1606134765.453,-0.977,-23.438,-28.320,136.719,0.000
1606134765.457,-87.891,-32.227,-27.344,-204.102,0.000
1606134765.461,-103.516,-25.391,-27.832,-326.660,0.000
1606134765.465,-23.926,-17.578,-20.508,-54.199,0.000
1606134765.469,53.223,-20.508,-17.578,226.074,0.000
1606134765.473,31.738,-19.043,-26.367,173.828,0.000
1606134765.476,-57.617,-27.832,-30.762,-153.320,0.000
1606134765.480,-99.121,-33.691,-24.902,-337.891,0.000
1606134765.484,-53.711,-25.879,-14.648,-110.352,0.000
1606134765.488,32.227,-17.578,-10.742,216.797,0.000
1606134765.492,34.180,-16.602,-13.672,218.262,0.000
1606134765.496,-65.918,-29.785,-22.461,-122.559,0.000
1606134765.500,-119.141,-28.320,-25.879,-328.125,0.000
1606134765.504,-63.965,-21.484,-20.996,-151.367,0.000
1606134765.508,25.879,-27.832,-18.555,175.293,0.000
1606134765.512,36.621,-24.902,-21.973,228.516,0.000
1606134765.516,-46.875,-27.832,-25.879,-86.426,0.000
1606134765.519,-113.281,-27.832,-25.391,-331.543,0.000
1606134765.523,-68.359,-23.438,-25.879,-192.383,0.000
1606134765.527,31.738,-22.461,-25.391,147.949,0.000
1606134765.531,52.734,-20.020,-22.461,245.605,0.000
1606134765.535,-20.508,-22.461,-20.508,-30.762,0.000
1606134765.539,-92.773,-23.926,-25.391,-308.594,0.000
1606134765.543,-77.148,-17.090,-29.785,-234.375,0.000
1606134765.547,15.137,-21.484,-18.555,104.004,0.000
1606134765.551,50.293,-25.391,-16.113,244.629,0.000
1606134765.555,-17.090,-24.414,-20.996,7.324,0.000
1606134765.558,-85.449,-29.785,-25.391,-297.852,0.000
1606134765.562,-86.426,-31.738,-30.762,-272.949,0.000
1606134765.566,14.160,-24.902,-24.902,78.613,0.000
1606134765.570,67.383,-22.949,-19.531,262.207,0.000
1606134765.574,-10.742,-31.738,-22.949,54.688,0.000
1606134765.578,-92.285,-38.086,-24.902,-257.812,0.000
1606134765.582,-92.285,-30.762,-22.461,-271.484,0.000
1606134765.586,10.742,-17.090,-15.137,70.801,0.000
1606134765.590,67.383,-15.625,-13.672,290.039,0.000
1606134765.594,21.484,-23.438,-17.578,115.723,0.000
1606134765.598,-80.566,-32.227,-21.973,-228.516,0.000
1606134765.601,-114.746,-37.109,-20.508,-298.828,0.000
1606134765.605,-23.926,-36.133,-13.672,10.254,0.000
1606134765.609,44.434,-26.855,-16.113,266.113,0.000
1606134765.613,7.324,-24.902,-19.531,164.062,0.000
1606134765.617,-79.102,-28.809,-18.555,-172.363,0.000
1606134765.621,-102.051,-26.855,-22.949,-300.781,0.000
1606134765.625,-26.855,-21.973,-18.066,-41.016,0.000
1606134765.629,47.852,-19.531,-19.043,246.582,0.000
1606134765.633,32.715,-18.555,-24.902,194.336,0.000
1606134765.637,-53.711,-28.320,-21.484,-153.809,0.000
1606134765.641,-92.773,-24.414,-23.438,-319.336,0.000
1606134765.644,-24.414,-15.625,-21.973,-83.496,0.000
1606134765.648,58.105,-21.973,-17.090,223.633,0.000
1606134765.652,52.734,-17.578,-16.113,211.426,0.000
1606134765.656,-49.805,-24.414,-23.926,-133.301,0.000
1606134765.660,-101.074,-33.203,-29.785,-329.102,0.000
1606134765.664,-37.109,-23.438,-24.902,-140.137,0.000
1606134765.668,31.250,-16.113,-17.578,180.176,0.000
1606134765.672,30.762,-19.043,-16.602,230.957,0.000
1606134765.676,-48.828,-22.949,-22.949,-80.566,0.000
1606134765.680,-107.422,-16.602,-27.832,-306.152,0.000
1606134765.683,-68.848,-11.719,-25.879,-166.504,0.000
1606134765.687,17.090,-25.879,-24.414,153.809,0.000
1606134765.691,33.691,-33.203,-24.902,239.746,0.000
1606134765.695,-48.340,-38.574,-31.250,-46.387,0.000
1606134765.699,-117.676,-35.645,-36.133,-312.988,0.000
1606134765.703,-84.961,-31.250,-30.762,-220.703,0.000
1606134765.707,12.207,-27.344,-20.508,128.418,0.000
1606134765.711,43.945,-20.996,-19.531,273.438,0.000
1606134765.715,-29.785,-28.320,-26.367,3.418,0.000
1606134765.719,-120.117,-41.992,-28.809,-317.383,0.000
1606134765.723,-110.840,-42.969,-26.855,-275.391,0.000
1606134765.726,6.836,-33.691,-20.508,98.145,0.000
1606134765.730,43.945,-26.855,-12.695,281.250,0.000
1606134765.734,-30.273,-29.785,-21.484,47.852,0.000
1606134765.738,-107.422,-37.598,-32.227,-276.855,0.000
1606134765.742,-107.910,-31.250,-29.785,-293.457,0.000
1606134765.746,-10.254,-19.531,-22.461,38.574,0.000
1606134765.750,48.340,-19.043,-25.391,255.371,0.000
1606134765.754,0.000,-25.879,-34.180,86.914,0.000
1606134765.758,-85.449,-29.785,-38.574,-243.164,0.000
1606134765.762,-94.727,-32.715,-37.598,-315.430,0.000
1606134765.766,-3.418,-27.344,-27.832,-6.348,0.000
1606134765.769,70.312,-19.043,-22.949,254.395,0.000
1606134765.773,37.598,-22.461,-26.855,137.695,0.000
1606134765.777,-57.617,-32.715,-31.250,-198.242,0.000
1606134765.781,-69.336,-23.438,-33.203,-314.453,0.000
1606134765.785,11.719,-10.742,-26.855,-41.016,0.000
1606134765.789,64.453,-21.484,-18.555,254.883,0.000
1606134765.793,45.410,-28.809,-15.137,195.312,0.000
1606134765.797,-50.781,-37.109,-21.973,-164.062,0.000
1606134765.801,-92.285,-33.203,-25.391,-316.895,0.000
1606134765.805,-21.973,-20.996,-20.508,-59.570,0.000
1606134765.808,59.082,-19.043,-17.090,248.535,0.000
1606134765.812,48.828,-20.996,-21.484,217.773,0.000
1606134765.816,-45.898,-29.785,-28.809,-128.418,0.000
1606134765.820,-92.773,-19.531,-32.715,-315.430,0.000
1606134765.824,-39.551,-8.789,-30.762,-114.746,0.000
1606134765.828,42.480,-20.020,-26.367,220.215,0.000
1606134765.832,49.316,-23.438,-29.785,253.906,0.000
1606134765.836,-42.969,-30.762,-27.344,-78.613,0.000
1606134765.840,-120.117,-37.109,-27.832,-320.312,0.000
1606134765.844,-66.895,-35.645,-29.785,-175.781,0.000
1606134765.848,27.832,-29.297,-20.996,169.922,0.000
1606134765.851,29.785,-27.832,-21.973,256.348,0.000
1606134765.855,-52.734,-28.809,-30.762,-52.246,0.000
1606134765.859,-126.465,-34.180,-33.691,-325.195,0.000
1606134765.863,-97.656,-37.598,-29.297,-220.703,0.000
1606134765.867,1.465,-28.320,-25.391,139.160,0.000
1606134765.871,30.762,-28.320,-29.297,262.695,0.000
1606134765.875,-53.711,-39.062,-31.738,-24.414,0.000
1606134765.879,-132.324,-41.504,-30.762,-329.590,0.000
1606134765.883,-105.469,-34.668,-34.668,-278.809,0.000
1606134765.887,-4.395,-27.344,-29.785,83.496,0.000
1606134765.891,39.062,-30.762,-22.461,263.672,0.000
1606134765.894,-35.645,-37.109,-27.344,30.273,0.000
1606134765.898,-107.910,-44.434,-28.320,-303.711,0.000
1606134765.902,-102.051,-48.828,-22.461,-302.734,0.000
1606134765.906,-9.277,-33.691,-24.902,51.758,0.000
1606134765.910,48.340,-18.555,-26.855,270.508,0.000
1606134765.914,-32.227,-25.391,-32.715,76.660,0.000
1606134765.918,-124.512,-32.227,-46.387,-294.434,0.000
1606134765.922,-136.230,-20.996,-50.293,-364.258,0.000
1606134765.926,-49.316,-13.672,-49.316,-42.969,0.000
1606134765.930,17.090,-14.648,-47.363,217.285,0.000
1606134765.933,-20.996,-14.648,-54.199,79.590,0.000
1606134765.937,-130.859,-14.160,-65.430,-307.129,0.000
1606134765.941,-165.039,-12.207,-67.871,-419.434,0.000
1606134765.945,-78.613,-5.371,-69.336,-101.562,0.000
1606134765.949,1.465,5.859,-69.336,198.242,0.000
1606134765.953,-11.719,5.859,-72.754,112.793,0.000
1606134765.957,-106.934,-2.930,-83.008,-257.324,0.000
1606134765.961,-140.137,3.418,-90.332,-398.438,0.000
1606134765.965,-45.898,15.137,-89.844,-120.605,0.000
1606134765.969,53.223,6.348,-81.055,210.449,0.000
1606134765.973,44.434,3.418,-79.590,185.059,0.000
1606134765.976,-33.203,1.465,-89.355,-178.711,0.000
1606134765.980,-85.449,-3.418,-84.961,-352.539,0.000
1606134765.984,-27.344,-4.883,-74.219,-115.234,0.000
1606134765.988,64.941,-8.789,-73.730,230.957,0.000
1606134765.992,64.941,-13.672,-69.336,269.531,0.000
1606134765.996,-24.902,-21.973,-71.777,-86.426,0.000
1606134766.000,-73.730,-21.973,-69.824,-332.031,0.000
1606134766.004,-7.812,-12.695,-60.059,-146.484,0.000
1606134766.008,91.309,-8.301,-53.223,232.422,0.000
1606134766.012,105.957,-12.207,-51.758,314.453,0.000
1606134766.016,11.719,-17.578,-54.199,-24.902,0.000
1606134766.019,-56.152,-18.555,-53.711,-307.617,0.000
1606134766.023,-22.949,-19.043,-51.270,-190.430,0.000
1606134766.027,61.523,-21.484,-42.969,177.734,0.000
1606134766.031,103.516,-25.879,-40.039,299.316,0.000
1606134766.035,21.484,-35.156,-41.504,11.230,0.000
1606134766.039,-86.426,-39.551,-48.828,-296.875,0.000
1606134766.043,-61.523,-39.062,-48.828,-239.746,0.000
1606134766.047,47.363,-34.668,-38.574,129.395,0.000
1606134766.051,85.938,-29.785,-36.133,307.617,0.000
1606134766.055,12.695,-33.203,-39.062,60.059,0.000
1606134766.058,-78.613,-38.574,-41.016,-284.668,0.000
1606134766.062,-72.754,-24.902,-47.363,-294.434,0.000
1606134766.066,30.762,-16.113,-46.387,69.824,0.000
1606134766.070,83.984,-20.996,-35.645,300.293,0.000
1606134766.074,18.555,-27.832,-39.551,91.797,0.000
1606134766.078,-77.148,-42.969,-46.875,-278.320,0.000
1606134766.082,-83.008,-44.922,-43.945,-334.473,0.000
1606134766.086,13.184,-28.320,-35.156,33.203,0.000
1606134766.090,84.473,-22.461,-34.180,313.477,0.000
1606134766.094,38.574,-28.320,-41.016,157.227,0.000
1606134766.098,-57.129,-34.180,-41.504,-223.145,0.000
1606134766.101,-72.754,-22.461,-37.109,-332.520,0.000
1606134766.105,18.555,-16.113,-34.180,-9.766,0.000
1606134766.109,94.727,-25.391,-35.156,299.316,0.000
1606134766.113,39.551,-27.832,-37.109,199.219,0.000
1606134766.117,-60.547,-39.551,-39.062,-188.965,0.000
1606134766.121,-81.543,-41.016,-43.457,-339.844,0.000
1606134766.125,-3.906,-33.203,-37.598,-54.199,0.000
1606134766.129,73.730,-36.133,-28.320,273.926,0.000
1606134766.133,60.547,-37.598,-26.855,238.770,0.000
1606134766.137,-37.109,-38.086,-30.762,-142.090,0.000
1606134766.141,-91.309,-40.527,-33.203,-347.656,0.000
1606134766.144,-28.320,-37.598,-30.762,-105.957,0.000
1606134766.148,65.430,-29.785,-22.949,267.578,0.000
1606134766.152,62.988,-27.344,-24.414,283.203,0.000
1606134766.156,-42.969,-42.969,-31.738,-104.004,0.000
1606134766.160,-103.516,-21.484,-34.668,-354.004,0.000
1606134766.164,-50.293,12.207,-27.344,-158.203,0.000
1606134766.168,36.621,-17.578,-23.438,211.426,0.000
1606134766.172,49.316,-39.062,-23.438,286.621,0.000
1606134766.176,-37.598,-43.945,-28.809,-56.152,0.000
1606134766.180,-109.375,-48.340,-30.273,-344.727,0.000
1606134766.183,-63.965,-49.805,-25.391,-205.566,0.000
1606134766.187,46.875,-40.039,-27.344,181.152,0.000
1606134766.191,70.801,-30.273,-33.203,303.711,0.000
1606134766.195,-15.137,-34.668,-41.016,-13.672,0.000
1606134766.199,-99.121,-45.410,-49.316,-347.656,0.000
1606134766.203,-54.688,-43.457,-48.828,-267.578,0.000
1606134766.207,46.875,-33.691,-34.668,127.441,0.000
1606134766.211,59.570,-31.250,-26.367,310.547,0.000
1606134766.215,-5.859,-35.645,-29.785,44.434,0.000
1606134766.219,-87.891,-40.527,-34.668,-312.012,0.000
1606134766.223,-76.172,-37.598,-33.203,-300.781,0.000
1606134766.226,20.508,-32.227,-22.949,83.984,0.000
1606134766.230,68.848,-25.879,-20.020,310.059,0.000
1606134766.234,9.277,-27.344,-26.367,83.008,0.000
1606134766.238,-83.008,-39.551,-33.203,-290.527,0.000
1606134766.242,-82.031,-32.715,-30.762,-326.172,0.000
1606134766.246,12.207,-20.996,-24.414,51.270,0.000
1606134766.250,67.871,-24.902,-22.461,318.359,0.000
1606134766.254,16.113,-35.645,-24.902,137.207,0.000
1606134766.258,-83.496,-41.992,-29.297,-260.742,0.000
1606134766.262,-100.586,-40.527,-34.668,-372.070,0.000
1606134766.266,-10.742,-32.227,-32.715,-27.832,0.000
1606134766.269,60.059,-26.855,-29.297,292.969,0.000
1606134766.273,27.344,-27.832,-32.227,182.617,0.000
1606134766.277,-67.871,-35.645,-32.715,-225.586,0.000
1606134766.281,-98.633,-18.555,-32.715,-391.113,0.000
1606134766.285,-12.695,-4.395,-27.832,-79.102,0.000
1606134766.289,65.430,-15.137,-23.438,272.949,0.000
1606134766.293,46.387,-20.020,-24.902,210.938,0.000
1606134766.297,-52.734,-31.738,-27.344,-187.988,0.000
1606134766.301,-113.281,-14.648,-31.250,-397.949,0.000
1606134766.305,-43.945,-5.859,-30.762,-144.531,0.000
1606134766.308,50.781,-28.320,-26.367,238.281,0.000
1606134766.312,49.805,-25.879,-25.879,250.977,0.000
1606134766.316,-49.805,-33.691,-28.320,-135.254,0.000
1606134766.320,-105.469,-41.504,-32.227,-385.254,0.000
1606134766.324,-52.734,-36.133,-32.715,-177.246,0.000
1606134766.328,42.969,-31.250,-24.902,229.980,0.000
1606134766.332,49.316,-30.273,-20.996,317.383,0.000
1606134766.336,-44.922,-41.504,-27.832,-40.039,0.000
1606134766.340,-112.305,-34.180,-33.691,-352.051,0.000
1606134766.344,-79.590,-7.812,-28.809,-217.773,0.000
1606134766.348,15.625,-20.508,-21.973,196.289,0.000
1606134766.351,46.875,-31.250,-19.531,322.266,0.000
1606134766.355,-30.273,-39.062,-23.438,-12.207,0.000
1606134766.359,-115.234,-44.922,-30.273,-350.098,0.000
1606134766.363,-92.773,-39.062,-29.785,-279.297,0.000
1606134766.367,7.812,-31.250,-24.902,129.395,0.000
1606134766.371,40.527,-27.832,-18.066,306.641,0.000
1606134766.375,-38.574,-37.598,-21.484,3.906,0.000
1606134766.379,-125.488,-45.898,-30.762,-367.676,0.000
1606134766.383,-114.258,-45.410,-22.949,-347.656,0.000
1606134766.387,-24.414,-30.762,-25.879,45.898,0.000
1606134766.391,31.250,-15.137,-31.250,287.598,0.000
1606134766.394,-17.578,-18.066,-22.949,56.641,0.000
1606134766.398,-143.066,-28.320,-22.461,-359.375,0.000
1606134766.402,-188.477,-34.668,-20.508,-428.223,0.000
1606134766.406,-105.957,-28.809,-4.883,-42.480,0.000
1606134766.410,-61.523,-19.531,9.766,239.746,0.000
1606134766.414,-125.977,-21.973,10.254,42.480,0.000
1606134766.418,-231.934,-31.738,7.324,-392.090,0.000
1606134766.422,-265.625,-33.203,17.090,-527.832,0.000
1606134766.426,-189.453,-22.949,26.855,-177.246,0.000
1606134766.430,-127.441,-20.508,28.320,152.832,0.000
1606134766.433,-170.898,-29.297,27.832,15.137,0.000
1606134766.437,-276.855,-40.039,23.438,-425.781,0.000
1606134766.441,-319.824,-45.898,30.273,-593.262,0.000
1606134766.445,-245.117,-37.109,40.039,-268.066,0.000
1606134766.449,-172.852,-25.391,32.227,86.914,0.000
1606134766.453,-190.918,-31.250,26.367,20.996,0.000
1606134766.457,-293.457,-41.504,29.785,-405.273,0.000
1606134766.461,-332.520,-38.574,27.344,-608.398,0.000
1606134766.465,-255.371,-31.738,15.137,-324.707,0.000
1606134766.469,-166.504,-28.320,27.344,74.707,0.000
1606134766.473,-164.062,-29.297,44.922,95.215,0.000
1606134766.476,-264.160,-33.203,52.246,-318.359,0.000
1606134766.480,-325.195,-38.086,55.176,-590.820,0.000
1606134766.484,-269.531,-41.992,35.645,-375.488,0.000
1606134766.488,-171.875,-43.945,22.461,41.992,0.000
1606134766.492,-146.973,-39.551,39.551,123.047,0.000
1606134766.496,-217.773,-38.086,31.738,-258.301,0.000
1606134766.500,-274.414,-35.645,5.859,-559.082,0.000
1606134766.504,-236.816,-29.297,16.113,-405.273,0.000
1606134766.508,-141.113,-29.297,38.086,14.160,0.000
1606134766.512,-101.562,-30.762,35.645,160.645,0.000
1606134766.516,-160.156,-33.691,14.648,-168.945,0.000
1606134766.519,-229.492,-32.227,8.301,-488.281,0.000
1606134766.523,-206.543,-33.691,11.719,-365.723,0.000
1606134766.527,-112.793,-38.086,25.879,49.805,0.000
1606134766.531,-67.871,-42.480,6.836,237.305,0.000
1606134766.535,-119.629,-54.688,-29.297,-35.645,0.000
1606134766.539,-190.918,-68.359,-9.766,-398.438,0.000
1606134766.543,-149.902,-72.266,-20.996,-333.008,0.000
1606134766.547,-37.598,-62.012,-18.555,88.867,0.000
1606134766.551,7.324,-54.688,24.414,301.758,0.000
1606134766.555,-50.781,-62.012,31.250,61.035,0.000
1606134766.558,-129.395,-71.289,20.020,-317.871,0.000
1606134766.562,-114.258,-70.801,2.441,-343.262,0.000
1606134766.566,-0.977,-56.152,-5.371,72.754,0.000
1606134766.570,76.660,-49.805,-8.301,376.953,0.000
1606134766.574,44.922,-53.711,-19.531,183.594,0.000
1606134766.578,-42.480,-55.664,-24.414,-215.820,0.000
1606134766.582,-51.270,-67.383,-25.879,-287.598,0.000
1606134766.586,47.852,-63.965,-28.809,89.355,0.000
1606134766.590,134.277,-50.293,-28.320,430.176,0.000
1606134766.594,113.770,-48.340,-29.297,309.570,0.000
1606134766.598,17.578,-53.711,-33.203,-125.000,0.000
1606134766.601,-10.742,-56.641,-30.273,-263.672,0.000
1606134766.605,79.590,-52.246,-21.973,81.055,0.000
1606134766.609,159.180,-48.340,-20.508,430.176,0.000
1606134766.613,141.602,-43.457,-23.438,364.258,0.000
1606134766.617,57.617,-45.898,-29.297,-35.645,0.000
1606134766.621,19.043,-52.734,-36.621,-250.977,0.000
1606134766.625,87.402,-52.734,-31.738,13.672,0.000
1606134766.629,177.246,-43.945,-25.391,402.344,0.000
1606134766.633,167.969,-38.086,-29.297,402.832,0.000
1606134766.637,64.453,-41.504,-34.180,-15.625,0.000
1606134766.641,7.324,-45.410,-36.133,-277.344,0.000
1606134766.644,66.406,-42.969,-34.180,-29.297,0.000
1606134766.648,155.762,-37.598,-28.809,379.883,0.000
1606134766.652,154.785,-39.062,-27.832,423.828,0.000
1606134766.656,57.617,-48.340,-35.156,26.367,0.000
1606134766.660,-7.324,-52.734,-35.645,-278.320,0.000
1606134766.664,42.480,-43.945,-29.785,-94.238,0.000
1606134766.668,134.766,-39.062,-27.832,326.172,0.000
1606134766.672,147.949,-41.992,-30.762,435.059,0.000
1606134766.676,64.941,-42.969,-33.691,76.172,0.000
1606134766.680,-7.812,-44.922,-36.621,-262.207,0.000
1606134766.683,17.578,-41.016,-37.109,-158.691,0.000
1606134766.687,109.863,-33.691,-34.668,266.113,0.000
1606134766.691,138.672,-34.668,-33.203,428.711,0.000
1606134766.695,60.059,-37.598,-39.062,118.652,0.000
1606134766.699,-27.832,-42.969,-46.875,-257.324,0.000
1606134766.703,1.465,-38.086,-41.016,-177.246,0.000
1606134766.707,110.352,-24.902,-35.156,265.137,0.000
1606134766.711,144.043,-20.508,-31.250,438.965,0.000
1606134766.715,68.848,-24.902,-35.156,176.270,0.000
1606134766.719,-28.320,-34.180,-42.480,-223.145,0.000
1606134766.723,-30.273,-29.297,-41.016,-264.648,0.000
1606134766.726,65.918,-19.531,-34.180,136.719,0.000
