timestamps,TP9,AF7,AF8,TP10,Right AUX
1606129693.983,0.000,0.000,0.000,-0.488,0.000
1606129693.987,-0.488,0.000,-0.488,-0.977,0.000
1606129693.991,0.977,-0.977,-0.977,4.395,0.000
1606129693.995,-1.465,1.465,1.953,-5.371,0.000
1606129693.999,0.488,-9.277,-13.184,15.137,0.000
1606129694.003,31.250,-18.555,-23.926,139.648,0.000
1606129694.007,15.137,-22.461,-25.391,112.793,0.000
1606129694.011,-65.430,-35.645,-37.109,-118.652,0.000
1606129694.015,-94.727,-29.785,-30.273,-215.332,0.000
1606129694.019,-37.109,-21.484,-23.438,-60.059,0.000
1606129694.022,27.344,-21.484,-32.227,141.602,0.000
1606129694.026,18.555,-20.996,-31.738,128.906,0.000
1606129694.030,-51.758,-28.320,-36.133,-98.145,0.000
1606129694.034,-91.797,-31.250,-41.504,-226.562,0.000
1606129694.038,-49.805,-19.043,-32.715,-98.145,0.000
1606129694.042,27.832,-13.672,-34.668,125.488,0.000
1606129694.046,37.109,-20.508,-22.949,164.062,0.000
1606129694.050,-49.316,-28.809,-14.648,-45.410,0.000
1606129694.054,-120.117,-39.062,-19.531,-213.867,0.000
1606129694.058,-89.844,-41.016,-16.602,-131.348,0.000
1606129694.062,-3.906,-37.598,-15.625,98.145,0.000
1606129694.065,19.043,-33.691,-6.836,162.598,0.000
1606129694.069,-45.410,-30.273,4.883,-24.902,0.000
1606129694.073,-104.492,-34.180,-8.301,-203.613,0.000
1606129694.077,-81.055,-36.133,-22.461,-149.414,0.000
1606129694.081,-5.371,-35.645,-14.648,74.219,0.000
1606129694.085,20.020,-33.203,-14.160,160.156,0.000
1606129694.089,-27.832,-29.297,-13.672,0.488,0.000
1606129694.093,-83.008,-39.551,-9.766,-187.012,0.000
1606129694.097,-70.801,-45.898,-14.648,-161.133,0.000
1606129694.101,-1.953,-12.695,-20.996,66.895,0.000
1606129694.105,22.949,5.859,-26.367,178.223,0.000
1606129694.108,-19.531,-15.625,-24.414,38.086,0.000
1606129694.112,-81.055,-38.574,-23.926,-169.922,0.000
1606129694.116,-82.031,-42.480,-25.879,-186.035,0.000
1606129694.120,-11.719,-26.367,-22.949,28.320,0.000
1606129694.124,40.039,-18.066,-2.441,174.316,0.000
1606129694.128,3.418,-27.344,-4.883,62.988,0.000
1606129694.132,-78.125,-39.062,-21.973,-161.621,0.000
1606129694.136,-95.215,-44.922,-16.602,-203.613,0.000
1606129694.140,-33.203,-42.480,-13.672,0.977,0.000
1606129694.144,23.926,-36.133,-14.160,175.293,0.000
1606129694.147,3.418,-11.719,-26.855,94.238,0.000
1606129694.151,-68.359,-7.812,-28.320,-140.137,0.000
1606129694.155,-86.426,-33.203,-23.926,-207.520,0.000
1606129694.159,-23.926,-31.250,-17.090,-26.367,0.000
1606129694.163,38.574,-30.273,-11.230,161.133,0.000
1606129694.167,11.719,-39.551,-20.508,110.840,0.000
1606129694.171,-71.289,-38.574,-27.832,-121.094,0.000
1606129694.175,-93.262,-25.879,-18.066,-213.379,0.000
1606129694.179,-41.992,-23.926,-12.695,-60.059,0.000
1606129694.183,18.066,-26.367,-22.461,136.230,0.000
1606129694.187,20.020,-20.996,-24.414,130.371,0.000
1606129694.190,-52.246,-21.973,-25.391,-93.262,0.000
1606129694.194,-92.285,-32.227,-26.367,-219.727,0.000
1606129694.198,-49.316,-23.926,-28.809,-98.145,0.000
1606129694.202,15.137,-3.906,-20.508,110.352,0.000
1606129694.206,20.020,-16.602,-12.207,142.578,0.000
1606129694.210,-42.480,-29.785,-14.648,-54.688,0.000
1606129694.214,-86.426,-35.645,-23.926,-204.590,0.000
1606129694.218,-56.641,-33.691,-27.344,-115.723,0.000
1606129694.222,13.672,-30.762,-29.297,107.422,0.000
1606129694.226,27.344,-30.762,-32.227,162.109,0.000
1606129694.230,-34.668,-35.156,-22.461,-21.973,0.000
1606129694.233,-86.426,-35.645,-25.879,-193.848,0.000
1606129694.237,-65.430,-27.344,-19.531,-140.137,0.000
1606129694.241,10.254,-17.090,-6.836,94.727,0.000
1606129694.245,33.691,-18.555,-4.395,179.199,0.000
1606129694.249,-26.367,-15.137,-12.207,8.789,0.000
1606129694.253,-92.773,-22.949,-19.531,-190.430,0.000
1606129694.257,-84.961,-41.992,-23.438,-175.781,0.000
1606129694.261,-9.277,-35.645,-26.367,50.293,0.000
1606129694.265,30.273,-24.902,-17.090,170.898,0.000
1606129694.269,-17.578,-36.133,-19.043,28.809,0.000
1606129694.272,-86.914,-50.781,-29.785,-186.035,0.000
1606129694.276,-82.520,-42.480,-30.273,-195.801,0.000
1606129694.280,-8.301,-34.668,-24.902,24.414,0.000
1606129694.284,29.785,-29.785,-16.113,153.809,0.000
1606129694.288,-11.719,-28.809,-23.438,41.016,0.000
1606129694.292,-83.496,-35.156,-32.227,-160.156,0.000
1606129694.296,-88.379,-38.086,-21.973,-199.707,0.000
1606129694.300,-16.113,3.906,-14.160,-2.930,0.000
1606129694.304,41.016,13.672,-17.090,168.457,0.000
1606129694.308,9.277,-31.250,-25.391,90.820,0.000
1606129694.312,-71.777,-37.109,-29.785,-142.090,0.000
1606129694.315,-84.473,-41.504,-31.738,-210.938,0.000
1606129694.319,-16.602,-38.086,-29.297,-32.715,0.000
1606129694.323,41.504,-26.855,-21.973,152.344,0.000
1606129694.327,26.367,-29.785,-18.555,110.840,0.000
1606129694.331,-48.828,-27.832,-25.879,-114.258,0.000
1606129694.335,-82.031,-22.461,-32.227,-221.191,0.000
1606129694.339,-30.762,-20.508,-30.762,-73.730,0.000
1606129694.343,36.133,-25.879,-23.438,132.812,0.000
1606129694.347,26.855,-23.438,-23.438,127.930,0.000
1606129694.351,-55.176,-14.160,-35.156,-103.027,0.000
1606129694.355,-94.238,-34.668,-32.227,-234.375,0.000
1606129694.358,-53.711,-45.410,-27.832,-105.469,0.000
1606129694.362,13.672,-36.133,-25.391,107.910,0.000
1606129694.366,16.113,-35.156,-20.020,134.766,0.000
1606129694.370,-58.594,-42.480,-33.203,-74.707,0.000
1606129694.374,-111.328,-48.828,-40.527,-231.445,0.000
1606129694.378,-81.055,-43.945,-34.668,-135.742,0.000
1606129694.382,-0.977,-26.367,-25.879,93.750,0.000
1606129694.386,19.043,-19.531,-23.438,153.809,0.000
1606129694.390,-45.898,-28.809,-23.438,-38.086,0.000
1606129694.394,-103.516,-40.527,-25.879,-219.727,0.000
1606129694.397,-82.031,-36.133,-24.414,-157.715,0.000
1606129694.401,-1.953,-21.973,-18.066,79.590,0.000
1606129694.405,25.879,-33.203,-23.438,164.551,0.000
1606129694.409,-30.762,-18.066,-32.227,-7.812,0.000
1606129694.413,-94.238,-0.977,-34.668,-205.078,0.000
1606129694.417,-76.660,-22.949,-30.273,-179.688,0.000
1606129694.421,6.348,-21.484,-20.020,48.828,0.000
1606129694.425,39.551,-21.973,-16.602,165.039,0.000
1606129694.429,-12.695,-16.602,-27.344,19.531,0.000
1606129694.433,-78.125,-19.531,-23.926,-191.895,0.000
1606129694.437,-84.961,-39.551,-20.508,-203.125,0.000
1606129694.440,-16.602,-39.551,-23.926,10.742,0.000
1606129694.444,36.133,-20.996,-16.602,158.203,0.000
1606129694.448,-4.883,-25.391,-20.996,43.945,0.000
1606129694.452,-85.938,-44.922,-33.691,-179.199,0.000
1606129694.456,-92.773,-32.715,-33.203,-213.379,0.000
1606129694.460,-13.672,-7.812,-26.855,-4.395,0.000
1606129694.464,46.875,-10.254,-17.578,167.480,0.000
1606129694.468,14.160,-20.508,-5.371,95.215,0.000
1606129694.472,-68.359,-16.602,-8.301,-136.230,0.000
1606129694.476,-93.262,-18.555,-26.367,-208.984,0.000
1606129694.480,-35.156,-21.973,-25.879,-29.785,0.000
1606129694.483,24.414,-20.020,-11.230,160.645,0.000
1606129694.487,4.883,-15.625,-10.254,120.605,0.000
1606129694.491,-70.801,-7.324,-21.973,-113.770,0.000
1606129694.495,-100.098,-26.367,-25.391,-223.633,0.000
1606129694.499,-45.898,-31.250,-19.043,-68.359,0.000
1606129694.503,24.902,-17.090,-12.695,143.555,0.000
1606129694.507,22.949,-17.578,-10.254,135.742,0.000
1606129694.511,-58.594,-26.367,-32.227,-90.820,0.000
1606129694.515,-103.027,-33.691,-32.715,-220.215,0.000
1606129694.519,-58.105,-31.738,-20.020,-93.262,0.000
1606129694.522,15.625,-27.832,-22.949,125.000,0.000
1606129694.526,26.855,-26.367,-18.066,155.762,0.000
1606129694.530,-42.480,-20.508,-22.949,-54.199,0.000
1606129694.534,-88.867,-28.809,-35.156,-218.262,0.000
1606129694.538,-53.223,-35.645,-34.668,-128.418,0.000
1606129694.542,24.414,-25.391,-25.879,103.027,0.000
1606129694.546,44.434,-20.996,-12.207,163.086,0.000
1606129694.550,-21.484,-26.855,-22.949,-32.715,0.000
1606129694.554,-83.984,-27.344,-36.621,-211.914,0.000
1606129694.558,-64.453,-22.949,-28.320,-152.344,0.000
1606129694.562,17.090,-14.160,-15.137,84.473,0.000
1606129694.565,45.410,-13.184,-14.160,175.293,0.000
1606129694.569,-7.812,2.441,-21.973,2.930,0.000
1606129694.573,-83.984,-10.254,-38.086,-209.473,0.000
1606129694.577,-87.891,-38.574,-40.039,-193.359,0.000
1606129694.581,-5.371,-25.391,-24.902,38.574,0.000
1606129694.585,32.227,-28.320,-22.461,155.762,0.000
1606129694.589,-22.949,-33.203,-27.832,11.230,0.000
1606129694.593,-91.309,-32.715,-24.902,-202.637,0.000
1606129694.597,-93.750,-39.062,-28.809,-208.008,0.000
1606129694.601,-17.090,-37.598,-37.598,18.555,0.000
1606129694.605,38.574,-20.996,-31.738,166.016,0.000
1606129694.608,-4.883,-16.602,-41.992,49.316,0.000
1606129694.612,-77.637,-29.297,-47.363,-172.363,0.000
1606129694.616,-74.219,-30.273,-39.551,-209.473,0.000
1606129694.620,-3.906,-22.461,-52.734,-7.812,0.000
1606129694.624,61.523,-16.602,-42.969,177.734,0.000
1606129694.628,50.293,-8.789,-28.320,119.629,0.000
1606129694.632,-21.973,-7.812,-41.504,-110.352,0.000
1606129694.636,-42.969,-17.578,-46.387,-181.152,0.000
1606129694.640,19.043,-20.508,-41.992,0.000,0.000
1606129694.644,77.637,-20.020,-32.715,186.523,0.000
1606129694.647,59.570,-17.090,-37.109,146.484,0.000
1606129694.651,-15.137,-21.484,-44.434,-83.984,0.000
1606129694.655,-45.410,-21.973,-33.203,-186.035,0.000
1606129694.659,3.906,-19.531,-33.203,-39.062,0.000
1606129694.663,67.871,-19.043,-42.480,156.250,0.000
1606129694.667,66.895,-18.555,-38.574,149.414,0.000
1606129694.671,-12.207,-8.301,-41.504,-77.148,0.000
1606129694.675,-51.758,-19.531,-41.016,-208.984,0.000
1606129694.679,-5.371,-26.367,-43.457,-83.984,0.000
1606129694.683,58.594,-22.461,-40.039,130.859,0.000
1606129694.687,66.895,-30.273,-29.297,160.645,0.000
1606129694.690,-0.488,-29.297,-44.922,-47.852,0.000
1606129694.694,-53.223,-24.902,-43.457,-201.172,0.000
1606129694.698,-20.508,-29.785,-42.480,-108.887,0.000
1606129694.702,50.293,-33.203,-41.992,115.723,0.000
1606129694.706,62.012,-28.320,-31.250,181.152,0.000
1606129694.710,-2.441,-8.789,-32.227,-3.418,0.000
1606129694.714,-56.152,-17.090,-23.926,-178.711,0.000
1606129694.718,-33.691,-36.133,-21.484,-115.723,0.000
1606129694.722,34.180,-29.785,-30.273,112.305,0.000
1606129694.726,52.246,-28.320,-31.738,197.266,0.000
1606129694.730,-2.930,-30.762,-29.785,26.855,0.000
1606129694.733,-60.059,-35.156,-30.273,-170.898,0.000
1606129694.737,-53.223,-32.715,-28.320,-142.090,0.000
1606129694.741,10.254,-22.949,-27.832,76.172,0.000
1606129694.745,48.828,-19.043,-20.508,186.523,0.000
1606129694.749,5.859,-25.391,-21.484,55.176,0.000
1606129694.753,-65.918,-36.133,-37.109,-158.203,0.000
1606129694.757,-69.824,-41.992,-36.621,-178.223,0.000
1606129694.761,-1.953,-35.645,-25.391,28.320,0.000
1606129694.765,43.945,-31.738,-23.438,163.086,0.000
1606129694.769,6.836,-17.578,-30.762,52.734,0.000
1606129694.772,-70.801,-3.418,-46.387,-169.434,0.000
1606129694.776,-85.449,-24.414,-44.434,-215.820,0.000
1606129694.780,-18.555,-35.156,-32.227,-18.555,0.000
1606129694.784,39.062,-30.762,-25.391,147.949,0.000
1606129694.788,19.043,-25.391,-26.855,75.684,0.000
1606129694.792,-51.270,-32.715,-34.180,-144.043,0.000
1606129694.796,-70.312,-41.016,-40.039,-216.309,0.000
1606129694.800,-14.160,-27.344,-26.855,-41.992,0.000
1606129694.804,42.480,-19.043,-5.859,146.973,0.000
1606129694.808,22.461,-1.953,-19.531,100.098,0.000
1606129694.812,-53.223,5.859,-29.297,-133.301,0.000
1606129694.815,-78.613,-29.785,-26.367,-233.398,0.000
1606129694.819,-26.367,-38.086,-31.250,-70.312,0.000
1606129694.823,39.551,-27.832,-26.855,141.113,0.000
1606129694.827,37.598,-18.066,-18.555,132.324,0.000
1606129694.831,-35.645,-26.855,-25.879,-87.891,0.000
1606129694.835,-79.590,-35.645,-29.785,-209.961,0.000
1606129694.839,-38.086,-37.109,-21.484,-85.449,0.000
1606129694.843,29.785,-35.645,-19.043,127.441,0.000
1606129694.847,36.133,-16.602,-13.184,159.668,0.000
1606129694.851,-36.133,0.488,-23.438,-43.457,0.000
1606129694.855,-87.891,-17.578,-32.227,-210.449,0.000
1606129694.858,-56.641,-25.879,-27.344,-128.418,0.000
1606129694.862,12.695,-23.926,-23.438,94.238,0.000
1606129694.866,25.391,-21.973,-21.484,151.855,0.000
1606129694.870,-40.039,-23.438,-21.973,-36.133,0.000
1606129694.874,-103.516,-41.504,-27.344,-221.191,0.000
1606129694.878,-90.332,-46.387,-28.320,-162.598,0.000
1606129694.882,-13.184,-38.086,-18.555,74.219,0.000
1606129694.886,18.066,-30.273,-10.254,165.527,0.000
1606129694.890,-42.969,-31.738,-22.461,-11.230,0.000
1606129694.894,-103.027,-37.109,-31.738,-211.914,0.000
1606129694.897,-88.379,-38.086,-21.484,-182.129,0.000
1606129694.901,-23.438,-33.203,-20.996,37.109,0.000
1606129694.905,7.324,-36.133,-26.367,148.926,0.000
1606129694.909,-41.504,-14.648,-25.391,10.254,0.000
1606129694.913,-103.516,-12.695,-27.344,-195.801,0.000
1606129694.917,-99.609,-38.086,-33.203,-209.473,0.000
1606129694.921,-26.855,-30.273,-26.367,7.324,0.000
1606129694.925,20.020,-32.227,-27.344,155.273,0.000
1606129694.929,-17.578,-36.621,-40.527,47.852,0.000
1606129694.933,-83.008,-41.504,-36.621,-169.434,0.000
1606129694.937,-88.379,-40.527,-26.855,-205.566,0.000
1606129694.940,-19.531,-31.250,-16.602,2.441,0.000
1606129694.944,32.227,-39.551,-16.602,168.945,0.000
1606129694.948,-0.977,-23.438,-29.297,80.078,0.000
1606129694.952,-80.078,-6.348,-43.945,-157.715,0.000
1606129694.956,-94.238,-35.156,-42.969,-219.727,0.000
1606129694.960,-29.785,-43.457,-35.645,-37.109,0.000
1606129694.964,29.785,-34.668,-28.809,143.555,0.000
1606129694.968,13.184,-32.227,-27.344,104.004,0.000
1606129694.972,-64.941,-36.133,-37.598,-125.488,0.000
1606129694.976,-95.215,-39.551,-37.109,-229.492,0.000
1606129694.980,-44.922,-32.715,-37.598,-72.266,0.000
1606129694.983,22.461,-28.320,-22.461,131.348,0.000
1606129694.987,18.555,-25.879,-13.672,126.953,0.000
1606129694.991,-60.059,-23.438,-39.062,-94.238,0.000
1606129694.995,-97.656,-32.715,-44.434,-227.051,0.000
1606129694.999,-55.176,-36.621,-39.551,-107.422,0.000
1606129695.003,12.695,-35.645,-36.133,95.215,0.000
1606129695.007,20.020,-34.180,-33.203,118.164,0.000
1606129695.011,-49.805,-36.621,-38.086,-86.426,0.000
1606129695.015,-98.633,-37.109,-35.645,-238.281,0.000
1606129695.019,-56.152,-28.809,-30.273,-131.836,0.000
1606129695.022,20.020,-17.578,-22.949,100.098,0.000
1606129695.026,27.344,-12.207,-29.785,143.555,0.000
1606129695.030,-37.598,-22.461,-38.574,-50.293,0.000
1606129695.034,-86.914,-31.250,-36.621,-211.914,0.000
1606129695.038,-60.547,-20.508,-34.180,-140.625,0.000
1606129695.042,13.184,-14.648,-22.949,94.238,0.000
1606129695.046,34.668,-25.879,-20.020,179.688,0.000
1606129695.050,-25.391,-14.648,-34.180,6.836,0.000
1606129695.054,-84.473,-11.230,-34.668,-184.082,0.000
1606129695.058,-64.453,-35.156,-23.438,-155.762,0.000
1606129695.062,11.230,-32.227,-21.484,63.477,0.000
1606129695.065,43.457,-18.555,-23.926,177.246,0.000
1606129695.069,-2.930,-18.066,-26.367,40.039,0.000
1606129695.073,-73.242,-29.785,-28.809,-172.852,0.000
1606129695.077,-76.660,-31.738,-36.621,-188.965,0.000
1606129695.081,-6.348,-28.320,-36.621,24.902,0.000
1606129695.085,43.457,-26.367,-28.320,170.410,0.000
1606129695.089,7.812,-18.066,-26.855,59.570,0.000
1606129695.093,-73.242,-29.785,-29.297,-169.922,0.000
1606129695.097,-85.938,-41.016,-31.738,-215.332,0.000
1606129695.101,-18.066,-20.996,-24.902,-5.859,0.000
1606129695.105,30.762,-16.113,-18.555,166.504,0.000
1606129695.108,-3.418,-31.738,-30.762,84.961,0.000
1606129695.112,-69.336,-36.133,-26.367,-142.578,0.000
1606129695.116,-83.008,-30.762,-20.996,-212.402,0.000
1606129695.120,-34.180,-34.668,-31.738,-40.527,0.000
1606129695.124,21.484,-33.203,-30.762,138.672,0.000
1606129695.128,6.348,-16.113,-28.320,93.750,0.000
1606129695.132,-63.477,-9.766,-39.062,-126.953,0.000
1606129695.136,-96.191,-32.227,-44.434,-236.816,0.000
1606129695.140,-42.480,-33.203,-25.879,-83.008,0.000
1606129695.144,30.762,-23.926,-14.160,132.812,0.000
1606129695.147,22.461,-14.160,-29.297,121.582,0.000
1606129695.151,-51.758,-11.719,-41.504,-104.980,0.000
1606129695.155,-90.332,-28.320,-34.668,-228.516,0.000
1606129695.159,-48.828,-31.250,-27.832,-95.703,0.000
1606129695.163,34.180,-22.949,-26.367,123.535,0.000
1606129695.167,40.527,-18.066,-19.531,149.414,0.000
1606129695.171,-42.480,-24.902,-23.926,-66.406,0.000
1606129695.175,-90.820,-27.344,-34.668,-222.656,0.000
1606129695.179,-56.641,-25.391,-21.973,-120.117,0.000
1606129695.183,18.555,-30.273,-22.461,101.074,0.000
1606129695.187,30.762,-29.297,-34.180,147.949,0.000
1606129695.190,-35.645,-21.973,-37.109,-41.992,0.000
1606129695.194,-94.727,-28.320,-35.156,-216.797,0.000
1606129695.198,-75.195,-35.156,-30.273,-160.156,0.000
1606129695.202,0.488,-29.785,-29.785,66.895,0.000
1606129695.206,25.391,-22.949,-22.949,153.320,0.000
1606129695.210,-27.832,-20.020,-12.695,-12.695,0.000
1606129695.214,-96.680,-28.809,-22.461,-215.332,0.000
1606129695.218,-88.379,-27.832,-28.320,-191.406,0.000
1606129695.222,-4.883,-15.625,-24.902,45.898,0.000
1606129695.226,31.738,-19.531,-19.531,165.039,0.000
1606129695.230,-20.996,-5.859,-27.344,18.066,0.000
1606129695.233,-85.938,-1.465,-36.133,-195.312,0.000
1606129695.237,-78.125,-25.391,-25.879,-200.684,0.000
1606129695.241,-0.977,-20.508,-15.137,24.414,0.000
1606129695.245,51.270,-11.719,-19.043,171.387,0.000
1606129695.249,14.160,-17.090,-28.320,57.129,0.000
1606129695.253,-61.035,-22.949,-31.738,-164.062,0.000
1606129695.257,-73.242,-26.367,-32.715,-199.219,0.000
1606129695.261,-7.812,-26.855,-28.809,1.465,0.000
1606129695.265,41.992,-18.555,-20.020,166.992,0.000
1606129695.269,10.254,-15.137,-23.438,92.773,0.000
1606129695.272,-69.824,-25.391,-30.762,-129.883,0.000
1606129695.276,-90.820,-34.668,-30.762,-202.637,0.000
1606129695.280,-28.320,-22.461,-13.184,-23.926,0.000
1606129695.284,36.621,-14.160,6.348,170.410,0.000
1606129695.288,18.555,-4.883,-20.020,118.652,0.000
1606129695.292,-65.430,-13.184,-52.734,-121.582,0.000
1606129695.296,-101.074,-33.203,-45.898,-220.215,0.000
1606129695.300,-53.223,-34.180,-34.180,-64.941,0.000
1606129695.304,12.207,-35.156,-25.879,136.230,0.000
1606129695.308,9.766,-31.250,-22.949,125.977,0.000
1606129695.312,-64.453,-36.133,-28.809,-98.633,0.000
1606129695.315,-110.352,-45.410,-26.855,-229.004,0.000
1606129695.319,-63.965,-37.109,-21.484,-97.168,0.000
1606129695.323,12.207,-23.438,-21.484,124.512,0.000
1606129695.327,10.254,-23.926,-25.879,138.184,0.000
1606129695.331,-58.105,-1.953,-31.250,-73.730,0.000
1606129695.335,-104.004,-12.695,-46.387,-225.098,0.000
1606129695.339,-75.195,-39.062,-48.340,-135.742,0.000
1606129695.343,0.977,-34.668,-34.180,89.844,0.000
1606129695.347,17.578,-34.668,-34.180,137.207,0.000
1606129695.351,-47.363,-38.086,-35.645,-55.664,0.000
1606129695.355,-105.957,-46.875,-36.133,-229.492,0.000
1606129695.358,-80.566,-46.875,-36.621,-170.898,0.000
1606129695.362,0.000,-40.527,-25.391,62.500,0.000
1606129695.366,30.273,-35.156,-22.461,152.832,0.000
1606129695.370,-27.832,-15.625,-36.133,-18.555,0.000
1606129695.374,-95.703,-29.785,-46.875,-214.844,0.000
1606129695.378,-79.590,-46.875,-37.598,-190.918,0.000
1606129695.382,2.441,-26.367,-21.973,34.668,0.000
1606129695.386,30.762,-26.367,-30.762,145.508,0.000
1606129695.390,-19.531,-32.227,-34.180,7.812,0.000
1606129695.394,-86.914,-38.086,-33.203,-197.266,0.000
1606129695.397,-91.309,-42.480,-34.668,-201.660,0.000
1606129695.401,-18.066,-26.855,-26.367,24.902,0.000
1606129695.405,31.738,-21.484,-16.113,170.898,0.000
1606129695.409,-3.906,-29.297,-14.160,57.129,0.000
1606129695.413,-85.449,-36.133,-30.762,-170.898,0.000
1606129695.417,-99.609,-39.062,-30.762,-207.031,0.000
1606129695.421,-35.156,-34.180,-18.066,-5.859,0.000
1606129695.425,14.648,-38.086,-9.277,157.715,0.000
1606129695.429,-13.672,-17.578,-16.602,80.566,0.000
1606129695.433,-88.867,3.906,-35.156,-151.367,0.000
1606129695.437,-103.516,-27.832,-29.785,-221.680,0.000
1606129695.440,-41.992,-41.992,-19.043,-34.180,0.000
1606129695.444,17.090,-41.016,-10.254,151.855,0.000
1606129695.448,7.812,-34.180,2.441,108.398,0.000
1606129695.452,-67.383,-35.156,-13.672,-113.281,0.000
1606129695.456,-106.445,-41.016,-26.855,-208.984,0.000
1606129695.460,-51.758,-33.203,-18.066,-56.152,0.000
1606129695.464,16.602,-37.109,-13.672,142.090,0.000
1606129695.468,15.137,-15.137,-12.695,132.812,0.000
1606129695.472,-55.664,-3.906,-14.648,-89.844,0.000
1606129695.476,-95.215,-34.180,-17.578,-222.656,0.000
1606129695.480,-45.898,-35.645,-26.855,-102.539,0.000
1606129695.483,31.250,-21.973,-26.855,115.234,0.000
1606129695.487,41.992,-12.695,-19.043,143.066,0.000
1606129695.491,-23.438,-13.672,-22.461,-69.824,0.000
1606129695.495,-73.242,-27.832,-31.738,-229.980,0.000
1606129695.499,-41.992,-32.227,-35.645,-140.137,0.000
1606129695.503,29.297,-30.762,-32.715,83.984,0.000
1606129695.507,42.480,-22.461,-29.297,141.602,0.000
1606129695.511,-27.832,16.602,-34.668,-54.199,0.000
1606129695.515,-87.402,-0.977,-29.297,-230.469,0.000
1606129695.519,-61.035,-35.156,-19.043,-159.180,0.000
1606129695.522,13.672,-22.461,-21.484,77.637,0.000
1606129695.526,34.668,-14.160,-15.625,164.551,0.000
1606129695.530,-25.879,-25.391,-17.090,-10.742,0.000
1606129695.534,-90.820,-40.039,-31.738,-217.285,0.000
1606129695.538,-81.543,-35.645,-32.227,-184.082,0.000
1606129695.542,-2.441,-25.879,-27.344,52.246,0.000
1606129695.546,36.621,-23.438,-27.344,162.598,0.000
1606129695.550,-20.508,-28.809,-30.762,19.531,0.000
1606129695.554,-88.867,-36.133,-32.715,-180.664,0.000
1606129695.558,-81.543,-30.273,-26.855,-177.734,0.000
1606129695.562,-11.230,-31.738,-18.066,42.969,0.000
1606129695.565,24.414,-35.645,-17.578,177.734,0.000
1606129695.569,-20.020,-10.254,-29.785,66.895,0.000
1606129695.573,-92.285,-15.137,-30.762,-150.879,0.000
1606129695.577,-98.145,-37.109,-23.926,-189.453,0.000
1606129695.581,-21.973,-26.855,-28.320,9.277,0.000
1606129695.585,27.344,-22.949,-25.879,171.387,0.000
1606129695.589,-2.930,-34.180,-28.809,96.680,0.000
1606129695.593,-74.707,-42.969,-29.785,-131.836,0.000
1606129695.597,-100.098,-36.133,-25.391,-195.801,0.000
1606129695.601,-36.133,-22.461,-22.461,-10.254,0.000
1606129695.605,27.344,-22.461,-14.648,167.969,0.000
1606129695.608,0.488,-11.719,-24.414,114.746,0.000
1606129695.612,-78.125,2.441,-29.785,-116.699,0.000
1606129695.616,-101.074,-26.367,-26.855,-212.402,0.000
1606129695.620,-41.016,-35.156,-20.996,-51.270,0.000
1606129695.624,27.344,-28.320,-11.719,152.344,0.000
1606129695.628,19.043,-34.668,-24.902,134.766,0.000
1606129695.632,-46.875,-32.227,-27.344,-88.867,0.000
1606129695.636,-78.125,-31.738,-30.762,-210.938,0.000
1606129695.640,-35.156,-36.621,-42.480,-87.402,0.000
1606129695.644,33.691,-28.320,-30.762,126.465,0.000
1606129695.647,46.875,-8.301,-19.531,155.762,0.000
1606129695.651,-27.832,-9.277,-32.715,-58.594,0.000
1606129695.655,-82.031,-36.133,-39.062,-220.703,0.000
1606129695.659,-47.363,-30.273,-32.227,-123.535,0.000
1606129695.663,22.461,-22.949,-14.160,105.469,0.000
1606129695.667,33.691,-32.715,-16.602,154.785,0.000
1606129695.671,-37.109,-39.062,-36.621,-45.898,0.000
1606129695.675,-104.980,-41.504,-33.203,-226.562,0.000
1606129695.679,-91.309,-36.621,-26.855,-155.273,0.000
1606129695.683,-15.625,-30.762,-32.227,78.125,0.000
1606129695.687,15.625,-28.320,-36.621,156.250,0.000
1606129695.690,-35.645,-34.668,-30.273,-11.719,0.000
1606129695.694,-94.727,-44.434,-41.504,-199.707,0.000
1606129695.698,-80.566,-45.410,-44.922,-176.270,0.000
1606129695.702,-7.324,-41.504,-29.297,41.504,0.000
1606129695.706,33.203,-42.480,-24.414,149.902,0.000
1606129695.710,-4.395,-23.438,-34.668,9.277,0.000
1606129695.714,-70.312,-22.949,-41.504,-200.195,0.000
1606129695.718,-64.453,-36.133,-24.902,-203.613,0.000
1606129695.722,13.184,-24.414,-25.391,15.625,0.000
1606129695.726,52.246,-23.926,-41.504,147.949,0.000
1606129695.730,5.371,-29.297,-41.992,31.250,0.000
1606129695.733,-68.848,-41.504,-44.434,-192.383,0.000
1606129695.737,-80.566,-40.039,-39.551,-228.027,0.000
1606129695.741,-7.812,-20.508,-32.715,-17.090,0.000
1606129695.745,53.223,-22.949,-22.461,157.227,0.000
1606129695.749,3.418,-21.484,-19.043,53.223,0.000
1606129695.753,-99.121,-28.320,-27.344,-193.848,0.000
1606129695.757,-122.070,-47.363,-21.973,-252.930,0.000
1606129695.761,-56.152,-34.180,-10.254,-70.312,0.000
1606129695.765,-5.371,-26.367,-3.418,104.980,0.000
1606129695.769,-34.180,-35.645,-11.719,43.457,0.000
1606129695.772,-111.816,-45.410,-11.230,-186.523,0.000
1606129695.776,-141.113,-43.945,-4.883,-274.902,0.000
1606129695.780,-92.773,-39.551,4.883,-116.699,0.000
1606129695.784,-32.715,-45.410,18.066,88.867,0.000
1606129695.788,-35.156,-20.508,10.254,92.773,0.000
1606129695.792,-114.746,3.906,-0.977,-131.348,0.000
1606129695.796,-152.344,-38.574,0.000,-255.371,0.000
1606129695.800,-92.773,-56.641,4.883,-113.770,0.000
1606129695.804,-16.602,-41.016,7.812,104.980,0.000
1606129695.808,-13.672,-34.668,5.371,125.488,0.000
1606129695.812,-80.566,-40.527,-6.836,-81.543,0.000
1606129695.815,-119.141,-41.504,-9.766,-229.004,0.000
1606129695.819,-79.590,-35.645,-7.812,-124.512,0.000
1606129695.823,-5.371,-38.086,-10.254,101.074,0.000
1606129695.827,5.371,-41.992,-14.648,154.297,0.000
1606129695.831,-55.176,-47.363,-18.555,-31.738,0.000
1606129695.835,-95.703,-47.363,-27.344,-200.684,0.000
1606129695.839,-71.289,-48.340,-36.621,-145.508,0.000
1606129695.843,12.695,-51.270,-31.738,85.449,0.000
1606129695.847,48.828,-24.414,-29.785,178.711,0.000
1606129695.851,-7.812,5.859,-35.156,9.277,0.000
1606129695.855,-67.383,-15.625,-36.621,-183.594,0.000
1606129695.858,-53.223,-30.762,-37.109,-152.344,0.000
1606129695.862,20.996,-27.832,-30.273,73.730,0.000
1606129695.866,59.082,-22.949,-24.414,189.941,0.000
1606129695.870,11.230,-17.090,-31.250,47.852,0.000
1606129695.874,-60.547,-25.879,-39.062,-162.598,0.000
1606129695.878,-60.547,-28.320,-33.203,-160.156,0.000
1606129695.882,7.812,-26.367,-28.809,55.664,0.000
1606129695.886,42.480,-39.551,-31.738,189.453,0.000
1606129695.890,-8.301,-7.812,-34.180,71.777,0.000
1606129695.894,-78.613,5.859,-36.133,-154.785,0.000
1606129695.897,-79.102,-33.691,-32.227,-187.012,0.000
1606129695.901,-12.695,-37.598,-28.320,16.113,0.000
1606129695.905,34.180,-35.156,-28.809,174.316,0.000
1606129695.909,4.883,-33.203,-33.203,88.379,0.000
1606129695.913,-66.406,-40.039,-35.156,-127.441,0.000
1606129695.917,-86.914,-48.828,-39.551,-187.988,0.000
1606129695.921,-26.367,-43.945,-32.227,-11.230,0.000
1606129695.925,35.645,-40.039,-17.090,177.246,0.000
1606129695.929,18.555,-13.672,-19.043,130.859,0.000
1606129695.933,-58.594,-11.230,-27.344,-105.469,0.000
1606129695.937,-82.520,-37.598,-29.297,-201.660,0.000
1606129695.940,-20.020,-33.691,-23.926,-36.621,0.000
1606129695.944,42.480,-24.902,-14.648,161.133,0.000
1606129695.948,25.879,-27.344,-24.902,137.207,0.000
1606129695.952,-49.316,-42.969,-38.086,-89.355,0.000
1606129695.956,-88.867,-42.969,-37.598,-207.520,0.000
1606129695.960,-42.480,-31.250,-33.203,-79.102,0.000
1606129695.964,29.297,-31.250,-29.785,132.812,0.000
1606129695.968,29.297,-41.992,-32.227,148.926,0.000
1606129695.972,-41.016,-49.805,-34.668,-66.895,0.000
1606129695.976,-79.102,-39.062,-26.855,-203.613,0.000
1606129695.980,-43.457,-35.156,-26.367,-106.445,0.000
1606129695.983,22.949,-42.969,-37.598,100.586,0.000
1606129695.987,39.551,-29.297,-36.621,154.785,0.000
1606129695.991,-23.926,-2.930,-37.109,-34.180,0.000
1606129695.995,-82.031,-20.996,-35.156,-207.520,0.000
1606129695.999,-55.664,-36.621,-29.785,-140.625,0.000
1606129696.003,16.602,-32.715,-19.531,87.402,0.000
1606129696.007,35.156,-32.227,-19.531,164.551,0.000
1606129696.011,-22.461,-31.738,-28.320,-8.789,0.000
1606129696.015,-78.125,-36.621,-26.367,-192.383,0.000
1606129696.019,-64.453,-38.086,-26.367,-158.203,0.000
1606129696.022,3.906,-36.133,-30.273,63.477,0.000
1606129696.026,28.809,-31.738,-36.133,167.969,0.000
1606129696.030,-21.484,-17.578,-40.039,20.020,0.000
1606129696.034,-88.379,-25.391,-41.016,-191.895,0.000
1606129696.038,-86.426,-36.621,-40.039,-193.848,0.000
1606129696.042,-15.625,-34.668,-36.133,24.414,0.000
1606129696.046,26.855,-23.926,-28.320,165.039,0.000
1606129696.050,-13.184,-23.926,-23.438,52.734,0.000
1606129696.054,-94.727,-40.039,-33.203,-169.922,0.000
1606129696.058,-103.516,-34.668,-32.715,-202.637,0.000
1606129696.062,-36.621,-29.297,-21.484,-1.465,0.000
1606129696.065,18.555,-37.598,-23.926,160.645,0.000
1606129696.069,0.000,-1.465,-25.391,90.820,0.000
1606129696.073,-78.613,2.930,-35.645,-141.602,0.000
1606129696.077,-94.727,-40.039,-35.645,-215.332,0.000
1606129696.081,-24.414,-41.016,-27.344,-28.320,0.000
1606129696.085,35.156,-35.645,-33.691,150.391,0.000
1606129696.089,15.137,-28.320,-35.156,96.680,0.000
1606129696.093,-60.059,-29.785,-35.156,-135.742,0.000
1606129696.097,-87.891,-28.809,-36.133,-226.562,0.000
1606129696.101,-31.738,-24.414,-27.832,-57.129,0.000
1606129696.105,32.715,-27.832,-24.902,139.160,0.000
1606129696.108,19.531,-28.809,-22.949,123.535,0.000
1606129696.112,-56.152,-23.438,-28.809,-97.656,0.000
1606129696.116,-91.309,-22.949,-31.738,-219.727,0.000
1606129696.120,-49.805,-32.227,-25.879,-90.820,0.000
1606129696.124,15.625,-34.668,-23.926,115.723,0.000
1606129696.128,18.066,-7.812,-28.809,136.230,0.000
1606129696.132,-59.570,-4.395,-28.320,-73.730,0.000
1606129696.136,-107.910,-39.062,-27.832,-226.074,0.000
1606129696.140,-74.707,-46.387,-35.645,-133.789,0.000
1606129696.144,-9.277,-42.480,-24.902,93.262,0.000
1606129696.147,13.184,-40.527,-19.043,165.527,0.000
1606129696.151,-42.480,-40.039,-31.250,-28.809,0.000
1606129696.155,-117.188,-37.598,-38.086,-235.352,0.000
1606129696.159,-102.539,-27.344,-33.691,-180.176,0.000
1606129696.163,-16.113,-23.438,-27.344,62.012,0.000
1606129696.167,13.672,-27.344,-26.855,148.926,0.000
1606129696.171,-61.523,-7.812,-42.480,-38.086,0.000
1606129696.175,-130.371,-25.391,-54.199,-237.305,0.000
1606129696.179,-102.539,-47.363,-45.898,-198.242,0.000
1606129696.183,-15.625,-38.574,-21.973,40.527,0.000
1606129696.187,25.879,-44.922,-29.297,154.785,0.000
1606129696.190,-21.973,-41.016,-43.945,-0.977,0.000
1606129696.194,-88.867,-36.621,-47.363,-207.031,0.000
1606129696.198,-79.590,-33.203,-41.016,-194.336,0.000
1606129696.202,1.953,-22.949,-26.367,30.273,0.000
1606129696.206,48.340,-25.391,-27.832,167.480,0.000
1606129696.210,6.348,-21.484,-31.250,55.176,0.000
1606129696.214,-68.848,-36.621,-36.621,-166.992,0.000
1606129696.218,-74.707,-46.875,-36.621,-198.242,0.000
1606129696.222,-3.906,-37.598,-21.973,12.695,0.000
1606129696.226,49.316,-40.039,-11.230,175.293,0.000
1606129696.230,21.973,-35.156,-19.043,99.609,0.000
1606129696.233,-50.781,-33.203,-28.809,-125.977,0.000
1606129696.237,-68.848,-41.504,-38.574,-196.289,0.000
1606129696.241,-5.859,-27.832,-33.691,-7.812,0.000
1606129696.245,52.246,-18.555,-20.020,173.828,0.000
1606129696.249,27.832,-25.391,-24.414,112.793,0.000
1606129696.253,-55.176,-30.762,-33.691,-126.465,0.000
1606129696.257,-96.191,-36.133,-34.180,-226.074,0.000
1606129696.261,-42.969,-35.156,-26.367,-63.477,0.000
1606129696.265,25.391,-29.785,-19.043,136.719,0.000
1606129696.269,15.625,-18.066,-19.043,114.746,0.000
1606129696.272,-55.176,-15.137,-32.715,-113.281,0.000
1606129696.276,-95.215,-31.250,-41.992,-238.770,0.000
1606129696.280,-49.805,-36.621,-36.621,-107.422,0.000
1606129696.284,18.555,-35.645,-25.391,101.562,0.000
1606129696.288,17.578,-30.762,-26.367,115.234,0.000
1606129696.292,-56.641,-35.645,-32.227,-98.633,0.000
1606129696.296,-112.305,-52.246,-31.738,-251.953,0.000
1606129696.300,-82.520,-41.992,-35.156,-142.578,0.000
1606129696.304,-9.277,-25.879,-39.062,81.055,0.000
1606129696.308,6.836,-14.648,-27.832,126.953,0.000
1606129696.312,-58.105,-17.578,-22.949,-63.477,0.000
1606129696.315,-108.398,-34.180,-29.785,-227.539,0.000
1606129696.319,-79.102,-28.809,-28.320,-151.855,0.000
1606129696.323,-5.859,-26.367,-26.367,78.125,0.000
1606129696.327,14.160,-28.809,-32.715,158.691,0.000
1606129696.331,-53.223,-38.574,-43.457,-19.531,0.000
1606129696.335,-111.816,-46.387,-42.969,-210.938,0.000
1606129696.339,-89.844,-37.598,-37.598,-173.340,0.000
1606129696.343,-11.230,-25.879,-28.809,61.035,0.000
1606129696.347,26.855,-24.902,-26.855,175.781,0.000
1606129696.351,-26.367,-24.414,-42.480,23.438,0.000
1606129696.355,-97.168,-31.250,-39.551,-190.430,0.000
1606129696.358,-87.891,-37.598,-29.785,-190.430,0.000
1606129696.362,-18.066,-39.551,-33.203,23.438,0.000
1606129696.366,12.207,-39.062,-33.691,154.297,0.000
1606129696.370,-28.320,-41.504,-45.898,32.227,0.000
1606129696.374,-96.680,-47.852,-48.828,-190.918,0.000
1606129696.378,-106.445,-47.852,-38.574,-218.262,0.000
1606129696.382,-32.227,-41.016,-30.762,-4.395,0.000
1606129696.386,23.438,-26.855,-24.414,156.250,0.000
1606129696.390,-4.395,-23.926,-21.973,72.266,0.000
1606129696.394,-74.219,-30.762,-33.203,-151.855,0.000
1606129696.397,-88.379,-33.691,-42.480,-210.938,0.000
1606129696.401,-30.762,-38.574,-43.945,-27.832,0.000
1606129696.405,25.391,-37.598,-38.086,149.902,0.000
1606129696.409,9.277,-28.809,-28.809,102.051,0.000
1606129696.413,-64.941,-32.227,-29.785,-125.977,0.000
1606129696.417,-91.797,-41.504,-35.156,-223.633,0.000
1606129696.421,-35.156,-34.668,-30.762,-56.152,0.000
1606129696.425,27.832,-25.391,-17.578,147.949,0.000
1606129696.429,16.602,-26.855,-12.207,127.930,0.000
1606129696.433,-56.641,-32.227,-23.926,-93.750,0.000
1606129696.437,-98.145,-32.227,-34.180,-220.703,0.000
1606129696.440,-57.617,-42.480,-37.109,-101.074,0.000
1606129696.444,21.484,-39.551,-31.250,120.117,0.000
1606129696.448,23.926,-25.391,-35.156,136.719,0.000
1606129696.452,-49.805,-23.438,-39.062,-83.008,0.000
1606129696.456,-87.891,-32.715,-30.273,-219.727,0.000
1606129696.460,-56.152,-41.016,-31.250,-115.234,0.000
1606129696.464,11.230,-34.180,-22.461,108.887,0.000
1606129696.468,19.531,-34.180,-10.742,160.645,0.000
1606129696.472,-45.410,-46.387,-23.438,-42.969,0.000
1606129696.476,-97.656,-48.340,-38.574,-225.098,0.000
1606129696.480,-67.383,-36.133,-32.227,-154.785,0.000
1606129696.483,11.230,-34.180,-24.414,74.219,0.000
1606129696.487,27.344,-29.785,-20.508,149.902,0.000
1606129696.491,-25.391,-19.531,-25.391,-20.020,0.000
1606129696.495,-76.660,-34.668,-34.180,-210.938,0.000
1606129696.499,-61.523,-40.039,-28.320,-180.176,0.000
1606129696.503,16.602,-19.531,-24.414,45.898,0.000
1606129696.507,45.898,-13.184,-23.438,150.391,0.000
1606129696.511,-14.160,-30.762,-25.391,-6.348,0.000
1606129696.515,-86.914,-43.457,-31.738,-213.867,0.000
1606129696.519,-70.312,-31.738,-23.926,-206.543,0.000
1606129696.522,1.953,-20.020,-24.902,9.277,0.000
1606129696.526,37.598,-15.137,-27.344,143.555,0.000
1606129696.530,-4.395,-21.973,-29.785,25.391,0.000
1606129696.534,-78.613,-27.832,-33.691,-196.289,0.000
1606129696.538,-81.055,-24.414,-34.668,-217.773,0.000
1606129696.542,-7.324,-18.066,-35.645,-5.859,0.000
1606129696.546,40.039,-23.438,-29.785,151.367,0.000
1606129696.550,-1.953,-28.320,-29.297,60.059,0.000
1606129696.554,-73.730,-27.832,-29.297,-161.133,0.000
1606129696.558,-86.426,-36.621,-24.902,-212.891,0.000
1606129696.562,-26.855,-35.645,-35.156,-27.832,0.000
1606129696.565,27.344,-25.391,-29.297,149.902,0.000
1606129696.569,8.789,-20.996,-15.625,99.609,0.000
1606129696.573,-60.547,-26.855,-21.484,-128.906,0.000
1606129696.577,-83.496,-33.691,-30.762,-218.750,0.000
1606129696.581,-29.297,-34.668,-26.367,-51.270,0.000
1606129696.585,41.504,-25.391,-10.254,159.180,0.000
1606129696.589,32.715,-10.254,-9.766,140.625,0.000
1606129696.593,-45.410,-16.602,-20.508,-91.309,0.000
1606129696.597,-73.242,-32.227,-23.926,-206.543,0.000
1606129696.601,-24.902,-24.414,-7.812,-69.336,0.000
1606129696.605,36.621,-20.020,-0.977,140.137,0.000
1606129696.608,40.039,-19.531,-18.555,149.414,0.000
1606129696.612,-27.344,-22.949,-20.996,-71.289,0.000
1606129696.616,-68.848,-24.902,-17.578,-218.750,0.000
1606129696.620,-31.738,-20.508,-14.648,-111.816,0.000
1606129696.624,35.156,-20.020,-15.137,108.887,0.000
1606129696.628,42.969,-5.859,-22.949,152.344,0.000
1606129696.632,-24.414,-2.930,-36.133,-39.551,0.000
1606129696.636,-77.637,-25.391,-33.691,-210.449,0.000
1606129696.640,-49.805,-28.809,-27.344,-147.949,0.000
1606129696.644,20.020,-32.715,-33.203,72.266,0.000
1606129696.647,39.551,-17.090,-29.297,144.043,0.000
1606129696.651,-20.508,-2.930,-38.574,-34.668,0.000
1606129696.655,-88.867,-32.715,-45.898,-227.051,0.000
1606129696.659,-77.637,-40.039,-41.504,-193.359,0.000
1606129696.663,-7.324,-37.598,-38.574,35.645,0.000
1606129696.667,21.484,-29.785,-34.668,146.973,0.000
1606129696.671,-27.344,-27.832,-37.598,-4.395,0.000
1606129696.675,-92.285,-39.551,-42.969,-207.520,0.000
1606129696.679,-87.891,-34.180,-34.668,-192.871,0.000
1606129696.683,-10.254,-31.738,-27.344,28.809,0.000
1606129696.687,37.598,-31.738,-25.391,164.062,0.000
1606129696.690,-4.395,-15.137,-26.855,47.852,0.000
1606129696.694,-74.707,-25.391,-33.691,-170.410,0.000
1606129696.698,-77.637,-39.062,-35.156,-200.195,0.000
1606129696.702,-7.812,-31.250,-35.645,1.953,0.000
1606129696.706,37.598,-31.250,-31.738,158.691,0.000
1606129696.710,6.836,-33.203,-25.879,71.777,0.000
1606129696.714,-58.105,-38.086,-32.227,-154.297,0.000
1606129696.718,-70.312,-41.016,-27.832,-209.473,0.000
1606129696.722,-2.441,-25.879,-19.531,-11.230,0.000
1606129696.726,49.805,-30.762,-25.879,166.992,0.000
1606129696.730,16.602,-14.160,-32.715,104.004,0.000
1606129696.733,-58.105,-0.977,-36.133,-123.535,0.000
1606129696.737,-81.543,-34.180,-37.109,-207.520,0.000
1606129696.741,-23.926,-35.645,-31.738,-35.645,0.000
1606129696.745,42.480,-31.738,-19.043,163.086,0.000
1606129696.749,28.809,-35.645,-24.414,141.113,0.000
1606129696.753,-50.781,-39.062,-36.133,-83.984,0.000
1606129696.757,-85.938,-41.992,-30.762,-199.219,0.000
1606129696.761,-32.715,-37.598,-17.578,-55.664,0.000
1606129696.765,37.598,-32.715,-14.648,152.832,0.000
1606129696.769,42.969,-29.785,-19.043,160.156,0.000
1606129696.772,-26.855,-32.227,-35.156,-57.617,0.000
1606129696.776,-80.566,-41.992,-42.480,-209.473,0.000
1606129696.780,-41.016,-34.180,-26.855,-100.098,0.000
1606129696.784,38.574,-23.926,-23.926,124.023,0.000
1606129696.788,44.434,-15.625,-29.785,162.109,0.000
1606129696.792,-30.762,-16.113,-31.738,-40.527,0.000
1606129696.796,-89.844,-39.062,-38.086,-205.566,0.000
1606129696.800,-69.336,-40.527,-39.062,-135.254,0.000
1606129696.804,0.000,-30.273,-28.809,88.867,0.000
1606129696.808,21.484,-21.484,-21.484,173.828,0.000
1606129696.812,-39.551,-24.414,-32.715,-5.371,0.000
1606129696.815,-107.422,-38.086,-48.340,-206.055,0.000
1606129696.819,-82.520,-33.691,-43.945,-161.133,0.000
1606129696.823,1.465,-29.297,-35.156,70.801,0.000
1606129696.827,34.668,-24.902,-24.902,171.875,0.000
1606129696.831,-16.113,-7.324,-31.738,16.602,0.000
1606129696.835,-86.914,-13.672,-39.551,-190.430,0.000
1606129696.839,-85.938,-27.344,-36.621,-189.453,0.000
1606129696.843,-12.207,-29.297,-28.809,24.902,0.000
1606129696.847,30.762,-22.461,-18.555,152.344,0.000
1606129696.851,-6.348,-16.602,-14.160,39.062,0.000
1606129696.855,-78.613,-27.832,-31.738,-176.758,0.000
1606129696.858,-82.520,-36.133,-45.410,-201.172,0.000
1606129696.862,-6.836,-33.203,-30.762,15.625,0.000
1606129696.866,32.227,-29.785,-23.926,165.527,0.000
1606129696.870,-6.348,-23.926,-30.273,71.777,0.000
1606129696.874,-79.590,-31.250,-39.551,-159.180,0.000
1606129696.878,-102.539,-41.992,-38.574,-219.727,0.000
1606129696.882,-39.062,-39.062,-26.367,-25.391,0.000
1606129696.886,24.902,-32.227,-13.672,157.227,0.000
1606129696.890,5.859,-28.320,-18.555,101.074,0.000
1606129696.894,-76.660,-37.109,-40.039,-141.602,0.000
1606129696.897,-104.980,-38.574,-41.016,-227.539,0.000
1606129696.901,-52.246,-39.551,-30.762,-62.988,0.000
1606129696.905,8.301,-38.086,-38.086,121.582,0.000
1606129696.909,4.395,-30.762,-38.574,101.562,0.000
1606129696.913,-67.383,-37.109,-38.574,-120.605,0.000
1606129696.917,-110.352,-49.316,-41.992,-243.652,0.000
1606129696.921,-65.918,-47.363,-36.621,-106.934,0.000
1606129696.925,8.789,-41.504,-28.809,113.770,0.000
1606129696.929,11.719,-27.344,-24.414,135.742,0.000
1606129696.933,-67.383,-16.602,-33.691,-78.613,0.000
1606129696.937,-113.281,-30.762,-34.180,-222.168,0.000
1606129696.940,-77.148,-42.969,-35.645,-119.141,0.000
1606129696.944,-1.465,-37.598,-19.043,104.492,0.000
1606129696.948,19.531,-32.227,-7.812,157.715,0.000
1606129696.952,-43.457,-39.551,-30.273,-41.016,0.000
1606129696.956,-89.355,-37.598,-31.738,-203.613,0.000
1606129696.960,-58.594,-31.738,-23.438,-126.953,0.000
1606129696.964,18.555,-34.180,-15.625,97.168,0.000
1606129696.968,42.480,-32.227,-15.625,166.504,0.000
1606129696.972,-16.113,-32.715,-23.438,-11.230,0.000
1606129696.976,-74.219,-43.945,-28.809,-192.383,0.000
1606129696.980,-59.082,-39.551,-20.996,-146.973,0.000
1606129696.983,12.695,-26.855,-20.020,78.125,0.000
1606129696.987,38.574,-23.926,-30.762,173.340,0.000
1606129696.991,-10.254,-31.250,-33.203,19.043,0.000
1606129696.995,-76.172,-40.527,-29.785,-181.152,0.000
1606129696.999,-83.008,-44.434,-31.250,-185.547,0.000
1606129697.003,-15.625,-35.156,-26.367,27.832,0.000
1606129697.007,27.344,-27.832,-19.531,166.504,0.000
1606129697.011,-21.973,-21.484,-31.738,37.598,0.000
1606129697.015,-101.074,-30.273,-33.691,-185.547,0.000
1606129697.019,-107.422,-41.016,-30.762,-208.496,0.000
1606129697.022,-40.039,-34.180,-32.227,-3.418,0.000
1606129697.026,6.348,-29.785,-16.602,149.414,0.000
1606129697.030,-30.273,-31.250,-28.320,54.688,0.000
1606129697.034,-108.398,-43.457,-52.734,-175.293,0.000
1606129697.038,-116.699,-41.992,-41.504,-231.445,0.000
1606129697.042,-46.387,-38.574,-33.691,-37.598,0.000
1606129697.046,13.184,-36.133,-28.809,145.020,0.000
1606129697.050,-1.465,-32.227,-25.391,89.355,0.000
1606129697.054,-62.012,-32.227,-23.926,-132.812,0.000
1606129697.058,-89.844,-39.551,-28.320,-222.656,0.000
1606129697.062,-44.434,-39.551,-30.273,-64.453,0.000
1606129697.065,20.508,-29.785,-25.391,135.742,0.000
1606129697.069,15.137,-20.996,-22.949,115.723,0.000
1606129697.073,-59.082,-33.203,-26.367,-116.211,0.000
1606129697.077,-100.586,-54.199,-42.480,-237.793,0.000
1606129697.081,-51.270,-45.898,-45.898,-91.797,0.000
1606129697.085,23.438,-30.762,-32.227,124.023,0.000
1606129697.089,21.973,-29.297,-26.367,129.395,0.000
1606129697.093,-54.688,-39.551,-33.691,-89.844,0.000
1606129697.097,-100.586,-35.156,-33.203,-231.445,0.000
1606129697.101,-61.523,-24.414,-29.785,-118.652,0.000
1606129697.105,6.836,-24.902,-28.320,98.145,0.000
1606129697.108,11.719,-26.367,-30.273,128.906,0.000
1606129697.112,-55.664,-37.109,-28.320,-67.383,0.000
1606129697.116,-99.609,-43.457,-27.344,-220.703,0.000
1606129697.120,-75.195,-42.969,-33.691,-144.531,0.000
1606129697.124,-3.906,-38.086,-27.344,78.125,0.000
1606129697.128,14.648,-36.133,-28.809,144.043,0.000
1606129697.132,-49.805,-39.062,-35.156,-32.715,0.000
1606129697.136,-104.004,-40.039,-34.180,-212.891,0.000
1606129697.140,-85.938,-38.574,-33.691,-169.922,0.000
1606129697.144,-7.812,-31.250,-29.297,57.617,0.000
1606129697.147,18.066,-26.855,-30.762,153.320,0.000
1606129697.151,-38.574,-32.227,-40.527,-11.719,0.000
1606129697.155,-106.934,-43.945,-37.109,-215.332,0.000
1606129697.159,-98.633,-45.898,-30.762,-201.660,0.000
1606129697.163,-15.137,-34.180,-28.809,22.949,0.000
1606129697.167,26.367,-23.438,-28.320,153.320,0.000
1606129697.171,-17.578,-25.879,-40.527,30.273,0.000
1606129697.175,-90.332,-44.922,-45.410,-182.129,0.000
1606129697.179,-101.562,-53.223,-39.062,-213.379,0.000
1606129697.183,-24.414,-42.969,-30.273,-6.348,0.000
1606129697.187,22.949,-34.180,-27.832,147.461,0.000
1606129697.190,-20.508,-37.109,-25.879,50.781,0.000
1606129697.194,-92.285,-45.898,-37.598,-173.340,0.000
1606129697.198,-109.375,-49.805,-45.410,-236.328,0.000
1606129697.202,-42.480,-41.504,-36.621,-46.875,0.000
1606129697.206,15.625,-30.273,-35.645,131.348,0.000
1606129697.210,-9.277,-19.043,-41.016,69.824,0.000
1606129697.214,-86.914,-35.156,-49.316,-163.574,0.000
1606129697.218,-110.840,-59.082,-50.781,-251.465,0.000
1606129697.222,-49.805,-46.387,-42.480,-75.684,0.000
1606129697.226,14.648,-27.832,-28.809,130.371,0.000
1606129697.230,3.906,-24.902,-28.320,104.980,0.000
1606129697.233,-66.406,-39.551,-40.527,-128.418,0.000
1606129697.237,-101.562,-38.086,-42.969,-242.676,0.000
1606129697.241,-53.711,-25.879,-39.551,-98.633,0.000
1606129697.245,12.207,-31.738,-36.133,104.004,0.000
1606129697.249,16.113,-20.508,-29.785,115.234,0.000
1606129697.253,-57.617,-21.484,-34.668,-96.680,0.000
1606129697.257,-108.887,-45.898,-46.387,-243.164,0.000
1606129697.261,-64.453,-38.574,-47.852,-130.859,0.000
1606129697.265,19.531,-24.902,-30.762,103.027,0.000
1606129697.269,39.062,-17.578,-12.207,150.879,0.000
1606129697.272,-26.855,-19.531,-27.344,-51.758,0.000
1606129697.276,-82.031,-30.762,-42.969,-213.379,0.000
1606129697.280,-54.199,-28.320,-33.691,-136.719,0.000
1606129697.284,22.461,-17.090,-22.949,91.309,0.000
1606129697.288,37.109,-10.742,-31.250,158.691,0.000
1606129697.292,-34.180,-3.906,-41.992,-33.691,0.000
1606129697.296,-97.168,-26.367,-41.992,-221.191,0.000
1606129697.300,-75.684,-35.156,-36.621,-171.387,0.000
1606129697.304,3.906,-23.438,-26.855,62.500,0.000
1606129697.308,34.180,-20.508,-29.297,160.645,0.000
1606129697.312,-14.648,-21.973,-27.344,1.465,0.000
1606129697.315,-75.684,-30.273,-28.320,-192.871,0.000
1606129697.319,-67.871,-25.879,-36.133,-177.734,0.000
1606129697.323,7.324,-21.973,-32.227,42.969,0.000
1606129697.327,41.504,-27.344,-29.785,168.945,0.000
1606129697.331,-3.906,-29.297,-29.785,42.969,0.000
1606129697.335,-68.848,-31.250,-27.832,-168.457,0.000
1606129697.339,-76.660,-32.715,-22.461,-191.895,0.000
1606129697.343,-10.254,-30.273,-14.648,21.484,0.000
1606129697.347,38.574,-10.742,-12.695,171.387,0.000
1606129697.351,7.324,12.207,-20.996,71.289,0.000
1606129697.355,-63.965,-12.695,-27.344,-150.879,0.000
1606129697.358,-80.078,-35.156,-28.320,-207.520,0.000
1606129697.362,-11.230,-28.320,-22.461,-18.555,0.000
1606129697.366,46.875,-20.996,-19.043,157.227,0.000
1606129697.370,23.438,-19.531,-21.484,96.680,0.000
1606129697.374,-51.758,-29.297,-18.555,-133.301,0.000
1606129697.378,-74.707,-33.203,-22.949,-221.680,0.000
1606129697.382,-15.625,-25.391,-26.367,-45.410,0.000
1606129697.386,42.480,-21.973,-23.926,158.203,0.000
1606129697.390,22.949,10.254,-22.949,126.465,0.000
1606129697.394,-65.918,13.672,-27.832,-107.910,0.000
1606129697.397,-111.328,-36.133,-31.250,-229.980,0.000
1606129697.401,-61.523,-39.062,-26.855,-81.543,0.000
1606129697.405,5.859,-29.297,-16.602,129.883,0.000
1606129697.409,-5.859,-32.227,-22.949,121.582,0.000
1606129697.413,-87.402,-41.992,-37.109,-107.422,0.000
1606129697.417,-127.441,-45.410,-37.109,-248.535,0.000
1606129697.421,-82.031,-39.062,-28.320,-126.465,0.000
1606129697.425,-14.160,-41.016,-25.391,93.750,0.000
1606129697.429,-2.441,-15.137,-31.738,130.371,0.000
1606129697.433,-58.594,-7.324,-35.156,-69.336,0.000
1606129697.437,-101.074,-43.945,-40.039,-233.887,0.000
1606129697.440,-67.383,-44.922,-36.621,-147.949,0.000
1606129697.444,8.301,-33.691,-28.809,81.055,0.000
1606129697.448,31.738,-29.297,-24.902,148.438,0.000
1606129697.452,-21.484,-36.621,-28.320,-25.879,0.000
1606129697.456,-79.590,-38.086,-35.156,-208.008,0.000
1606129697.460,-62.988,-37.598,-33.691,-162.109,0.000
1606129697.464,18.555,-35.156,-23.926,67.871,0.000
1606129697.468,46.387,-23.926,-18.555,168.457,0.000
1606129697.472,-16.113,-28.320,-30.762,8.789,0.000
1606129697.476,-85.449,-37.598,-36.621,-194.336,0.000
1606129697.480,-81.543,-41.016,-28.809,-181.641,0.000
1606129697.483,-5.371,-33.691,-15.625,38.574,0.000
1606129697.487,36.133,-9.766,-12.695,168.945,0.000
1606129697.491,-11.230,17.578,-19.043,47.363,0.000
1606129697.495,-82.520,-11.719,-26.855,-165.527,0.000
1606129697.499,-88.867,-39.551,-28.320,-183.594,0.000
1606129697.503,-22.949,-35.156,-27.344,25.879,0.000
1606129697.507,24.414,-34.180,-24.414,176.270,0.000
1606129697.511,-14.160,-32.715,-19.043,78.125,0.000
1606129697.515,-94.238,-37.598,-23.438,-152.832,0.000
1606129697.519,-106.934,-37.598,-30.762,-202.637,0.000
1606129697.522,-33.691,-31.738,-25.391,-0.977,0.000
1606129697.526,23.926,-26.367,-20.996,172.852,0.000
1606129697.530,-0.488,-12.207,-27.344,102.539,0.000
1606129697.534,-74.707,-23.926,-23.926,-130.371,0.000
1606129697.538,-94.238,-31.250,-20.020,-206.543,0.000
1606129697.542,-31.738,-18.555,-23.926,-35.645,0.000
1606129697.546,21.484,-15.625,-20.996,148.438,0.000
1606129697.550,1.465,-24.414,-23.926,110.840,0.000
1606129697.554,-67.383,-34.668,-29.297,-119.629,0.000
1606129697.558,-97.656,-39.551,-32.715,-232.422,0.000
1606129697.562,-55.664,-38.574,-36.133,-89.355,0.000
1606129697.565,12.207,-33.691,-28.320,120.117,0.000
1606129697.569,17.090,-16.113,-22.461,124.023,0.000
1606129697.573,-59.570,-14.648,-33.691,-103.027,0.000
1606129697.577,-107.422,-49.316,-45.410,-252.441,0.000
1606129697.581,-66.406,-49.805,-37.109,-135.254,0.000
1606129697.585,7.812,-32.227,-25.391,90.332,0.000
1606129697.589,12.207,-30.273,-30.762,122.070,0.000
1606129697.593,-58.105,-39.062,-38.574,-78.125,0.000
1606129697.597,-106.934,-47.852,-42.480,-234.863,0.000
1606129697.601,-74.707,-48.340,-39.062,-144.043,0.000
1606129697.605,8.301,-40.527,-35.645,85.938,0.000
1606129697.608,35.645,-28.809,-33.203,152.832,0.000
1606129697.612,-22.461,-27.344,-33.203,-24.414,0.000
1606129697.616,-88.379,-42.480,-42.969,-216.797,0.000
1606129697.620,-68.359,-43.457,-42.969,-175.781,0.000
1606129697.624,14.160,-33.691,-21.973,67.871,0.000
1606129697.628,32.227,-24.414,-22.461,166.992,0.000
1606129697.632,-30.762,-26.367,-42.480,0.977,0.000
1606129697.636,-90.820,-41.504,-40.039,-190.918,0.000
1606129697.640,-85.449,-46.875,-34.180,-169.922,0.000
1606129697.644,-12.695,-45.898,-29.785,51.758,0.000
1606129697.647,34.668,-38.574,-17.578,176.758,0.000
1606129697.651,-7.812,-40.527,-24.414,47.363,0.000
1606129697.655,-80.078,-50.781,-43.457,-169.922,0.000
1606129697.659,-80.078,-42.969,-32.227,-190.430,0.000
1606129697.663,-5.371,-31.250,-12.695,25.391,0.000
1606129697.667,41.504,-25.879,-25.879,172.363,0.000
1606129697.671,5.371,25.879,-36.621,72.266,0.000
1606129697.675,-72.754,15.137,-38.574,-156.250,0.000
1606129697.679,-87.402,-41.016,-41.016,-207.031,0.000
1606129697.683,-9.766,-34.668,-20.996,1.465,0.000
1606129697.687,51.270,-29.785,-9.277,178.711,0.000
1606129697.690,21.484,-34.668,-21.973,104.004,0.000
1606129697.694,-55.176,-38.574,-26.855,-123.535,0.000
1606129697.698,-79.102,-34.180,-22.949,-203.125,0.000
1606129697.702,-24.902,-27.832,-17.578,-35.156,0.000
1606129697.706,37.109,-15.625,-16.602,160.156,0.000
1606129697.710,20.996,11.230,-24.902,125.488,0.000
1606129697.714,-63.965,-7.812,-29.297,-109.863,0.000
1606129697.718,-97.656,-40.527,-23.438,-215.820,0.000
1606129697.722,-44.922,-34.668,-23.438,-66.406,0.000
1606129697.726,20.996,-34.668,-28.320,145.996,0.000
1606129697.730,27.344,-37.598,-29.297,150.879,0.000
1606129697.733,-40.039,-43.457,-26.855,-78.613,0.000
1606129697.737,-94.238,-50.781,-31.738,-225.586,0.000
1606129697.741,-57.617,-38.574,-31.250,-105.469,0.000
1606129697.745,16.113,-30.762,-18.555,113.770,0.000
1606129697.749,21.973,-38.574,-10.254,142.578,0.000
1606129697.753,-45.410,-38.086,-17.090,-55.664,0.000
1606129697.757,-95.703,-37.109,-23.926,-211.426,0.000
1606129697.761,-67.383,-36.133,-24.902,-131.836,0.000
1606129697.765,9.766,-34.180,-22.461,84.473,0.000
1606129697.769,28.809,-22.949,-16.602,147.949,0.000
1606129697.772,-45.410,-22.949,-29.785,-34.180,0.000
1606129697.776,-109.375,-50.781,-41.992,-216.797,0.000
1606129697.780,-83.008,-47.852,-27.832,-159.180,0.000
1606129697.784,-8.789,-34.180,-19.531,69.824,0.000
1606129697.788,18.066,-29.785,-28.320,163.086,0.000
1606129697.792,-38.574,-37.598,-35.156,-3.906,0.000
1606129697.796,-101.562,-52.246,-40.527,-207.520,0.000
1606129697.800,-83.984,-41.016,-40.527,-187.500,0.000
1606129697.804,2.441,-27.832,-36.621,40.527,0.000
1606129697.808,38.574,-34.180,-29.785,157.715,0.000
1606129697.812,-14.648,-33.203,-40.527,17.578,0.000
1606129697.815,-71.289,-34.180,-46.387,-193.848,0.000
1606129697.819,-65.918,-33.691,-36.133,-204.102,0.000
1606129697.823,8.789,-24.902,-26.855,18.066,0.000
1606129697.827,66.406,-18.066,-16.602,173.340,0.000
1606129697.831,27.344,-26.367,-26.367,63.965,0.000
1606129697.835,-48.828,-30.273,-39.551,-164.062,0.000
1606129697.839,-62.988,-19.043,-41.016,-207.031,0.000
1606129697.843,-6.836,-20.020,-38.086,-11.719,0.000
1606129697.847,43.457,-17.090,-38.574,154.785,0.000
1606129697.851,19.531,-14.160,-33.203,91.797,0.000
1606129697.855,-61.523,-33.691,-31.738,-139.160,0.000
1606129697.858,-86.426,-44.922,-43.457,-223.145,0.000
1606129697.862,-29.297,-41.504,-41.016,-55.176,0.000
1606129697.866,26.367,-31.738,-29.785,141.602,0.000
1606129697.870,16.602,-21.973,-17.090,122.070,0.000
1606129697.874,-64.941,-30.273,-17.578,-109.375,0.000
1606129697.878,-102.539,-37.109,-36.621,-222.168,0.000
1606129697.882,-54.199,-38.086,-34.668,-68.359,0.000
1606129697.886,10.254,-40.039,-24.414,137.207,0.000
1606129697.890,10.742,-28.809,-21.973,134.766,0.000
1606129697.894,-67.383,-35.156,-26.855,-89.355,0.000
1606129697.897,-112.305,-43.945,-30.273,-224.121,0.000
1606129697.901,-65.430,-38.574,-18.555,-101.562,0.000
1606129697.905,11.230,-44.922,-4.395,118.164,0.000
1606129697.909,20.020,-21.973,-7.812,158.203,0.000
1606129697.913,-48.828,-9.277,-25.879,-46.387,0.000
1606129697.917,-103.027,-39.062,-33.691,-216.309,0.000
1606129697.921,-74.707,-42.480,-29.297,-132.812,0.000
1606129697.925,2.441,-35.645,-29.785,95.215,0.000
1606129697.929,20.508,-31.250,-29.297,157.715,0.000
1606129697.933,-42.969,-41.992,-27.344,-32.715,0.000
1606129697.937,-94.238,-45.898,-29.297,-208.008,0.000
1606129697.940,-67.871,-31.250,-22.949,-144.531,0.000
1606129697.944,9.766,-26.367,-15.137,85.449,0.000
1606129697.948,40.039,-12.695,-12.695,167.480,0.000
1606129697.952,-21.484,-8.301,-13.672,-15.137,0.000
1606129697.956,-92.773,-35.645,-32.715,-217.285,0.000
1606129697.960,-90.332,-49.316,-43.457,-188.965,0.000
1606129697.964,-15.625,-44.434,-30.273,38.574,0.000
1606129697.968,20.020,-33.691,-26.855,153.320,0.000
1606129697.972,-31.738,-36.133,-35.645,15.137,0.000
1606129697.976,-97.656,-37.598,-38.086,-192.871,0.000
1606129697.980,-99.121,-30.762,-39.551,-199.219,0.000
1606129697.983,-22.949,-29.297,-33.203,20.508,0.000
1606129697.987,27.344,-8.789,-25.391,166.504,0.000
1606129697.991,-13.184,-1.465,-36.621,49.805,0.000
1606129697.995,-87.891,-37.598,-49.316,-163.086,0.000
1606129697.999,-104.980,-47.852,-52.246,-210.938,0.000
1606129698.003,-40.039,-37.598,-48.340,-25.391,0.000
1606129698.007,18.555,-24.902,-37.598,167.969,0.000
1606129698.011,-10.742,-21.484,-31.738,95.215,0.000
1606129698.015,-85.938,-34.180,-29.785,-139.648,0.000
1606129698.019,-103.027,-35.645,-32.227,-204.590,0.000
1606129698.022,-36.133,-29.785,-26.855,-30.762,0.000
1606129698.026,30.273,-20.508,-25.879,160.645,0.000
1606129698.030,18.066,-15.137,-21.973,133.789,0.000
1606129698.034,-58.594,-27.344,-24.902,-95.215,0.000
1606129698.038,-95.215,-33.203,-36.621,-201.172,0.000
1606129698.042,-41.992,-30.762,-40.039,-56.152,0.000
1606129698.046,28.809,-25.879,-33.203,132.324,0.000
1606129698.050,31.738,-9.277,-20.508,117.676,0.000
1606129698.054,-32.715,-12.695,-23.438,-88.867,0.000
1606129698.058,-72.754,-25.391,-37.109,-216.797,0.000
1606129698.062,-28.320,-18.066,-39.551,-103.516,0.000
1606129698.065,39.062,-18.066,-34.180,111.816,0.000
1606129698.069,41.504,-12.207,-30.273,148.438,0.000
1606129698.073,-20.020,-13.184,-25.879,-48.828,0.000
1606129698.077,-71.289,-24.902,-28.809,-211.426,0.000
1606129698.081,-43.457,-22.461,-29.297,-123.047,0.000
1606129698.085,28.809,-26.367,-19.531,104.492,0.000
1606129698.089,45.410,-18.555,-12.695,162.598,0.000
1606129698.093,-15.137,-16.602,-12.695,-21.484,0.000
1606129698.097,-75.195,-30.762,-17.090,-196.777,0.000
1606129698.101,-54.688,-35.645,-22.949,-141.113,0.000
1606129698.105,20.996,-34.180,-19.043,91.797,0.000
1606129698.108,42.480,-11.719,-23.438,178.223,0.000
1606129698.112,-13.672,-10.742,-26.367,13.184,0.000
1606129698.116,-73.242,-35.645,-25.391,-176.758,0.000
1606129698.120,-70.801,-34.180,-14.648,-157.227,0.000
1606129698.124,-2.930,-30.762,2.930,65.918,0.000
1606129698.128,35.156,-8.301,-11.230,185.059,0.000
1606129698.132,-19.531,-4.883,-27.832,39.062,0.000
1606129698.136,-92.285,-39.062,-33.203,-182.617,0.000
1606129698.140,-89.355,-40.527,-31.250,-196.289,0.000
1606129698.144,-19.043,-34.180,-14.648,17.578,0.000
1606129698.147,27.832,-17.090,-10.254,162.109,0.000
1606129698.151,-15.625,21.484,-24.902,47.363,0.000
1606129698.155,-94.238,-10.742,-34.668,-182.129,0.000
1606129698.159,-94.727,-47.363,-29.297,-219.238,0.000
1606129698.163,-24.902,-32.715,-30.273,-14.160,0.000
1606129698.167,25.391,-33.203,-37.109,148.926,0.000
1606129698.171,1.953,-35.645,-32.227,78.125,0.000
1606129698.175,-69.336,-34.180,-32.715,-140.137,0.000
1606129698.179,-92.285,-41.504,-32.227,-213.379,0.000
1606129698.183,-35.645,-42.969,-20.996,-34.668,0.000
1606129698.187,31.738,-35.156,-9.766,156.738,0.000
1606129698.190,17.578,-19.531,-14.648,118.164,0.000
1606129698.194,-59.570,-27.832,-22.461,-107.910,0.000
1606129698.198,-89.844,-42.969,-34.180,-208.984,0.000
1606129698.202,-32.715,-31.738,-33.691,-49.316,0.000
1606129698.206,34.180,-27.832,-20.020,152.832,0.000
1606129698.210,23.926,-32.715,-22.461,141.602,0.000
1606129698.214,-49.805,-36.621,-31.250,-75.684,0.000
1606129698.218,-94.238,-43.945,-30.762,-209.961,0.000
1606129698.222,-48.340,-34.180,-13.184,-83.008,0.000
1606129698.226,26.855,-29.785,-5.371,142.090,0.000
1606129698.230,26.855,10.254,-21.484,158.203,0.000
1606129698.233,-43.457,27.832,-24.902,-57.617,0.000
1606129698.237,-100.098,-32.227,-32.715,-212.891,0.000
1606129698.241,-69.824,-40.039,-43.457,-121.094,0.000
1606129698.245,10.742,-25.879,-35.156,98.633,0.000
1606129698.249,21.484,-28.320,-33.203,146.484,0.000
1606129698.253,-39.551,-39.551,-41.016,-43.945,0.000
1606129698.257,-84.473,-41.992,-39.551,-214.355,0.000
1606129698.261,-57.617,-32.715,-24.414,-146.484,0.000
1606129698.265,19.043,-25.391,-12.695,78.125,0.000
1606129698.269,44.922,-23.926,-21.973,159.668,0.000
1606129698.272,-11.719,-30.273,-32.715,-6.836,0.000
1606129698.276,-80.566,-42.969,-42.480,-216.797,0.000
1606129698.280,-67.383,-37.109,-41.504,-196.289,0.000
1606129698.284,13.184,-31.738,-34.668,36.621,0.000
1606129698.288,50.781,-12.695,-33.691,165.039,0.000
1606129698.292,2.441,-11.230,-36.133,34.180,0.000
1606129698.296,-76.172,-38.574,-31.738,-175.781,0.000
1606129698.300,-82.520,-40.527,-24.414,-182.617,0.000
1606129698.304,-12.695,-29.785,-31.738,34.668,0.000
1606129698.308,28.320,-25.391,-32.227,172.852,0.000
1606129698.312,-9.277,-32.227,-27.344,58.105,0.000
1606129698.315,-79.102,-38.086,-29.785,-159.180,0.000
1606129698.319,-91.797,-33.691,-32.227,-198.242,0.000
1606129698.323,-20.020,-30.762,-26.367,-3.418,0.000
1606129698.327,34.180,-33.203,-17.090,155.762,0.000
1606129698.331,4.883,-15.137,-22.461,77.637,0.000
1606129698.335,-70.801,-19.043,-35.645,-150.391,0.000
1606129698.339,-87.891,-35.156,-34.180,-216.797,0.000
1606129698.343,-26.367,-33.691,-22.949,-36.133,0.000
1606129698.347,30.273,-27.344,-16.113,143.066,0.000
1606129698.351,9.766,-25.391,-22.461,97.168,0.000
1606129698.355,-67.383,-38.086,-33.691,-127.930,0.000
1606129698.358,-90.820,-39.551,-38.086,-226.562,0.000
1606129698.362,-32.227,-31.250,-29.785,-66.406,0.000
1606129698.366,37.109,-24.902,-19.043,144.043,0.000
1606129698.370,29.785,-16.113,-19.043,129.883,0.000
1606129698.374,-51.270,-26.367,-29.297,-96.191,0.000
1606129698.378,-92.285,-41.992,-38.086,-225.098,0.000
1606129698.382,-44.434,-34.668,-32.227,-92.285,0.000
1606129698.386,24.414,-30.273,-26.855,121.094,0.000
1606129698.390,22.949,-30.273,-35.645,138.672,0.000
1606129698.394,-51.270,-39.062,-43.945,-74.707,0.000
1606129698.397,-99.121,-43.457,-43.945,-224.609,0.000
1606129698.401,-62.988,-41.992,-33.203,-123.535,0.000
1606129698.405,14.648,-34.668,-29.297,102.051,0.000
1606129698.409,35.156,-25.879,-22.461,158.691,0.000
1606129698.413,-27.832,-25.391,-20.996,-29.785,0.000
1606129698.417,-82.031,-29.785,-32.715,-197.754,0.000
1606129698.421,-57.129,-33.203,-27.832,-137.207,0.000
1606129698.425,12.207,-34.668,-21.484,81.543,0.000
1606129698.429,38.574,-11.230,-26.367,162.109,0.000
1606129698.433,-10.254,6.348,-27.344,0.977,0.000
1606129698.437,-77.637,-26.367,-31.250,-197.266,0.000
1606129698.440,-70.801,-36.133,-33.691,-173.828,0.000
1606129698.444,8.789,-21.973,-24.902,57.617,0.000
1606129698.448,48.340,-20.020,-23.438,171.875,0.000
1606129698.452,3.418,-26.855,-22.949,37.109,0.000
1606129698.456,-67.383,-28.320,-18.555,-178.223,0.000
1606129698.460,-73.242,-29.297,-26.367,-187.988,0.000
1606129698.464,-4.395,-30.273,-29.785,24.414,0.000
1606129698.468,36.621,-20.508,-29.297,152.344,0.000
1606129698.472,-8.301,-27.344,-48.828,32.227,0.000
1606129698.476,-83.496,-41.016,-52.246,-187.500,0.000
1606129698.480,-95.703,-32.227,-38.086,-216.797,0.000
1606129698.483,-26.855,-25.391,-30.273,-17.578,0.000
1606129698.487,31.738,-31.250,-28.320,141.113,0.000
1606129698.491,6.836,-27.344,-26.367,65.430,0.000
1606129698.495,-64.941,-29.297,-31.250,-156.738,0.000
1606129698.499,-84.473,-38.086,-35.645,-224.121,0.000
1606129698.503,-17.578,-29.297,-31.250,-41.016,0.000
1606129698.507,50.781,-18.555,-34.180,150.879,0.000
1606129698.511,37.109,-7.324,-43.945,114.258,0.000
1606129698.515,-42.480,-18.066,-39.551,-103.516,0.000
1606129698.519,-82.520,-40.039,-28.320,-195.801,0.000
1606129698.522,-28.809,-34.668,-20.020,-49.316,0.000
1606129698.526,39.551,-21.484,-12.695,142.090,0.000
1606129698.530,29.785,-16.602,-17.578,125.000,0.000
1606129698.534,-49.805,-30.762,-27.344,-102.051,0.000
1606129698.538,-95.215,-39.062,-31.250,-220.703,0.000
1606129698.542,-57.617,-32.715,-31.738,-92.285,0.000
1606129698.546,12.695,-32.227,-32.227,113.770,0.000
1606129698.550,20.508,-29.785,-22.949,143.555,0.000
1606129698.554,-50.293,-36.621,-23.438,-65.918,0.000
1606129698.558,-103.516,-45.898,-40.527,-227.539,0.000
1606129698.562,-66.895,-39.062,-30.762,-127.930,0.000
1606129698.565,8.301,-35.645,-11.719,91.797,0.000
1606129698.569,19.043,-20.508,-18.066,141.113,0.000
1606129698.573,-42.480,-19.043,-27.344,-45.898,0.000
1606129698.577,-95.215,-35.156,-31.250,-212.891,0.000
1606129698.581,-75.195,-31.250,-39.062,-152.344,0.000
1606129698.585,-4.883,-29.785,-31.250,71.289,0.000
1606129698.589,24.414,-21.973,-25.879,157.227,0.000
1606129698.593,-27.832,-15.625,-31.250,-8.301,0.000
1606129698.597,-86.914,-21.484,-37.598,-181.152,0.000
1606129698.601,-71.777,-14.648,-37.109,-146.484,0.000
1606129698.605,1.465,-20.020,-25.391,54.688,0.000
1606129698.608,30.273,-9.277,-23.438,155.762,0.000
1606129698.612,-25.879,16.113,-33.691,11.230,0.000
1606129698.616,-91.309,-17.578,-27.344,-190.918,0.000
1606129698.620,-93.750,-41.504,-29.297,-202.637,0.000
1606129698.624,-28.320,-34.180,-37.598,8.789,0.000
1606129698.628,15.625,-37.109,-35.156,140.625,0.000
1606129698.632,-18.555,-35.156,-43.945,29.785,0.000
1606129698.636,-88.867,-33.691,-59.082,-177.246,0.000
1606129698.640,-103.516,-48.828,-58.105,-219.238,0.000
1606129698.644,-31.738,-46.387,-40.039,-20.508,0.000
1606129698.647,24.414,-26.855,-28.320,140.137,0.000
1606129698.651,-9.277,-21.484,-31.738,60.547,0.000
1606129698.655,-86.426,-46.387,-44.434,-152.344,0.000
1606129698.659,-104.980,-54.688,-48.340,-210.449,0.000
1606129698.663,-38.574,-40.527,-33.203,-18.555,0.000
1606129698.667,21.973,-33.691,-21.484,162.109,0.000
1606129698.671,0.488,-41.504,-29.297,101.562,0.000
1606129698.675,-72.754,-50.293,-33.691,-118.652,0.000
1606129698.679,-101.074,-45.410,-31.738,-205.566,0.000
1606129698.683,-48.340,-42.480,-31.250,-52.734,0.000
1606129698.687,16.602,-34.668,-26.855,142.090,0.000
1606129698.690,6.348,-25.879,-29.785,129.883,0.000
1606129698.694,-73.730,-34.668,-41.992,-91.309,0.000
1606129698.698,-103.516,-33.691,-29.297,-211.426,0.000
1606129698.702,-53.223,-26.367,-25.391,-82.520,0.000
1606129698.706,13.672,-37.109,-26.367,119.629,0.000
1606129698.710,22.949,1.465,-14.160,143.066,0.000
1606129698.714,-46.875,4.883,-13.184,-58.105,0.000
1606129698.718,-92.773,-48.828,-12.207,-208.008,0.000
1606129698.722,-62.500,-47.852,-24.902,-118.164,0.000
1606129698.726,8.789,-34.668,-30.273,104.492,0.000
1606129698.730,25.879,-31.738,-22.949,158.691,0.000
1606129698.733,-36.621,-41.504,-23.438,-39.062,0.000
1606129698.737,-79.590,-40.039,-20.508,-200.195,0.000
1606129698.741,-48.828,-27.832,-28.809,-133.789,0.000
1606129698.745,20.508,-38.086,-27.344,72.754,0.000
1606129698.749,43.457,-13.672,-19.043,147.949,0.000
1606129698.753,-15.625,-3.906,-27.832,-24.902,0.000
1606129698.757,-74.707,-35.156,-24.414,-208.496,0.000
1606129698.761,-57.129,-30.273,-26.367,-166.016,0.000
1606129698.765,20.020,-25.391,-26.367,57.129,0.000
1606129698.769,52.734,-20.996,-25.879,161.133,0.000
1606129698.772,-0.977,-19.531,-22.949,17.090,0.000
1606129698.776,-72.754,-26.855,-19.043,-183.594,0.000
1606129698.780,-81.055,-35.645,-16.602,-188.477,0.000
1606129698.784,-10.254,-32.715,-6.836,33.203,0.000
1606129698.788,27.344,-3.418,-14.160,170.898,0.000
1606129698.792,-20.020,15.137,-30.762,44.434,0.000
1606129698.796,-94.727,-21.973,-37.109,-172.852,0.000
1606129698.800,-106.934,-47.363,-30.273,-207.031,0.000
1606129698.804,-35.156,-41.504,-26.855,-1.953,0.000
1606129698.808,15.137,-45.410,-26.855,154.785,0.000
1606129698.812,-15.625,-47.363,-22.949,63.965,0.000
1606129698.815,-83.008,-47.363,-18.555,-154.785,0.000
1606129698.819,-92.285,-47.363,-13.672,-212.402,0.000
1606129698.823,-30.762,-42.480,-12.695,-32.227,0.000
1606129698.827,31.250,-33.203,-7.324,151.367,0.000
1606129698.831,14.648,-27.344,-12.207,107.422,0.000
1606129698.835,-78.125,-32.715,-37.598,-132.324,0.000
1606129698.839,-113.281,-36.621,-45.898,-235.352,0.000
1606129698.843,-60.059,-38.574,-36.621,-77.637,0.000
1606129698.847,1.953,-32.227,-27.344,121.094,0.000
1606129698.851,4.883,-1.953,-17.090,117.188,0.000
1606129698.855,-66.406,-17.090,-25.879,-103.027,0.000
1606129698.858,-104.980,-44.922,-41.016,-224.609,0.000
1606129698.862,-49.805,-36.133,-40.039,-87.891,0.000
1606129698.866,27.832,-20.996,-24.414,128.418,0.000
1606129698.870,30.273,-22.461,-20.996,142.578,0.000
1606129698.874,-36.133,-35.645,-35.156,-65.918,0.000
1606129698.878,-68.359,-24.414,-31.250,-193.359,0.000
1606129698.882,-18.555,-11.230,-23.926,-83.008,0.000
1606129698.886,57.617,-12.207,-9.277,133.789,0.000
1606129698.890,65.918,7.812,-14.160,172.852,0.000
1606129698.894,2.930,9.277,-30.273,-22.949,0.000
1606129698.897,-50.293,-16.602,-26.367,-187.012,0.000
1606129698.901,-28.320,-22.461,-26.367,-126.465,0.000
1606129698.905,44.922,-18.555,-34.668,93.750,0.000
1606129698.909,57.129,-16.602,-35.156,173.340,0.000
1606129698.913,-0.977,-23.438,-37.109,5.371,0.000
1606129698.917,-58.105,-31.738,-43.945,-179.688,0.000
1606129698.921,-49.805,-29.297,-33.203,-142.090,0.000
1606129698.925,29.785,-22.949,-21.973,81.055,0.000
1606129698.929,65.918,10.742,-28.809,183.105,0.000
1606129698.933,3.418,14.648,-36.133,37.109,0.000
1606129698.937,-67.871,-23.438,-29.297,-161.621,0.000
1606129698.940,-64.453,-29.297,-30.762,-165.527,0.000
1606129698.944,-6.836,-30.762,-34.180,36.133,0.000
1606129698.948,21.973,-27.832,-27.344,160.645,0.000
1606129698.952,-26.855,-31.250,-30.273,40.039,0.000
1606129698.956,-100.586,-42.969,-33.691,-173.828,0.000
1606129698.960,-114.746,-41.504,-28.320,-208.984,0.000
1606129698.964,-53.223,-34.668,-23.926,-19.043,0.000
1606129698.968,-2.441,-35.156,-26.855,130.371,0.000
1606129698.972,-35.156,-37.598,-34.668,43.457,0.000
1606129698.976,-109.863,-45.898,-45.410,-176.758,0.000
1606129698.980,-123.047,-52.246,-45.898,-236.328,0.000
1606129698.983,-60.059,-49.805,-32.715,-61.035,0.000
1606129698.987,-7.324,-40.527,-36.133,114.258,0.000
1606129698.991,-28.320,-26.855,-34.668,67.871,0.000
1606129698.995,-100.098,-34.668,-20.996,-147.949,0.000
1606129698.999,-127.441,-46.875,-25.879,-241.211,0.000
1606129699.003,-70.801,-40.527,-31.738,-86.914,0.000
1606129699.007,-5.371,-33.691,-27.344,106.445,0.000
1606129699.011,-11.719,-40.039,-27.344,86.914,0.000
1606129699.015,-82.520,-43.457,-33.691,-125.488,0.000
1606129699.019,-113.281,-42.480,-37.598,-234.863,0.000
1606129699.022,-63.477,-43.457,-24.902,-101.074,0.000
1606129699.026,4.883,-38.086,-19.043,97.168,0.000
1606129699.030,10.254,-17.578,-20.020,112.793,0.000
1606129699.034,-65.918,-22.461,-23.926,-95.703,0.000
1606129699.038,-109.375,-34.668,-29.785,-229.492,0.000
1606129699.042,-66.895,-28.320,-18.555,-119.141,0.000
1606129699.046,9.766,-22.949,-10.254,100.586,0.000
1606129699.050,26.367,-20.508,-15.137,148.926,0.000
1606129699.054,-32.227,-23.438,-17.090,-41.016,0.000
1606129699.058,-85.449,-30.273,-26.855,-201.172,0.000
1606129699.062,-62.988,-32.227,-24.414,-137.695,0.000
1606129699.065,16.113,-23.438,-11.719,85.938,0.000
1606129699.069,40.039,-18.066,-5.859,168.945,0.000
1606129699.073,-12.207,-17.578,-3.418,-2.441,0.000
1606129699.077,-74.219,-23.926,-17.090,-194.336,0.000
1606129699.081,-66.895,-27.832,-38.086,-166.504,0.000
1606129699.085,14.160,-20.020,-34.180,64.453,0.000
1606129699.089,40.527,-13.184,-35.156,163.574,0.000
1606129699.093,-14.648,-18.066,-36.621,12.695,0.000
1606129699.097,-80.078,-28.320,-34.668,-182.617,0.000
1606129699.101,-75.195,-31.250,-33.691,-181.641,0.000
1606129699.105,3.906,-20.508,-27.832,32.227,0.000
1606129699.108,49.316,-17.578,-18.066,167.969,0.000
1606129699.112,8.301,-26.855,-18.066,52.246,0.000
1606129699.116,-62.012,-23.438,-33.203,-164.551,0.000
1606129699.120,-64.941,-23.438,-30.273,-197.266,0.000
1606129699.124,5.859,-28.809,-23.926,1.953,0.000
1606129699.128,49.805,-19.043,-28.809,152.832,0.000
1606129699.132,18.066,-16.113,-36.133,69.824,0.000
1606129699.136,-53.711,-26.855,-39.551,-141.602,0.000
1606129699.140,-80.078,-31.738,-28.809,-201.660,0.000
1606129699.144,-22.949,-31.250,-14.160,-17.578,0.000
1606129699.147,31.250,-17.578,-7.812,157.227,0.000
1606129699.151,3.418,-16.602,-19.531,101.074,0.000
1606129699.155,-74.707,-26.855,-35.156,-128.906,0.000
1606129699.159,-96.680,-27.344,-30.762,-217.773,0.000
1606129699.163,-32.715,-14.648,-20.508,-43.457,0.000
1606129699.167,29.297,-16.113,-18.066,148.438,0.000
1606129699.171,7.324,-25.879,-20.020,113.281,0.000
1606129699.175,-72.266,-32.227,-29.297,-113.770,0.000
1606129699.179,-108.398,-43.945,-40.039,-231.445,0.000
1606129699.183,-59.082,-46.875,-38.086,-100.098,0.000
1606129699.187,14.648,-35.156,-24.902,104.980,0.000
1606129699.190,16.602,-27.832,-34.180,122.559,0.000
1606129699.194,-58.594,-36.621,-52.246,-82.031,0.000
1606129699.198,-96.680,-41.992,-41.992,-214.355,0.000
1606129699.202,-54.688,-30.762,-28.320,-107.910,0.000
1606129699.206,13.672,-20.996,-23.438,103.516,0.000
1606129699.210,26.855,-19.531,-25.879,144.043,0.000
1606129699.214,-39.062,-29.297,-24.414,-45.898,0.000
1606129699.218,-90.332,-48.828,-26.855,-207.031,0.000
1606129699.222,-63.965,-55.176,-35.156,-139.160,0.000
1606129699.226,11.230,-41.016,-24.902,78.613,0.000
1606129699.230,38.574,-25.879,-13.184,149.414,0.000
1606129699.233,-13.672,-22.949,-32.715,-19.531,0.000
1606129699.237,-67.871,-24.414,-41.016,-198.242,0.000
1606129699.241,-45.898,-19.531,-28.320,-154.297,0.000
1606129699.245,19.531,-19.043,-21.973,68.848,0.000
1606129699.249,48.340,-12.695,-21.484,166.504,0.000
1606129699.253,-3.418,-17.578,-34.180,11.230,0.000
1606129699.257,-79.590,-39.551,-40.039,-187.500,0.000
1606129699.261,-78.125,-33.203,-37.598,-177.734,0.000
1606129699.265,-3.418,-30.762,-34.668,38.574,0.000
1606129699.269,37.109,-10.742,-29.297,172.363,0.000
1606129699.272,-2.930,9.766,-30.273,62.012,0.000
1606129699.276,-76.660,-25.391,-39.551,-154.297,0.000
1606129699.280,-93.750,-39.551,-44.922,-194.336,0.000
1606129699.284,-28.809,-22.949,-36.133,6.348,0.000
1606129699.288,23.926,-12.207,-20.996,161.133,0.000
1606129699.292,-9.766,-23.926,-18.066,64.453,0.000
1606129699.296,-83.984,-37.109,-28.809,-156.738,0.000
1606129699.300,-98.145,-35.645,-38.574,-208.008,0.000
1606129699.304,-41.504,-45.898,-35.156,-27.344,0.000
1606129699.308,6.348,-33.203,-27.832,133.301,0.000
1606129699.312,-20.508,-10.742,-35.156,68.359,0.000
1606129699.315,-91.797,-36.133,-32.227,-152.344,0.000
1606129699.319,-110.352,-48.340,-18.555,-233.398,0.000
1606129699.323,-50.293,-43.945,-22.949,-64.453,0.000
1606129699.327,15.625,-42.480,-20.996,123.535,0.000
1606129699.331,2.441,-41.016,-20.020,93.262,0.000
1606129699.335,-79.590,-52.734,-39.551,-129.395,0.000
1606129699.339,-113.770,-55.664,-41.016,-243.164,0.000
1606129699.343,-61.523,-45.410,-32.715,-104.492,0.000
1606129699.347,12.207,-36.133,-25.391,106.445,0.000
1606129699.351,17.578,-19.043,-23.438,116.699,0.000
1606129699.355,-45.898,-15.625,-27.832,-86.914,0.000
1606129699.358,-87.402,-32.227,-25.391,-221.680,0.000
1606129699.362,-48.828,-43.457,-30.273,-117.188,0.000
1606129699.366,19.531,-31.738,-34.668,104.980,0.000
1606129699.370,34.668,-8.301,-25.879,151.367,0.000
1606129699.374,-24.902,-18.066,-29.785,-44.434,0.000
1606129699.378,-90.332,-40.039,-36.621,-209.961,0.000
1606129699.382,-63.477,-36.621,-35.645,-135.254,0.000
1606129699.386,21.484,-23.926,-30.273,89.355,0.000
1606129699.390,42.480,-30.762,-24.902,158.691,0.000
1606129699.394,-17.578,-41.992,-28.320,-18.066,0.000
1606129699.397,-73.242,-36.621,-24.902,-190.918,0.000
1606129699.401,-60.547,-33.203,-23.926,-146.973,0.000
1606129699.405,8.789,-29.297,-29.785,66.895,0.000
1606129699.409,32.227,-21.484,-30.273,156.738,0.000
1606129699.413,-17.090,-26.855,-27.344,8.789,0.000
1606129699.417,-79.102,-42.480,-30.273,-189.941,0.000
1606129699.421,-76.172,-34.668,-34.668,-180.176,0.000
1606129699.425,-0.488,-25.879,-25.391,42.480,0.000
1606129699.429,36.133,-23.926,-26.367,167.480,0.000
1606129699.433,-12.695,-27.344,-25.879,48.828,0.000
1606129699.437,-84.961,-36.133,-20.020,-162.109,0.000
1606129699.440,-96.680,-35.156,-29.297,-189.941,0.000
1606129699.444,-28.809,-40.527,-30.762,11.230,0.000
1606129699.448,24.902,-18.555,-25.879,155.273,0.000
1606129699.452,-9.277,19.531,-32.227,56.641,0.000
1606129699.456,-77.637,-10.742,-33.691,-159.180,0.000
1606129699.460,-89.355,-33.203,-26.367,-201.172,0.000
1606129699.464,-25.879,-20.020,-18.555,-15.137,0.000
1606129699.468,36.133,-20.508,-19.043,145.020,0.000
1606129699.472,12.695,-30.762,-14.648,75.684,0.000
1606129699.476,-63.965,-31.738,-20.020,-145.020,0.000
1606129699.480,-91.797,-29.785,-36.621,-221.680,0.000
1606129699.483,-35.645,-30.273,-27.832,-58.594,0.000
1606129699.487,27.832,-14.648,-20.996,132.324,0.000
1606129699.491,16.602,0.977,-28.809,106.445,0.000
1606129699.495,-56.641,-20.508,-35.156,-122.070,0.000
1606129699.499,-84.961,-32.227,-27.344,-229.004,0.000
1606129699.503,-36.133,-28.809,-21.973,-81.055,0.000
1606129699.507,34.668,-19.043,-18.555,127.441,0.000
1606129699.511,41.016,-13.672,-17.090,134.766,0.000
1606129699.515,-41.016,-24.414,-30.762,-85.938,0.000
1606129699.519,-83.496,-33.691,-26.367,-202.148,0.000
1606129699.522,-39.062,-32.715,-20.508,-77.637,0.000
1606129699.526,29.297,-26.367,-22.949,117.676,0.000
1606129699.530,36.133,-33.203,-25.879,141.602,0.000
1606129699.534,-33.203,-28.809,-32.715,-56.152,0.000
1606129699.538,-86.914,-25.879,-41.504,-205.566,0.000
1606129699.542,-54.688,-27.344,-29.297,-119.629,0.000
1606129699.546,23.926,-21.484,-15.137,96.680,0.000
1606129699.550,35.156,-10.742,-23.438,154.785,0.000
1606129699.554,-40.039,-18.555,-36.621,-23.438,0.000
1606129699.558,-99.121,-38.086,-41.504,-193.848,0.000
1606129699.562,-72.266,-36.621,-32.715,-140.625,0.000
1606129699.565,1.465,-33.203,-20.996,73.730,0.000
1606129699.569,30.273,-23.438,-21.484,168.945,0.000
1606129699.573,-24.414,-27.344,-27.832,9.277,0.000
1606129699.577,-90.332,-43.457,-37.598,-179.688,0.000
1606129699.581,-83.008,-45.898,-41.992,-164.551,0.000
1606129699.585,-8.789,-35.645,-27.832,38.574,0.000
1606129699.589,32.715,-9.277,-24.902,164.551,0.000
1606129699.593,-16.602,-10.742,-31.738,25.879,0.000
1606129699.597,-82.031,-36.621,-30.762,-187.012,0.000
1606129699.601,-80.078,-36.133,-30.273,-198.242,0.000
1606129699.605,-11.719,-27.832,-23.438,6.348,0.000
1606129699.608,34.180,-20.508,-24.902,149.902,0.000
1606129699.612,-4.395,-25.879,-33.203,51.758,0.000
1606129699.616,-77.148,-33.203,-32.227,-165.527,0.000
1606129699.620,-93.750,-35.645,-27.832,-213.867,0.000
1606129699.624,-33.203,-31.738,-21.484,-22.461,0.000
1606129699.628,18.066,-23.438,-26.855,143.066,0.000
1606129699.632,-8.789,-21.973,-34.180,75.195,0.000
1606129699.636,-88.379,-43.945,-30.762,-149.414,0.000
1606129699.640,-116.699,-55.664,-27.832,-232.422,0.000
1606129699.644,-54.199,-41.504,-32.715,-57.129,0.000
1606129699.647,12.207,-24.414,-37.598,133.789,0.000
1606129699.651,-1.465,-12.207,-31.738,107.422,0.000
1606129699.655,-77.148,-29.785,-27.344,-107.910,0.000
1606129699.659,-111.328,-41.992,-36.621,-221.680,0.000
1606129699.663,-63.477,-37.598,-31.738,-83.496,0.000
1606129699.667,1.953,-39.062,-18.555,117.188,0.000
1606129699.671,0.000,-45.898,-17.578,111.816,0.000
1606129699.675,-71.289,-44.922,-22.949,-99.609,0.000
1606129699.679,-114.746,-38.086,-30.273,-227.539,0.000
1606129699.683,-75.684,-41.016,-26.367,-115.234,0.000
1606129699.687,-2.930,-30.273,-18.555,98.633,0.000
1606129699.690,10.254,-3.906,-13.184,139.648,0.000
1606129699.694,-57.129,-19.531,-21.484,-54.688,0.000
1606129699.698,-108.398,-46.875,-33.203,-213.379,0.000
1606129699.702,-72.754,-40.527,-29.297,-121.094,0.000
1606129699.706,-0.488,-31.738,-21.973,95.703,0.000
1606129699.710,20.508,-32.715,-21.973,145.996,0.000
1606129699.714,-33.691,-37.109,-20.020,-27.832,0.000
1606129699.718,-89.355,-42.969,-23.438,-208.496,0.000
1606129699.722,-67.383,-43.457,-35.156,-159.180,0.000
1606129699.726,10.254,-36.621,-34.668,71.289,0.000
1606129699.730,40.039,-28.809,-28.320,160.156,0.000
1606129699.733,-15.625,-25.391,-24.902,1.465,0.000
1606129699.737,-74.707,-35.156,-37.109,-188.477,0.000
1606129699.741,-56.152,-27.832,-31.738,-164.062,0.000
1606129699.745,22.949,-21.484,-15.137,62.988,0.000
1606129699.749,59.570,-22.949,-20.020,182.129,0.000
1606129699.753,2.930,-28.320,-28.320,45.898,0.000
1606129699.757,-71.777,-44.434,-33.203,-164.551,0.000
1606129699.761,-72.754,-40.039,-29.785,-178.711,0.000
1606129699.765,-10.742,-30.273,-23.926,21.973,0.000
1606129699.769,30.762,-14.648,-18.555,156.738,0.000
1606129699.772,-6.836,-15.625,-19.043,62.500,0.000
1606129699.776,-81.055,-42.969,-28.809,-150.879,0.000
1606129699.780,-88.379,-41.992,-29.297,-199.219,0.000
1606129699.784,-18.066,-29.297,-19.531,1.953,0.000
1606129699.788,34.668,-9.766,-19.043,168.945,0.000
1606129699.792,6.348,-12.207,-24.414,88.379,0.000
1606129699.796,-70.312,-33.691,-22.461,-135.254,0.000
1606129699.800,-92.285,-33.203,-23.926,-207.520,0.000
1606129699.804,-39.551,-25.879,-16.113,-41.016,0.000
1606129699.808,16.113,-20.020,-19.531,142.578,0.000
1606129699.812,4.395,-20.020,-19.531,108.398,0.000
1606129699.815,-56.641,-30.273,-12.695,-107.910,0.000
1606129699.819,-79.590,-34.668,-31.738,-208.008,0.000
1606129699.823,-29.785,-25.391,-41.016,-64.453,0.000
1606129699.827,32.715,-14.160,-19.043,131.836,0.000
1606129699.831,26.855,21.973,-24.414,124.023,0.000
1606129699.835,-48.340,14.648,-41.504,-89.844,0.000
1606129699.839,-89.355,-25.391,-33.691,-218.750,0.000
1606129699.843,-45.898,-26.367,-25.391,-99.609,0.000
1606129699.847,24.902,-12.207,-23.438,110.840,0.000
1606129699.851,35.156,-9.766,-15.137,148.438,0.000
1606129699.855,-37.598,-36.133,-25.391,-53.223,0.000
1606129699.858,-89.844,-45.410,-31.738,-215.332,0.000
1606129699.862,-57.617,-34.180,-24.902,-129.883,0.000
1606129699.866,11.230,-36.133,-25.391,80.078,0.000
1606129699.870,23.438,-4.883,-24.414,134.766,0.000
1606129699.874,-35.156,-4.883,-24.902,-37.109,0.000
1606129699.878,-92.773,-41.504,-21.484,-207.520,0.000
1606129699.882,-69.336,-31.738,-22.949,-146.973,0.000
1606129699.886,21.973,-17.090,-31.250,89.355,0.000
1606129699.890,55.176,-17.090,-18.555,187.500,0.000
1606129699.894,-18.555,-26.367,-10.742,18.555,0.000
1606129699.897,-103.027,-40.527,-13.184,-189.941,0.000
1606129699.901,-107.422,-51.270,-15.137,-179.688,0.000
1606129699.905,-33.203,-41.016,-12.695,40.039,0.000
1606129699.909,1.465,-27.344,1.465,157.715,0.000
1606129699.913,-59.570,-37.109,-0.488,12.695,0.000
1606129699.917,-130.859,-47.852,-5.859,-199.707,0.000
1606129699.921,-133.301,-44.434,-13.184,-212.402,0.000
1606129699.925,-55.664,-46.875,-20.508,-3.906,0.000
1606129699.929,2.930,-7.812,-7.812,144.531,0.000
1606129699.933,-31.250,21.484,-3.906,49.805,0.000
1606129699.937,-89.844,-23.438,-9.766,-154.297,0.000
1606129699.940,-91.309,-46.387,-14.648,-192.871,0.000
1606129699.944,-22.949,-41.992,-23.438,0.977,0.000
1606129699.948,36.133,-37.109,-20.996,168.457,0.000
1606129699.952,12.695,-37.598,-20.020,95.703,0.000
1606129699.956,-58.105,-42.480,-22.461,-125.977,0.000
1606129699.960,-76.172,-38.574,-19.043,-189.941,0.000
1606129699.964,-17.578,-43.457,-14.160,-12.207,0.000
1606129699.968,41.504,-20.996,-16.113,168.945,0.000
1606129699.972,20.996,1.953,-26.367,122.559,0.000
1606129699.976,-47.363,-29.785,-22.461,-90.820,0.000
1606129699.980,-72.754,-42.969,-25.391,-195.801,0.000
1606129699.983,-22.461,-44.434,-29.785,-57.129,0.000
1606129699.987,48.340,-38.574,-18.066,150.879,0.000
1606129699.991,42.969,-33.691,-15.137,150.879,0.000
1606129699.995,-35.156,-45.410,-28.320,-67.871,0.000
1606129699.999,-71.289,-47.852,-22.949,-195.312,0.000
1606129700.003,-28.320,-42.480,-20.508,-75.684,0.000
1606129700.007,35.156,-32.227,-28.320,131.348,0.000
1606129700.011,40.527,-6.836,-25.391,157.715,0.000
1606129700.015,-34.668,-20.020,-31.250,-49.805,0.000
1606129700.019,-93.750,-44.922,-37.109,-208.984,0.000
1606129700.022,-64.941,-49.805,-34.180,-120.605,0.000
1606129700.026,13.672,-36.621,-27.832,103.027,0.000
1606129700.030,29.785,-11.230,-22.949,158.203,0.000
1606129700.034,-40.527,-23.926,-20.996,-37.109,0.000
1606129700.038,-98.145,-40.527,-24.414,-210.938,0.000
1606129700.042,-73.730,-39.551,-33.691,-154.785,0.000
1606129700.046,1.465,-45.410,-40.039,58.594,0.000
1606129700.050,27.344,-30.762,-37.598,148.926,0.000
1606129700.054,-26.855,-26.367,-36.621,-3.906,0.000
1606129700.058,-91.309,-44.434,-39.062,-198.730,0.000
1606129700.062,-83.984,-49.316,-40.527,-181.641,0.000
1606129700.065,-2.441,-40.527,-35.645,44.922,0.000
1606129700.069,40.527,-19.043,-23.926,162.598,0.000
1606129700.073,-5.371,-21.973,-27.832,24.902,0.000
1606129700.077,-70.801,-41.504,-31.738,-177.734,0.000
1606129700.081,-70.312,-39.551,-24.414,-186.035,0.000
1606129700.085,4.395,-28.809,-15.137,32.715,0.000
1606129700.089,55.176,-22.949,-9.277,173.828,0.000
1606129700.093,14.648,-20.020,-26.367,65.918,0.000
1606129700.097,-61.035,-19.043,-41.992,-147.461,0.000
1606129700.101,-74.707,-30.273,-29.785,-188.965,0.000
1606129700.105,-12.695,-40.527,-17.578,1.465,0.000
1606129700.108,36.621,-13.184,-19.531,154.297,0.000
1606129700.112,3.906,12.207,-28.809,79.102,0.000
1606129700.116,-73.242,-21.484,-21.973,-139.648,0.000
1606129700.120,-97.656,-42.480,-10.254,-210.449,0.000
1606129700.124,-37.109,-38.574,-19.531,-34.668,0.000
1606129700.128,26.855,-21.484,-6.836,149.414,0.000
1606129700.132,8.789,-23.926,-1.465,104.004,0.000
1606129700.136,-72.266,-41.504,-21.973,-125.000,0.000
1606129700.140,-99.121,-36.621,-24.414,-223.633,0.000
1606129700.144,-43.457,-36.621,-24.414,-70.801,0.000
1606129700.147,18.555,-27.344,-29.297,125.977,0.000
1606129700.151,14.160,-7.324,-23.438,110.840,0.000
1606129700.155,-54.199,-34.668,-22.949,-107.910,0.000
1606129700.159,-92.285,-41.992,-30.762,-234.375,0.000
1606129700.163,-43.457,-19.043,-24.414,-110.840,0.000
1606129700.167,32.227,-16.602,-15.625,105.469,0.000
1606129700.171,45.898,-18.066,-18.066,133.789,0.000
1606129700.175,-20.508,-17.090,-32.227,-73.242,0.000
1606129700.179,-72.754,-20.020,-32.227,-227.539,0.000
1606129700.183,-41.992,-18.066,-21.973,-129.395,0.000
1606129700.187,21.973,-14.160,-22.461,86.426,0.000
1606129700.190,37.109,-15.137,-20.020,146.484,0.000
1606129700.194,-24.902,-20.508,-30.762,-33.691,0.000
1606129700.198,-83.496,-26.855,-36.621,-211.426,0.000
1606129700.202,-62.988,-21.973,-29.785,-152.832,0.000
1606129700.206,10.742,-19.043,-21.973,75.195,0.000
1606129700.210,36.621,0.488,-10.742,167.969,0.000
1606129700.214,-22.461,4.883,-10.742,4.883,0.000
1606129700.218,-86.426,-21.484,-20.996,-185.059,0.000
1606129700.222,-74.219,-26.855,-16.113,-153.320,0.000
1606129700.226,10.254,-29.297,-0.977,80.078,0.000
1606129700.230,36.621,-20.996,-11.230,182.617,0.000
1606129700.233,-29.785,-13.184,-21.973,16.602,0.000
1606129700.237,-95.215,-21.484,-29.297,-191.406,0.000
1606129700.241,-89.844,-22.949,-27.832,-190.430,0.000
1606129700.245,-25.879,-20.020,-19.531,20.020,0.000
1606129700.249,11.719,-11.230,-30.273,150.879,0.000
1606129700.253,-22.949,-12.207,-36.133,40.527,0.000
1606129700.257,-83.008,-28.809,-30.762,-166.992,0.000
1606129700.261,-87.891,-24.902,-21.484,-201.172,0.000
1606129700.265,-26.855,-17.578,-13.184,-6.348,0.000
1606129700.269,15.137,-20.508,-17.090,147.461,0.000
1606129700.272,-14.160,-29.297,-19.043,62.988,0.000
1606129700.276,-77.148,-32.715,-27.832,-154.785,0.000
1606129700.280,-93.750,-28.320,-41.504,-220.215,0.000
1606129700.284,-32.227,-25.879,-34.180,-48.340,0.000
1606129700.288,33.691,-18.066,-31.738,133.789,0.000
1606129700.292,17.090,-18.555,-45.898,89.355,0.000
1606129700.296,-55.176,-32.715,-49.316,-133.301,0.000
1606129700.300,-84.961,-35.645,-43.457,-225.098,0.000
1606129700.304,-36.133,-31.250,-32.715,-66.406,0.000
1606129700.308,26.367,-31.250,-24.902,128.418,0.000
1606129700.312,19.531,-31.250,-27.832,124.023,0.000
1606129700.315,-49.805,-30.762,-25.879,-82.031,0.000
1606129700.319,-92.773,-38.086,-27.832,-204.590,0.000
1606129700.323,-57.617,-36.621,-33.691,-84.473,0.000
1606129700.327,10.254,-22.949,-21.973,126.953,0.000
1606129700.331,19.531,-20.508,-12.207,157.715,0.000
1606129700.335,-46.875,-31.738,-23.438,-58.594,0.000
1606129700.339,-97.656,-40.527,-29.785,-212.891,0.000
1606129700.343,-66.895,-43.945,-26.855,-115.723,0.000
1606129700.347,8.301,-32.715,-31.250,103.516,0.000
1606129700.351,22.949,-9.277,-27.344,157.715,0.000
1606129700.355,-46.387,-13.672,-24.902,-29.297,0.000
1606129700.358,-102.539,-29.785,-27.832,-194.824,0.000
1606129700.362,-81.055,-33.203,-29.785,-132.812,0.000
1606129700.366,-13.672,-35.156,-30.762,82.520,0.000
1606129700.370,13.184,-29.297,-30.273,164.062,0.000
1606129700.374,-34.180,-28.320,-27.344,5.859,0.000
1606129700.378,-93.262,-34.180,-24.414,-175.781,0.000
1606129700.382,-76.172,-36.133,-27.832,-148.926,0.000
1606129700.386,-1.953,-32.715,-25.879,62.500,0.000
1606129700.390,28.809,-14.160,-27.832,160.645,0.000
1606129700.394,-16.602,-9.277,-31.250,14.160,0.000
1606129700.397,-73.730,-23.438,-24.902,-176.758,0.000
1606129700.401,-72.266,-31.250,-33.691,-174.805,0.000
1606129700.405,-8.789,-34.180,-35.645,24.902,0.000
1606129700.409,41.504,-31.738,-28.809,156.738,0.000
1606129700.413,10.742,-25.879,-36.621,54.199,0.000
1606129700.417,-62.988,-23.438,-37.598,-153.320,0.000
1606129700.421,-67.871,-27.832,-31.738,-185.059,0.000
1606129700.425,0.977,-25.391,-20.020,9.277,0.000
1606129700.429,42.480,-7.812,-13.184,158.203,0.000
1606129700.433,5.371,-9.277,-21.973,69.336,0.000
1606129700.437,-62.500,-30.762,-30.273,-146.973,0.000
1606129700.440,-83.008,-33.691,-27.832,-208.008,0.000
1606129700.444,-26.367,-28.809,-13.184,-31.738,0.000
1606129700.448,24.902,-27.344,-14.160,141.602,0.000
1606129700.452,-1.953,-35.156,-41.016,85.449,0.000
1606129700.456,-74.707,-50.293,-49.316,-130.371,0.000
1606129700.460,-101.074,-48.828,-29.297,-215.332,0.000
1606129700.464,-50.293,-36.133,-17.090,-64.941,0.000
1606129700.468,9.766,-24.902,-19.531,125.000,0.000
1606129700.472,-0.977,-30.273,-17.578,122.070,0.000
1606129700.476,-70.312,-40.039,-19.531,-90.820,0.000
1606129700.480,-96.191,-28.809,-15.625,-215.332,0.000
1606129700.483,-53.223,-32.227,-8.301,-92.773,0.000
1606129700.487,-6.348,-36.621,-30.273,92.773,0.000
1606129700.491,-15.137,-16.602,-59.570,99.609,0.000
1606129700.495,-75.684,-29.785,-57.129,-102.051,0.000
1606129700.499,-112.793,-45.898,-36.621,-240.723,0.000
1606129700.503,-81.055,-41.504,-20.020,-142.090,0.000
1606129700.507,-4.883,-33.203,-10.254,76.660,0.000
1606129700.511,12.207,-23.926,-18.066,129.395,0.000
1606129700.515,-52.246,-27.832,-30.273,-65.430,0.000
1606129700.519,-101.074,-32.227,-35.645,-230.469,0.000
1606129700.522,-69.336,-27.832,-28.320,-151.367,0.000
1606129700.526,7.324,-21.973,-15.625,72.266,0.000
1606129700.530,21.973,-13.672,-16.602,138.672,0.000
1606129700.534,-38.086,-26.367,-40.039,-34.668,0.000
1606129700.538,-88.379,-41.504,-56.641,-206.055,0.000
1606129700.542,-66.895,-45.898,-46.875,-167.480,0.000
1606129700.546,13.184,-41.504,-30.762,58.594,0.000
1606129700.550,53.711,-27.344,-19.531,173.340,0.000
1606129700.554,-0.977,-26.367,-25.879,24.414,0.000
1606129700.558,-71.777,-36.621,-37.109,-174.316,0.000
1606129700.562,-67.871,-39.062,-29.785,-170.898,0.000
1606129700.565,2.930,-32.227,-20.020,39.062,0.000
1606129700.569,45.410,-1.465,-14.160,172.852,0.000
1606129700.573,0.488,6.348,-22.461,44.922,0.000
1606129700.577,-67.383,-33.203,-33.691,-163.574,0.000
1606129700.581,-73.242,-44.434,-33.691,-186.035,0.000
1606129700.585,-14.648,-35.645,-33.691,4.395,0.000
1606129700.589,34.668,-23.926,-25.879,161.133,0.000
1606129700.593,2.441,-21.484,-18.555,69.824,0.000
1606129700.597,-76.660,-37.109,-30.762,-154.785,0.000
1606129700.601,-91.309,-39.551,-36.621,-211.426,0.000
1606129700.605,-25.391,-20.508,-25.391,-30.273,0.000
1606129700.608,33.691,-14.160,-29.297,136.719,0.000
1606129700.612,5.859,-28.320,-41.016,80.566,0.000
1606129700.616,-74.707,-34.668,-36.621,-134.766,0.000
1606129700.620,-102.539,-36.621,-32.227,-229.004,0.000
1606129700.624,-44.922,-34.668,-20.996,-75.195,0.000
1606129700.628,20.996,-17.090,-14.160,118.652,0.000
1606129700.632,6.348,-21.484,-32.227,91.309,0.000
1606129700.636,-68.848,-35.156,-44.434,-125.488,0.000
1606129700.640,-99.121,-32.715,-32.715,-235.840,0.000
1606129700.644,-49.805,-37.598,-33.203,-102.539,0.000
1606129700.647,12.695,-24.902,-40.039,112.793,0.000
1606129700.651,9.277,-18.066,-30.762,124.023,0.000
1606129700.655,-58.105,-35.156,-32.227,-88.867,0.000
1606129700.659,-103.027,-43.457,-39.551,-222.656,0.000
1606129700.663,-62.012,-37.598,-35.645,-114.258,0.000
1606129700.667,18.066,-24.902,-25.391,98.145,0.000
1606129700.671,26.855,8.789,-28.809,133.789,0.000
1606129700.675,-41.992,-7.812,-39.551,-54.688,0.000
1606129700.679,-86.914,-51.270,-38.574,-208.496,0.000
1606129700.683,-53.711,-37.598,-22.949,-135.254,0.000
1606129700.687,22.461,-29.297,-21.973,89.844,0.000
1606129700.690,42.969,-32.715,-34.180,155.762,0.000
1606129700.694,-13.184,-35.156,-35.645,-14.648,0.000
1606129700.698,-71.289,-46.387,-33.691,-191.406,0.000
1606129700.702,-56.641,-47.363,-25.879,-151.367,0.000
1606129700.706,15.137,-32.715,-25.391,73.242,0.000
1606129700.710,31.738,-1.953,-19.531,162.598,0.000
1606129700.714,-27.832,-5.859,-14.160,7.812,0.000
1606129700.718,-86.426,-36.621,-38.086,-179.199,0.000
1606129700.722,-81.055,-44.434,-42.969,-176.758,0.000
1606129700.726,-12.207,-40.039,-26.855,34.180,0.000
1606129700.730,26.855,-33.203,-31.738,165.527,0.000
1606129700.733,-10.254,-30.762,-29.297,42.480,0.000
1606129700.737,-72.754,-35.156,-29.297,-165.527,0.000
1606129700.741,-76.660,-39.551,-38.574,-189.453,0.000
1606129700.745,-18.555,-37.109,-29.297,4.395,0.000
1606129700.749,29.785,-30.762,-21.973,170.898,0.000
1606129700.753,-4.395,-30.762,-25.391,78.125,0.000
1606129700.757,-72.266,-35.645,-29.297,-138.672,0.000
1606129700.761,-81.543,-34.668,-34.180,-176.758,0.000
1606129700.765,-23.926,-41.016,-32.715,-4.883,0.000
1606129700.769,29.785,-21.484,-21.484,163.086,0.000
1606129700.772,9.277,4.883,-31.250,114.258,0.000
1606129700.776,-62.012,-20.996,-45.898,-102.539,0.000
1606129700.780,-90.820,-38.086,-42.480,-192.871,0.000
1606129700.784,-34.668,-32.715,-20.996,-32.227,0.000
1606129700.788,34.180,-25.391,-5.859,166.016,0.000
1606129700.792,21.973,-22.949,-9.766,145.996,0.000
1606129700.796,-52.734,-37.109,-9.766,-76.172,0.000
1606129700.800,-83.008,-35.156,-12.695,-187.988,0.000
1606129700.804,-41.016,-30.273,-22.461,-56.152,0.000
1606129700.808,22.461,-26.855,-22.461,143.066,0.000
1606129700.812,28.809,-13.672,-15.625,153.320,0.000
1606129700.815,-35.156,-27.832,-20.996,-53.711,0.000
1606129700.819,-75.684,-36.621,-28.809,-195.312,0.000
1606129700.823,-35.156,-33.691,-28.320,-95.703,0.000
1606129700.827,38.086,-25.391,-20.996,115.234,0.000
1606129700.831,47.852,-22.461,-19.531,149.902,0.000
1606129700.835,-20.020,-33.691,-26.367,-40.039,0.000
1606129700.839,-74.219,-41.992,-33.691,-203.613,0.000
1606129700.843,-52.734,-45.898,-37.598,-143.066,0.000
1606129700.847,18.555,-30.273,-30.273,81.543,0.000
1606129700.851,37.598,9.277,-16.602,153.809,0.000
1606129700.855,-29.297,-0.977,-23.926,-32.715,0.000
1606129700.858,-84.473,-36.133,-33.203,-220.215,0.000
1606129700.862,-62.988,-27.344,-26.367,-172.363,0.000
1606129700.866,11.230,-20.020,-16.602,58.594,0.000
1606129700.870,35.645,-27.832,-20.996,148.926,0.000
1606129700.874,-17.090,-26.855,-25.879,0.000,0.000
1606129700.878,-83.008,-27.344,-23.926,-187.500,0.000
1606129700.882,-79.590,-33.203,-24.414,-170.898,0.000
1606129700.886,-5.371,-31.250,-20.996,46.875,0.000
1606129700.890,29.785,-26.855,-20.508,168.945,0.000
1606129700.894,-19.043,-30.273,-25.391,46.875,0.000
1606129700.897,-90.332,-35.156,-28.809,-166.992,0.000
1606129700.901,-94.238,-37.598,-28.809,-187.500,0.000
1606129700.905,-18.555,-37.598,-21.484,16.602,0.000
1606129700.909,33.203,-13.672,-16.113,155.273,0.000
1606129700.913,-3.906,-9.766,-22.461,61.523,0.000
1606129700.917,-75.195,-39.062,-25.879,-150.879,0.000
1606129700.921,-91.797,-37.598,-30.273,-208.008,0.000
1606129700.925,-28.809,-23.438,-19.043,-22.949,0.000
1606129700.929,31.250,-16.602,-15.137,149.902,0.000
1606129700.933,9.277,-27.344,-39.551,85.938,0.000
1606129700.937,-63.477,-34.668,-42.480,-131.836,0.000
1606129700.940,-79.590,-30.273,-32.715,-207.031,0.000
1606129700.944,-19.531,-35.645,-22.461,-43.945,0.000
1606129700.948,32.227,-18.555,-20.508,135.254,0.000
1606129700.952,10.254,19.043,-27.832,101.074,0.000
1606129700.956,-62.988,-5.371,-27.832,-120.605,0.000
1606129700.960,-96.191,-38.574,-28.809,-229.980,0.000
1606129700.964,-50.293,-30.762,-36.621,-93.750,0.000
1606129700.968,13.184,-24.902,-38.574,103.516,0.000
1606129700.972,11.230,-29.785,-36.621,108.398,0.000
1606129700.976,-54.199,-33.691,-33.691,-95.215,0.000
1606129700.980,-99.121,-34.180,-31.738,-225.098,0.000
1606129700.983,-64.453,-41.016,-30.762,-120.117,0.000
1606129700.987,5.371,-30.762,-31.250,88.867,0.000
1606129700.991,11.719,-6.836,-28.809,127.930,0.000
1606129700.995,-52.734,-24.902,-23.926,-57.617,0.000
1606129700.999,-104.004,-40.039,-30.273,-205.566,0.000
1606129701.003,-81.055,-35.156,-36.133,-135.254,0.000
1606129701.007,-10.254,-28.809,-36.621,79.102,0.000
1606129701.011,15.137,-23.438,-33.691,151.367,0.000
1606129701.015,-42.480,-28.809,-32.227,-26.855,0.000
1606129701.019,-103.516,-42.969,-34.668,-202.637,0.000
1606129701.022,-83.984,-38.086,-30.762,-154.297,0.000
1606129701.026,-3.906,-23.438,-20.508,68.359,0.000
1606129701.030,32.227,-18.555,-15.137,156.250,0.000
1606129701.034,-15.625,-17.578,-22.461,7.812,0.000
1606129701.038,-85.449,-25.879,-23.926,-172.363,0.000
1606129701.042,-83.984,-37.598,-28.809,-166.016,0.000
1606129701.046,-5.859,-43.457,-26.367,46.387,0.000
1606129701.050,35.156,-10.254,-18.066,160.156,0.000
1606129701.054,-10.742,3.418,-24.902,29.785,0.000
1606129701.058,-74.219,-34.668,-27.832,-175.293,0.000
1606129701.062,-76.660,-40.527,-27.832,-202.637,0.000
1606129701.065,-12.695,-33.203,-23.438,-4.395,0.000
1606129701.069,37.598,-21.973,-19.531,143.555,0.000
1606129701.073,7.812,-20.020,-26.367,50.293,0.000
1606129701.077,-70.312,-36.621,-36.621,-166.504,0.000
1606129701.081,-84.473,-34.668,-40.527,-215.820,0.000
1606129701.085,-10.742,-24.414,-31.250,-16.602,0.000
1606129701.089,47.363,-4.883,-24.414,153.320,0.000
1606129701.093,24.902,-9.277,-26.855,84.961,0.000
1606129701.097,-54.688,-34.180,-31.738,-140.137,0.000
1606129701.101,-83.008,-28.320,-33.203,-218.262,0.000
1606129701.105,-26.367,-20.020,-36.621,-53.711,0.000
1606129701.108,33.691,-22.949,-20.996,125.488,0.000
1606129701.112,21.973,-25.879,-18.066,106.445,0.000
1606129701.116,-57.129,-35.645,-37.598,-108.887,0.000
1606129701.120,-91.797,-43.945,-42.969,-221.191,0.000
1606129701.124,-43.457,-38.086,-31.250,-77.637,0.000
1606129701.128,10.742,-15.137,-20.508,119.629,0.000
1606129701.132,0.488,-6.348,-23.926,117.676,0.000
1606129701.136,-75.195,-34.180,-31.738,-96.191,0.000
1606129701.140,-122.559,-45.898,-33.691,-229.980,0.000
1606129701.144,-81.055,-52.734,-24.902,-111.816,0.000
1606129701.147,-0.977,-33.203,-22.461,111.816,0.000
1606129701.151,15.625,-10.742,-19.043,151.855,0.000
1606129701.155,-52.734,-38.086,-17.578,-46.387,0.000
1606129701.159,-101.074,-47.852,-23.926,-199.219,0.000
1606129701.163,-68.848,-39.062,-21.484,-122.070,0.000
1606129701.167,-6.348,-41.016,-24.902,85.938,0.000
1606129701.171,18.555,-30.762,-27.832,150.391,0.000
1606129701.175,-38.086,-30.762,-29.297,-21.484,0.000
1606129701.179,-96.191,-34.668,-32.715,-197.266,0.000
1606129701.183,-73.242,-29.785,-28.809,-155.273,0.000
1606129701.187,-7.812,-28.809,-26.855,49.805,0.000
1606129701.190,14.648,-17.090,-25.391,135.742,0.000
1606129701.194,-38.574,-19.531,-26.367,-22.461,0.000
1606129701.198,-114.258,-35.645,-36.133,-228.027,0.000
1606129701.202,-108.398,-29.785,-28.809,-210.938,0.000
1606129701.206,-34.180,-22.461,-17.578,3.906,0.000
1606129701.210,-8.789,-19.043,-12.695,106.445,0.000
1606129701.214,-69.824,-16.113,-13.672,-34.180,0.000
1606129701.218,-156.250,-21.973,-17.090,-249.512,0.000
1606129701.222,-167.969,-10.742,-10.254,-276.855,0.000
1606129701.226,-114.258,-6.836,-7.812,-93.262,0.000
1606129701.230,-78.613,18.066,-0.488,37.109,0.000
1606129701.233,-116.699,32.715,8.301,-67.871,0.000
1606129701.237,-206.543,-15.137,3.906,-303.223,0.000
1606129701.241,-224.609,-23.926,0.977,-350.098,0.000
1606129701.245,-164.551,-15.625,0.000,-155.273,0.000
1606129701.249,-121.582,-15.625,5.859,4.883,0.000
1606129701.253,-144.531,-19.531,3.906,-64.453,0.000
1606129701.257,-215.332,-26.367,-6.348,-291.504,0.000
1606129701.261,-236.816,-21.484,-1.465,-365.723,0.000
1606129701.265,-176.270,-13.184,0.488,-194.336,0.000
1606129701.269,-118.652,3.418,-3.906,-11.230,0.000
1606129701.272,-123.535,-3.906,-13.672,-34.180,0.000
1606129701.276,-185.547,-19.043,-24.414,-251.465,0.000
1606129701.280,-219.238,-13.184,-29.297,-359.375,0.000
1606129701.284,-164.062,-14.160,-30.273,-210.449,0.000
1606129701.288,-97.656,5.371,-28.320,-3.906,0.000
1606129701.292,-104.980,0.488,-24.902,-7.324,0.000
1606129701.296,-175.293,-27.344,-21.973,-215.332,0.000
1606129701.300,-209.961,-29.297,-29.785,-332.520,0.000
1606129701.304,-154.785,-17.578,-26.367,-200.684,0.000
1606129701.308,-75.684,-4.883,-28.320,19.043,0.000
1606129701.312,-72.754,-13.672,-42.480,41.992,0.000
1606129701.315,-132.812,-19.043,-42.969,-150.391,0.000
1606129701.319,-159.180,-14.648,-44.434,-287.109,0.000
1606129701.323,-111.816,-24.902,-50.293,-189.941,0.000
1606129701.327,-28.809,-23.438,-40.039,43.945,0.000
1606129701.331,-13.184,-3.906,-41.016,108.398,0.000
1606129701.335,-61.523,-6.836,-50.781,-62.988,0.000
1606129701.339,-93.750,-27.344,-50.781,-217.285,0.000
1606129701.343,-60.547,-33.203,-42.969,-153.809,0.000
1606129701.347,27.344,-26.367,-39.062,79.102,0.000
1606129701.351,64.453,-25.391,-45.898,180.176,0.000
1606129701.355,5.371,-41.016,-52.246,28.809,0.000
1606129701.358,-62.500,-52.246,-53.223,-154.785,0.000
1606129701.362,-40.527,-50.293,-47.363,-120.605,0.000
1606129701.366,41.504,-40.527,-49.316,99.609,0.000
1606129701.370,68.848,-23.438,-46.875,212.402,0.000
1606129701.374,23.438,-30.762,-36.621,90.332,0.000
1606129701.378,-42.480,-50.293,-45.898,-119.141,0.000
1606129701.382,-45.898,-47.363,-51.270,-136.230,0.000
1606129701.386,28.809,-45.410,-42.969,77.148,0.000
1606129701.390,76.660,-51.758,-41.016,216.797,0.000
1606129701.394,41.992,-57.617,-42.480,116.211,0.000
1606129701.397,-19.043,-54.688,-41.504,-87.891,0.000
1606129701.401,-22.949,-48.828,-40.527,-126.953,0.000
1606129701.405,43.457,-41.504,-36.133,61.523,0.000
1606129701.409,94.727,-37.109,-37.598,223.145,0.000
1606129701.413,76.172,-36.621,-40.039,162.109,0.000
1606129701.417,5.371,-44.922,-43.945,-57.617,0.000
1606129701.421,-25.879,-45.410,-47.852,-144.531,0.000
1606129701.425,38.086,-32.227,-39.551,21.973,0.000
1606129701.429,101.074,-20.508,-31.250,206.543,0.000
1606129701.433,76.660,-23.438,-39.062,166.016,0.000
1606129701.437,1.465,-41.992,-44.922,-54.199,0.000
1606129701.440,-24.414,-45.898,-51.270,-151.855,0.000
1606129701.444,22.461,-43.945,-50.293,-6.348,0.000
1606129701.448,77.637,-31.250,-39.551,184.082,0.000
1606129701.452,75.195,-32.715,-40.039,176.758,0.000
1606129701.456,2.930,-42.969,-42.969,-34.668,0.000
1606129701.460,-40.527,-33.691,-41.504,-165.039,0.000
1606129701.464,-5.371,-39.551,-34.180,-54.199,0.000
1606129701.468,51.758,-26.855,-26.367,151.367,0.000
1606129701.472,51.270,-18.066,-36.621,171.875,0.000
1606129701.476,-15.625,-49.316,-50.293,-32.715,0.000
1606129701.480,-61.035,-60.547,-50.781,-173.828,0.000
1606129701.483,-23.438,-62.012,-39.551,-70.801,0.000
1606129701.487,57.617,-54.199,-37.598,150.879,0.000
1606129701.491,68.359,-36.133,-40.527,192.871,0.000
1606129701.495,-4.883,-34.668,-39.551,-4.395,0.000
1606129701.499,-61.035,-40.039,-44.922,-176.758,0.000
1606129701.503,-38.086,-39.551,-37.598,-114.258,0.000
1606129701.507,38.086,-34.668,-29.785,108.887,0.000
1606129701.511,68.848,5.859,-32.227,195.801,0.000
1606129701.515,9.766,1.953,-38.574,24.902,0.000
1606129701.519,-46.875,-45.410,-36.621,-150.879,0.000
1606129701.522,-27.832,-42.480,-31.250,-110.352,0.000
1606129701.526,43.457,-30.762,-32.227,96.680,0.000
1606129701.530,79.102,-23.438,-29.297,207.031,0.000
1606129701.534,34.180,-27.832,-30.273,72.754,0.000
1606129701.538,-33.691,-33.691,-28.320,-123.047,0.000
1606129701.542,-36.621,-36.133,-26.855,-134.277,0.000
1606129701.546,29.297,-39.062,-21.973,71.777,0.000
1606129701.550,75.684,-23.438,-14.160,215.332,0.000
1606129701.554,39.062,-18.555,-14.160,104.492,0.000
1606129701.558,-37.598,-32.227,-20.020,-116.699,0.000
1606129701.562,-55.176,-41.992,-39.062,-164.551,0.000
1606129701.565,8.301,-42.480,-36.133,19.531,0.000
1606129701.569,63.477,-21.973,-20.020,185.547,0.000
1606129701.573,26.855,-26.855,-21.484,110.352,0.000
1606129701.577,-46.387,-44.434,-25.879,-115.234,0.000
1606129701.581,-63.477,-40.039,-28.809,-186.035,0.000
1606129701.585,0.488,-29.297,-24.902,-9.277,0.000
1606129701.589,65.430,-19.043,-25.391,169.922,0.000
1606129701.593,42.480,-24.414,-24.902,122.559,0.000
1606129701.597,-31.250,-32.715,-21.484,-96.191,0.000
1606129701.601,-68.848,-34.668,-34.180,-196.289,0.000
1606129701.605,-22.461,-41.504,-33.203,-50.293,0.000
1606129701.608,41.504,-18.066,-26.367,143.066,0.000
1606129701.612,32.715,13.672,-29.785,131.348,0.000
1606129701.616,-40.527,-15.137,-35.645,-83.496,0.000
1606129701.620,-83.984,-39.062,-31.250,-208.008,0.000
1606129701.624,-34.668,-30.762,-26.367,-77.637,0.000
1606129701.628,36.621,-21.484,-18.555,129.395,0.000
1606129701.632,39.062,-20.020,-17.578,142.090,0.000
1606129701.636,-31.250,-26.367,-30.762,-66.406,0.000
1606129701.640,-82.031,-30.273,-32.715,-219.727,0.000
1606129701.644,-49.316,-30.273,-27.344,-129.395,0.000
1606129701.647,23.926,-17.090,-23.438,93.262,0.000
1606129701.651,31.250,-5.371,-29.297,140.137,0.000
1606129701.655,-33.691,-28.320,-36.133,-55.176,0.000
1606129701.659,-84.961,-41.504,-41.504,-223.633,0.000
1606129701.663,-66.406,-38.574,-34.180,-155.762,0.000
1606129701.667,8.301,-29.785,-24.902,71.777,0.000
1606129701.671,29.297,-29.785,-28.320,148.926,0.000
1606129701.675,-27.832,-42.480,-32.715,-17.578,0.000
1606129701.679,-83.496,-47.363,-38.086,-197.754,0.000
1606129701.683,-73.242,-44.434,-36.621,-171.387,0.000
1606129701.687,12.207,-33.203,-27.832,55.664,0.000
1606129701.690,45.410,-29.785,-23.438,168.945,0.000
1606129701.694,-19.531,-40.527,-21.973,21.973,0.000
1606129701.698,-85.938,-44.922,-23.438,-179.688,0.000
1606129701.702,-83.984,-39.062,-25.391,-185.059,0.000
1606129701.706,-17.578,-41.992,-23.438,16.602,0.000
1606129701.710,22.461,-20.020,-29.785,142.578,0.000
1606129701.714,-14.160,-10.742,-39.551,31.250,0.000
1606129701.718,-80.078,-42.969,-28.809,-175.781,0.000
1606129701.722,-88.867,-47.363,-27.832,-210.449,0.000
1606129701.726,-12.695,-31.738,-24.414,-8.301,0.000
1606129701.730,40.527,-29.785,-17.578,156.250,0.000
1606129701.733,-3.906,-37.598,-20.996,59.570,0.000
1606129701.737,-84.961,-43.457,-30.762,-174.805,0.000
1606129701.741,-92.285,-42.969,-29.785,-218.750,0.000
1606129701.745,-28.809,-41.504,-24.414,-40.039,0.000
1606129701.749,25.879,-20.020,-36.133,131.836,0.000
1606129701.753,12.207,-10.742,-38.574,89.355,0.000
1606129701.757,-56.152,-28.809,-26.855,-119.629,0.000
1606129701.761,-88.867,-40.039,-25.879,-215.820,0.000
1606129701.765,-36.133,-47.363,-23.438,-68.359,0.000
1606129701.769,32.227,-32.715,-17.578,127.441,0.000
1606129701.772,23.926,-26.855,-21.484,108.887,0.000
1606129701.776,-49.316,-40.039,-25.879,-107.910,0.000
1606129701.780,-80.566,-43.457,-29.785,-222.168,0.000
1606129701.784,-31.738,-35.156,-17.578,-85.449,0.000
1606129701.788,32.227,-17.090,-6.348,126.953,0.000
1606129701.792,29.297,6.348,-21.973,139.160,0.000
1606129701.796,-46.387,-11.719,-35.156,-62.988,0.000
1606129701.800,-99.121,-36.621,-36.621,-202.148,0.000
1606129701.804,-57.617,-29.297,-23.438,-109.375,0.000
1606129701.808,18.066,-20.508,-15.625,109.863,0.000
1606129701.812,27.832,-17.578,-17.578,155.273,0.000
1606129701.815,-31.250,-22.949,-18.066,-39.062,0.000
1606129701.819,-78.613,-30.762,-21.484,-195.312,0.000
1606129701.823,-52.734,-32.715,-20.020,-130.371,0.000
1606129701.827,25.879,-22.461,-10.742,85.449,0.000
1606129701.831,50.293,-13.184,-1.953,168.945,0.000
1606129701.835,-12.695,-21.973,-14.160,0.488,0.000
1606129701.839,-76.660,-29.785,-27.832,-191.406,0.000
1606129701.843,-69.336,-29.785,-24.414,-159.668,0.000
1606129701.847,1.465,-26.855,-19.043,56.152,0.000
1606129701.851,33.691,-14.160,-20.996,162.598,0.000
1606129701.855,-24.414,-20.508,-22.949,19.043,0.000
1606129701.858,-100.098,-37.598,-26.367,-183.105,0.000
1606129701.862,-96.680,-36.621,-30.273,-182.617,0.000
1606129701.866,-22.949,-28.809,-25.391,25.879,0.000
1606129701.870,21.973,-27.832,-22.949,156.738,0.000
1606129701.874,-18.555,-41.016,-20.508,45.410,0.000
1606129701.878,-93.262,-47.852,-16.602,-167.480,0.000
1606129701.882,-95.215,-40.527,-18.555,-194.336,0.000
1606129701.886,-18.066,-36.133,-15.137,8.301,0.000
1606129701.890,25.879,-22.949,-17.090,153.320,0.000
1606129701.894,-5.859,-20.508,-25.391,63.965,0.000
1606129701.897,-70.312,-39.551,-26.367,-145.996,0.000
1606129701.901,-86.914,-42.480,-20.996,-203.125,0.000
1606129701.905,-31.738,-44.922,-18.066,-27.344,0.000
1606129701.909,22.949,-37.109,-21.484,150.879,0.000
1606129701.913,4.883,-30.762,-32.715,97.656,0.000
1606129701.917,-63.477,-35.645,-38.086,-123.535,0.000
1606129701.921,-84.961,-36.621,-34.180,-206.543,0.000
1606129701.925,-33.691,-35.156,-29.785,-51.758,0.000
1606129701.929,30.762,-17.090,-21.973,137.695,0.000
1606129701.933,14.160,-8.789,-28.320,109.375,0.000
1606129701.937,-66.406,-26.367,-33.203,-108.887,0.000
1606129701.940,-102.539,-33.203,-28.320,-225.098,0.000
1606129701.944,-53.223,-24.414,-30.762,-101.074,0.000
1606129701.948,18.066,-14.160,-27.344,108.887,0.000
1606129701.952,19.043,-21.973,-24.902,125.488,0.000
1606129701.956,-56.641,-33.203,-31.738,-87.402,0.000
1606129701.960,-102.051,-34.180,-36.133,-229.492,0.000
1606129701.964,-62.500,-35.156,-42.480,-128.906,0.000
1606129701.968,8.301,-26.367,-34.668,86.914,0.000
1606129701.972,25.391,-17.578,-32.715,135.742,0.000
1606129701.976,-34.668,-27.344,-28.809,-49.805,0.000
1606129701.980,-85.449,-39.551,-25.879,-212.891,0.000
1606129701.983,-69.824,-42.969,-41.992,-155.762,0.000
1606129701.987,-2.930,-39.551,-34.180,64.941,0.000
1606129701.991,31.250,0.977,-20.996,154.785,0.000
1606129701.995,-24.414,0.000,-22.461,-7.324,0.000
1606129701.999,-96.191,-41.504,-29.785,-199.219,0.000
1606129702.003,-82.520,-39.551,-24.902,-161.133,0.000
1606129702.007,-3.906,-23.926,-16.113,66.895,0.000
1606129702.011,32.227,-18.066,-17.090,167.969,0.000
1606129702.015,-15.137,-24.414,-31.738,22.949,0.000
1606129702.019,-80.078,-29.297,-41.504,-173.828,0.000
1606129702.022,-74.707,-36.133,-34.668,-170.410,0.000
1606129702.026,-2.930,-37.109,-25.879,41.992,0.000
1606129702.030,31.738,-15.137,-28.320,157.715,0.000
1606129702.034,-15.137,-19.043,-40.039,31.738,0.000
1606129702.038,-83.008,-38.086,-42.480,-169.922,0.000
1606129702.042,-91.309,-37.598,-39.551,-196.289,0.000
1606129702.046,-22.949,-30.762,-26.855,5.859,0.000
1606129702.050,22.461,-27.832,-26.855,152.344,0.000
1606129702.054,-15.137,-32.715,-41.016,61.523,0.000
1606129702.058,-83.008,-33.691,-38.574,-155.762,0.000
1606129702.062,-97.168,-27.344,-34.668,-220.703,0.000
1606129702.065,-31.250,-34.668,-37.109,-34.668,0.000
1606129702.069,25.391,-9.277,-31.250,142.578,0.000
1606129702.073,3.906,17.578,-30.762,81.543,0.000
1606129702.077,-80.078,-28.320,-41.992,-153.320,0.000
1606129702.081,-116.211,-49.805,-47.363,-242.188,0.000
1606129702.085,-54.688,-37.598,-40.039,-77.637,0.000
1606129702.089,8.789,-24.414,-33.691,118.652,0.000
1606129702.093,-3.418,-20.996,-30.273,101.562,0.000
1606129702.097,-76.660,-36.133,-28.809,-115.723,0.000
1606129702.101,-113.770,-43.945,-38.086,-227.051,0.000
1606129702.105,-67.383,-38.574,-41.992,-90.820,0.000
1606129702.108,-2.930,-27.344,-33.203,109.375,0.000
1606129702.112,-0.977,-32.227,-24.414,115.723,0.000
1606129702.116,-64.941,-39.062,-35.156,-85.938,0.000
1606129702.120,-109.375,-35.645,-42.480,-226.562,0.000
1606129702.124,-76.172,-37.109,-40.527,-126.465,0.000
1606129702.128,-2.441,-18.066,-38.086,93.750,0.000
1606129702.132,4.395,-13.184,-29.785,134.277,0.000
1606129702.136,-63.965,-42.480,-35.645,-53.711,0.000
1606129702.140,-109.863,-48.340,-43.945,-209.961,0.000
1606129702.144,-78.613,-44.434,-36.621,-137.695,0.000
1606129702.147,-4.883,-38.574,-34.668,84.961,0.000
1606129702.151,20.020,-29.297,-34.668,160.645,0.000
1606129702.155,-40.527,-37.598,-38.574,-14.648,0.000
1606129702.159,-97.656,-41.992,-44.434,-205.078,0.000
1606129702.163,-79.102,-36.621,-39.062,-168.945,0.000
1606129702.167,-7.324,-39.062,-35.645,55.664,0.000
1606129702.171,20.996,-28.320,-33.203,152.344,0.000
1606129702.175,-30.273,-29.297,-35.645,-2.441,0.000
1606129702.179,-91.309,-50.293,-44.922,-199.219,0.000
1606129702.183,-83.496,-48.828,-45.898,-189.941,0.000
1606129702.187,-11.719,-37.109,-34.668,24.414,0.000
1606129702.190,22.461,-33.203,-25.879,145.508,0.000
1606129702.194,-24.414,-40.039,-34.668,19.043,0.000
1606129702.198,-93.262,-51.270,-47.363,-187.012,0.000
1606129702.202,-103.027,-51.270,-43.457,-210.449,0.000
1606129702.206,-27.344,-44.922,-25.391,1.465,0.000
1606129702.210,28.320,-16.113,-19.531,160.645,0.000
1606129702.214,-12.695,-18.555,-27.832,64.941,0.000
1606129702.218,-81.543,-43.945,-28.320,-149.414,0.000
1606129702.222,-94.727,-43.945,-29.297,-200.684,0.000
1606129702.226,-37.598,-41.504,-20.020,-18.555,0.000
1606129702.230,15.137,-37.598,-12.695,146.973,0.000
1606129702.233,-2.930,-45.898,-24.902,86.914,0.000
1606129702.237,-70.801,-49.316,-36.621,-129.395,0.000
1606129702.241,-88.379,-36.621,-41.504,-208.008,0.000
1606129702.245,-30.273,-32.715,-24.414,-44.922,0.000
1606129702.249,21.484,-38.574,-15.625,138.184,0.000
1606129702.253,12.695,-37.109,-22.949,112.305,0.000
1606129702.257,-51.758,-30.273,-20.996,-99.121,0.000
1606129702.261,-86.914,-26.367,-26.367,-208.984,0.000
1606129702.265,-41.992,-27.344,-20.996,-77.148,0.000
1606129702.269,27.832,-12.207,-19.531,124.023,0.000
1606129702.272,30.762,9.277,-33.691,127.930,0.000
1606129702.276,-36.621,-10.742,-39.062,-82.520,0.000
1606129702.280,-77.148,-30.762,-35.645,-211.426,0.000
1606129702.284,-40.039,-30.273,-29.785,-98.145,0.000
1606129702.288,28.809,-25.879,-24.902,113.770,0.000
1606129702.292,37.109,-26.855,-33.203,149.414,0.000
1606129702.296,-31.250,-35.645,-42.969,-51.270,0.000
1606129702.300,-81.543,-33.691,-36.621,-205.566,0.000
1606129702.304,-51.758,-22.949,-30.762,-120.117,0.000
1606129702.308,18.066,-20.508,-39.062,94.727,0.000
1606129702.312,33.691,-19.531,-40.039,155.273,0.000
1606129702.315,-29.785,-26.367,-32.715,-19.043,0.000
1606129702.319,-87.891,-37.598,-33.691,-193.848,0.000
1606129702.323,-72.266,-37.109,-29.297,-152.832,0.000
1606129702.327,-6.836,-24.414,-25.391,63.477,0.000
1606129702.331,24.902,-19.531,-20.508,159.668,0.000
1606129702.335,-20.996,-31.738,-20.996,5.371,0.000
1606129702.339,-85.449,-36.133,-30.273,-186.035,0.000
1606129702.343,-78.125,-32.715,-28.809,-174.805,0.000
1606129702.347,-1.953,-23.926,-23.438,37.109,0.000
1606129702.351,36.133,0.000,-20.508,163.086,0.000
1606129702.355,-13.672,-7.324,-22.461,34.180,0.000
1606129702.358,-92.285,-38.086,-27.344,-187.012,0.000
1606129702.362,-97.168,-39.551,-29.297,-214.355,0.000
1606129702.366,-20.996,-32.227,-14.648,2.930,0.000
1606129702.370,26.855,-25.391,-5.859,160.156,0.000
1606129702.374,-9.766,-28.320,-20.996,62.988,0.000
1606129702.378,-81.055,-44.434,-33.203,-155.762,0.000
1606129702.382,-89.355,-49.316,-28.320,-205.078,0.000
1606129702.386,-19.043,-34.180,-12.207,-13.672,0.000
1606129702.390,39.551,-28.809,-11.230,161.133,0.000
1606129702.394,15.625,-35.156,-28.320,93.750,0.000
1606129702.397,-61.035,-43.945,-37.109,-133.789,0.000
1606129702.401,-82.031,-46.875,-35.645,-209.473,0.000
1606129702.405,-27.344,-47.852,-35.645,-41.504,0.000
1606129702.409,30.762,-13.672,-29.297,144.531,0.000
1606129702.413,25.391,0.977,-25.879,117.188,0.000
1606129702.417,-47.363,-37.598,-36.621,-105.957,0.000
1606129702.421,-83.008,-43.945,-43.945,-214.355,0.000
1606129702.425,-32.227,-37.598,-29.785,-67.383,0.000
1606129702.429,37.109,-25.879,-20.020,139.648,0.000
1606129702.433,26.855,-22.949,-32.715,138.672,0.000
1606129702.437,-53.711,-34.180,-41.504,-80.566,0.000
1606129702.440,-101.562,-41.016,-43.457,-214.355,0.000
1606129702.444,-64.453,-37.598,-45.898,-101.074,0.000
1606129702.448,12.695,-16.602,-40.039,106.934,0.000
1606129702.452,24.414,3.418,-33.691,137.207,0.000
1606129702.456,-41.016,-20.020,-35.156,-54.199,0.000
1606129702.460,-91.797,-45.410,-39.551,-217.773,0.000
1606129702.464,-59.570,-37.109,-27.344,-133.789,0.000
1606129702.468,12.207,-23.438,-20.996,92.285,0.000
1606129702.472,26.855,-21.484,-25.391,145.508,0.000
1606129702.476,-31.250,-29.785,-31.250,-41.992,0.000
1606129702.480,-86.426,-34.668,-33.691,-214.844,0.000
1606129702.483,-69.824,-36.133,-28.809,-158.203,0.000
1606129702.487,2.930,-24.902,-25.391,62.988,0.000
1606129702.491,26.855,-9.277,-15.137,145.996,0.000
1606129702.495,-36.133,-26.855,-19.531,-14.160,0.000
1606129702.499,-102.539,-43.457,-33.691,-209.961,0.000
1606129702.503,-92.285,-40.527,-22.949,-200.195,0.000
1606129702.507,-15.137,-26.367,-15.625,24.414,0.000
1606129702.511,26.855,-12.695,-15.137,148.438,0.000
1606129702.515,-17.578,-19.043,-17.090,15.625,0.000
1606129702.519,-91.309,-34.668,-34.668,-197.754,0.000
1606129702.522,-96.680,-37.109,-31.250,-208.984,0.000
1606129702.526,-23.438,-35.156,-28.320,1.465,0.000
1606129702.530,21.484,-33.691,-20.996,140.625,0.000
1606129702.534,-12.207,-29.297,-14.160,42.969,0.000
1606129702.538,-80.566,-26.855,-24.414,-162.109,0.000
1606129702.542,-91.309,-30.762,-17.578,-199.219,0.000
1606129702.546,-29.785,-33.691,-9.766,-8.789,0.000
1606129702.550,19.043,-7.812,-10.254,153.809,0.000
1606129702.554,-2.441,3.906,-17.578,91.309,0.000
1606129702.558,-75.195,-30.273,-23.438,-124.512,0.000
1606129702.562,-104.004,-41.504,-24.414,-203.613,0.000
1606129702.565,-41.992,-34.180,-20.996,-31.738,0.000
1606129702.569,26.855,-25.391,-15.137,158.691,0.000
1606129702.573,7.812,-33.203,-19.043,115.723,0.000
1606129702.577,-68.359,-43.945,-39.062,-116.211,0.000
1606129702.581,-92.773,-34.668,-36.133,-221.680,0.000
1606129702.585,-36.621,-26.855,-19.531,-73.730,0.000
1606129702.589,28.320,-0.488,-27.344,122.070,0.000
1606129702.593,18.066,5.859,-42.969,106.445,0.000
1606129702.597,-53.223,-24.902,-43.945,-103.516,0.000
1606129702.601,-97.656,-33.691,-48.340,-232.422,0.000
1606129702.605,-57.617,-38.086,-52.246,-120.117,0.000
1606129702.608,18.555,-28.809,-38.574,93.750,0.000
1606129702.612,24.414,-21.973,-29.785,122.559,0.000
1606129702.616,-45.410,-28.809,-37.109,-77.637,0.000
1606129702.620,-97.168,-31.738,-34.668,-230.469,0.000
1606129702.624,-60.059,-25.879,-19.043,-137.207,0.000
1606129702.628,12.695,-20.020,-17.578,85.449,0.000
1606129702.632,22.949,-2.930,-23.926,139.160,0.000
1606129702.636,-43.457,-19.531,-32.715,-45.898,0.000
1606129702.640,-106.445,-39.062,-35.645,-220.215,0.000
1606129702.644,-90.820,-40.039,-32.715,-168.457,0.000
1606129702.647,-15.625,-35.645,-24.414,48.340,0.000
1606129702.651,4.395,-25.879,-15.625,139.160,0.000
1606129702.655,-54.688,-39.062,-20.508,-13.672,0.000
1606129702.659,-115.723,-54.199,-26.367,-202.637,0.000
1606129702.663,-102.051,-54.199,-28.320,-175.293,0.000
1606129702.667,-21.484,-41.016,-17.578,46.875,0.000
1606129702.671,15.137,-31.250,-3.906,162.109,0.000
1606129702.675,-35.645,-39.062,-20.508,28.320,0.000
1606129702.679,-104.004,-53.711,-37.598,-179.688,0.000
1606129702.683,-102.051,-56.152,-31.738,-191.406,0.000
1606129702.687,-24.902,-42.969,-24.902,14.160,0.000
1606129702.690,17.090,-17.578,-28.809,146.973,0.000
1606129702.694,-23.926,-23.438,-38.574,37.598,0.000
1606129702.698,-91.309,-50.293,-37.598,-173.828,0.000
1606129702.702,-94.238,-45.410,-35.156,-208.008,0.000
1606129702.706,-24.414,-36.621,-24.902,-19.043,0.000
1606129702.710,29.785,-27.344,-20.508,140.625,0.000
1606129702.714,4.395,-28.809,-34.180,63.965,0.000
1606129702.718,-68.848,-40.527,-46.875,-160.645,0.000
1606129702.722,-86.914,-37.598,-49.316,-229.980,0.000
1606129702.726,-20.020,-34.180,-40.039,-49.805,0.000
1606129702.730,40.527,-12.695,-29.297,130.859,0.000
1606129702.733,25.879,7.324,-32.227,86.426,0.000
1606129702.737,-51.758,-30.762,-41.992,-134.766,0.000
1606129702.741,-92.773,-50.293,-39.062,-236.328,0.000
1606129702.745,-42.969,-33.203,-28.809,-85.938,0.000
1606129702.749,20.508,-28.809,-21.973,113.281,0.000
1606129702.753,13.672,-35.156,-18.555,103.516,0.000
1606129702.757,-55.176,-41.016,-25.391,-110.840,0.000
1606129702.761,-94.727,-40.527,-26.855,-233.398,0.000
1606129702.765,-61.035,-38.086,-29.297,-115.234,0.000
1606129702.769,-3.906,-26.855,-36.621,84.961,0.000
1606129702.772,3.906,-20.996,-35.645,109.375,0.000
1606129702.776,-73.242,-38.086,-43.457,-95.703,0.000
1606129702.780,-134.766,-44.434,-55.176,-253.906,0.000
1606129702.784,-97.168,-39.062,-51.270,-161.621,0.000
1606129702.788,-27.832,-25.879,-34.180,65.430,0.000
1606129702.792,-14.160,-23.438,-31.738,123.535,0.000
1606129702.796,-70.801,-37.109,-39.551,-60.059,0.000
1606129702.800,-120.117,-44.434,-27.344,-222.168,0.000
1606129702.804,-87.891,-38.086,-18.066,-154.785,0.000
1606129702.808,-12.207,-29.785,-27.344,69.336,0.000
1606129702.812,11.230,-27.344,-27.832,151.367,0.000
1606129702.815,-39.062,-38.574,-35.156,-4.883,0.000
1606129702.819,-93.262,-37.109,-39.062,-182.129,0.000
1606129702.823,-79.102,-31.738,-35.645,-160.156,0.000
1606129702.827,-4.883,-40.039,-38.086,45.898,0.000
1606129702.831,31.250,-2.930,-38.086,154.785,0.000
1606129702.835,-20.020,1.465,-43.457,21.973,0.000
1606129702.839,-92.773,-41.016,-42.480,-178.711,0.000
1606129702.843,-96.191,-43.945,-41.992,-192.383,0.000
1606129702.847,-24.414,-38.574,-38.574,11.719,0.000
1606129702.851,22.461,-34.180,-28.320,149.414,0.000
1606129702.855,-12.207,-32.715,-28.320,41.016,0.000
1606129702.858,-81.543,-32.715,-24.902,-169.434,0.000
1606129702.862,-89.844,-29.297,-27.344,-201.172,0.000
1606129702.866,-15.625,-21.484,-23.438,3.418,0.000
1606129702.870,29.785,-24.414,-21.484,146.973,0.000
1606129702.874,-7.324,-35.645,-35.645,59.082,0.000
1606129702.878,-74.707,-43.945,-43.945,-142.090,0.000
1606129702.882,-94.727,-43.457,-39.551,-208.984,0.000
