timestamps,TP9,AF7,AF8,TP10,Right AUX
1606131909.449,0.000,0.000,0.000,0.000,0.000
1606131909.453,-0.977,-0.488,0.000,-1.953,0.000
1606131909.457,-0.977,-0.977,-0.977,-1.953,0.000
1606131909.461,11.719,2.441,1.465,29.297,0.000
1606131909.465,-50.781,-14.160,-10.254,-122.070,0.000
1606131909.469,45.898,-23.926,-24.414,125.488,0.000
1606131909.473,203.125,-13.672,-26.855,553.711,0.000
1606131909.477,37.598,-25.879,-36.621,174.805,0.000
1606131909.480,-215.332,-33.691,-38.086,-464.844,0.000
1606131909.484,-230.469,-34.668,-25.391,-529.297,0.000
1606131909.488,38.574,-24.902,-13.672,111.816,0.000
1606131909.492,216.309,-14.160,-15.137,575.195,0.000
1606131909.496,91.309,-22.949,-24.414,274.414,0.000
1606131909.500,-152.832,-39.062,-39.551,-365.234,0.000
1606131909.504,-188.965,-37.109,-43.945,-506.348,0.000
1606131909.508,58.105,-20.508,-28.809,70.312,0.000
1606131909.512,246.094,-10.742,-19.043,572.754,0.000
1606131909.516,155.762,-7.812,-14.160,373.535,0.000
1606131909.520,-95.703,-27.832,-27.832,-276.367,0.000
1606131909.523,-181.152,-41.992,-49.805,-527.344,0.000
1606131909.527,39.062,-25.391,-38.086,-17.090,0.000
1606131909.531,257.812,-2.930,-15.137,541.504,0.000
1606131909.535,178.711,-11.230,-27.344,427.246,0.000
1606131909.539,-72.266,-38.086,-44.922,-229.492,0.000
1606131909.543,-178.711,-47.852,-42.480,-543.945,0.000
1606131909.547,-6.836,-29.785,-27.344,-96.191,0.000
1606131909.551,232.910,-4.883,-17.578,506.836,0.000
1606131909.555,209.961,-8.301,-21.484,490.234,0.000
1606131909.559,-51.758,-32.227,-34.180,-148.438,0.000
1606131909.563,-186.035,-36.133,-38.574,-541.016,0.000
1606131909.566,-30.762,9.766,-25.879,-174.316,0.000
1606131909.570,194.336,27.832,-25.879,438.965,0.000
1606131909.574,201.660,-12.207,-28.320,507.324,0.000
1606131909.578,-46.387,-46.387,-38.574,-85.449,0.000
1606131909.582,-216.309,-55.664,-45.410,-541.992,0.000
1606131909.586,-90.332,-41.504,-35.645,-271.484,0.000
1606131909.590,165.527,-24.414,-17.578,375.000,0.000
1606131909.594,209.473,-18.066,-15.137,557.617,0.000
1606131909.598,-22.461,-27.344,-37.109,11.230,0.000
1606131909.602,-213.867,-44.922,-44.922,-523.926,0.000
1606131909.605,-125.000,-41.016,-30.273,-344.727,0.000
1606131909.609,131.836,-33.203,-15.625,315.918,0.000
1606131909.613,217.285,-4.883,-18.066,571.289,0.000
1606131909.617,9.766,2.930,-35.156,77.148,0.000
1606131909.621,-213.867,-45.898,-50.781,-494.629,0.000
1606131909.625,-162.109,-49.805,-41.016,-415.527,0.000
1606131909.629,98.633,-23.926,-24.414,231.934,0.000
1606131909.633,210.449,-16.602,-24.902,563.965,0.000
1606131909.637,36.133,-28.809,-35.645,149.414,0.000
1606131909.641,-188.965,-41.992,-44.434,-447.266,0.000
1606131909.645,-180.664,-40.527,-46.875,-469.727,0.000
1606131909.648,65.430,-26.855,-39.551,146.973,0.000
1606131909.652,217.773,-17.090,-24.414,560.059,0.000
1606131909.656,68.359,-25.391,-32.227,227.539,0.000
1606131909.660,-175.293,-49.316,-53.223,-398.926,0.000
1606131909.664,-192.871,-25.391,-51.270,-507.324,0.000
1606131909.668,32.227,15.137,-38.574,57.129,0.000
1606131909.672,200.684,-7.324,-29.785,517.090,0.000
1606131909.676,94.238,-30.273,-27.832,283.691,0.000
1606131909.680,-153.320,-39.062,-39.062,-350.586,0.000
1606131909.684,-208.496,-40.039,-44.434,-544.434,0.000
1606131909.688,-2.441,-34.668,-27.832,-36.621,0.000
1606131909.691,190.430,-17.578,-19.043,478.027,0.000
1606131909.695,117.188,-21.484,-29.297,340.332,0.000
1606131909.699,-143.066,-45.410,-46.387,-299.805,0.000
1606131909.703,-229.980,-50.293,-46.387,-583.496,0.000
1606131909.707,-24.902,-31.738,-28.809,-118.164,0.000
1606131909.711,188.965,-22.949,-14.648,457.031,0.000
1606131909.715,142.090,-0.488,-20.020,404.297,0.000
1606131909.719,-114.258,-13.184,-32.715,-224.609,0.000
1606131909.723,-238.281,-58.105,-37.598,-576.660,0.000
1606131909.727,-77.148,-47.852,-31.738,-195.312,0.000
1606131909.730,156.250,-28.809,-16.113,411.133,0.000
1606131909.734,157.227,-26.855,-12.207,451.660,0.000
1606131909.738,-88.379,-41.016,-22.949,-153.809,0.000
1606131909.742,-254.395,-50.293,-31.738,-589.844,0.000
1606131909.746,-109.863,-39.551,-23.926,-291.016,0.000
1606131909.750,131.836,-27.344,-14.648,323.242,0.000
1606131909.754,164.062,-19.531,-17.578,461.426,0.000
1606131909.758,-52.246,-31.738,-26.855,-67.383,0.000
1606131909.762,-243.652,-51.758,-33.203,-571.777,0.000
1606131909.766,-144.043,-2.930,-28.809,-368.652,0.000
1606131909.770,115.234,30.762,-16.602,286.621,0.000
1606131909.773,187.988,-10.254,-12.695,520.996,0.000
1606131909.777,-16.602,-30.273,-23.438,11.230,0.000
1606131909.781,-226.074,-42.480,-35.156,-542.969,0.000
1606131909.785,-159.180,-38.086,-33.203,-430.664,0.000
1606131909.789,99.121,-18.066,-7.812,223.633,0.000
1606131909.793,193.848,-15.137,-4.883,535.645,0.000
1606131909.797,19.043,-30.273,-29.785,100.586,0.000
1606131909.801,-215.332,-41.504,-37.598,-484.375,0.000
1606131909.805,-206.055,-38.086,-33.203,-478.027,0.000
1606131909.809,50.293,-25.391,-25.391,139.160,0.000
1606131909.813,190.430,-6.348,-21.484,534.668,0.000
1606131909.816,41.992,6.348,-29.297,195.801,0.000
1606131909.820,-206.055,-26.855,-43.457,-444.336,0.000
1606131909.824,-224.609,-42.480,-41.016,-541.504,0.000
1606131909.828,26.855,-19.531,-24.902,68.359,0.000
1606131909.832,198.242,-7.324,-16.113,534.180,0.000
1606131909.836,83.496,-18.066,-20.020,262.207,0.000
1606131909.840,-170.898,-43.457,-30.762,-391.602,0.000
1606131909.844,-239.258,-43.457,-32.227,-570.801,0.000
1606131909.848,-7.812,-18.555,-28.809,-17.578,0.000
1606131909.852,179.688,-8.301,-26.367,491.211,0.000
1606131909.855,84.473,-22.461,-28.320,314.941,0.000
1606131909.859,-178.711,-45.410,-37.109,-339.844,0.000
1606131909.863,-257.324,-51.758,-35.156,-608.887,0.000
1606131909.867,-48.340,-38.574,-29.297,-117.676,0.000
1606131909.871,151.367,-20.508,-17.090,456.055,0.000
1606131909.875,107.910,-10.254,-13.672,382.324,0.000
1606131909.879,-140.625,-32.715,-34.668,-264.160,0.000
1606131909.883,-264.160,-50.293,-42.480,-610.352,0.000
1606131909.887,-77.637,-32.715,-31.250,-197.266,0.000
1606131909.891,167.480,-22.461,-18.066,422.363,0.000
1606131909.895,160.156,8.301,-13.672,456.055,0.000
1606131909.898,-102.051,42.480,-39.551,-168.457,0.000
1606131909.902,-260.254,1.953,-47.363,-595.215,0.000
1606131909.906,-110.352,-34.668,-36.133,-272.461,0.000
1606131909.910,142.578,-21.484,-34.668,365.723,0.000
1606131909.914,171.875,-15.137,-34.668,478.027,0.000
1606131909.918,-86.914,-30.273,-41.016,-102.051,0.000
1606131909.922,-276.367,-43.457,-45.410,-592.285,0.000
1606131909.926,-143.066,-36.621,-42.480,-310.059,0.000
1606131909.930,131.348,-15.137,-17.090,364.258,0.000
1606131909.934,176.758,-8.301,-17.090,508.789,0.000
1606131909.938,-46.387,-24.414,-43.457,-23.926,0.000
1606131909.941,-252.930,-38.086,-48.340,-558.594,0.000
1606131909.945,-170.898,-33.691,-45.898,-419.922,0.000
1606131909.949,97.656,-23.926,-32.227,227.051,0.000
1606131909.953,190.430,-2.441,-19.043,522.461,0.000
1606131909.957,-15.137,27.832,-22.949,76.660,0.000
1606131909.961,-236.816,-13.672,-49.805,-513.672,0.000
1606131909.965,-191.895,-43.457,-52.246,-485.352,0.000
1606131909.969,71.777,-21.973,-27.832,164.551,0.000
1606131909.973,209.473,-10.742,-22.949,544.922,0.000
1606131909.977,42.480,-24.414,-26.367,160.156,0.000
1606131909.980,-218.750,-49.316,-33.691,-461.914,0.000
1606131909.984,-208.008,-43.457,-16.602,-501.465,0.000
1606131909.988,54.688,-29.785,-5.859,120.605,0.000
1606131909.992,200.684,-24.902,-16.113,555.176,0.000
1606131909.996,52.246,-28.320,-25.391,244.629,0.000
1606131910.000,-200.684,-50.781,-43.945,-407.227,0.000
1606131910.004,-241.699,-55.176,-39.062,-560.059,0.000
1606131910.008,-7.324,-41.016,-15.137,9.277,0.000
1606131910.012,184.570,-33.203,-3.418,521.484,0.000
1606131910.016,80.566,-33.203,-11.719,317.871,0.000
1606131910.020,-185.059,-51.758,-28.809,-343.262,0.000
1606131910.023,-261.719,-59.082,-26.855,-590.820,0.000
1606131910.027,-42.480,-40.039,-10.254,-86.426,0.000
1606131910.031,163.574,-27.832,-10.742,463.379,0.000
1606131910.035,106.445,-6.348,-9.766,373.047,0.000
1606131910.039,-162.598,-12.695,-21.973,-280.762,0.000
1606131910.043,-291.992,-48.340,-29.297,-623.535,0.000
1606131910.047,-108.887,-48.340,-9.277,-187.988,0.000
1606131910.051,128.906,-32.715,3.906,421.875,0.000
1606131910.055,87.402,-27.832,-7.812,396.484,0.000
1606131910.059,-202.637,-40.527,-12.695,-276.367,0.000
1606131910.063,-354.980,-45.410,-8.789,-698.730,0.000
1606131910.066,-203.613,-25.879,-2.441,-357.422,0.000
1606131910.070,30.762,-5.859,11.719,258.789,0.000
1606131910.074,21.484,-6.348,16.602,326.660,0.000
1606131910.078,-245.605,-22.949,0.488,-290.039,0.000
1606131910.082,-436.523,-35.645,-13.672,-779.785,0.000
1606131910.086,-295.410,-21.484,6.348,-518.555,0.000
1606131910.090,-52.246,-11.230,21.973,124.512,0.000
1606131910.094,-29.785,8.301,23.926,293.945,0.000
1606131910.098,-245.605,8.789,15.625,-249.023,0.000
1606131910.102,-441.406,-26.367,-5.859,-772.461,0.000
1606131910.105,-350.586,-24.902,-3.906,-611.328,0.000
1606131910.109,-94.238,-8.301,14.648,38.574,0.000
1606131910.113,-20.020,-0.488,17.578,302.734,0.000
1606131910.117,-234.375,-18.066,-1.465,-184.082,0.000
1606131910.121,-447.754,-38.086,-13.184,-746.582,0.000
1606131910.125,-386.230,-33.203,-12.207,-666.016,0.000
1606131910.129,-112.793,-20.020,-3.418,-10.254,0.000
1606131910.133,21.484,-7.812,1.953,351.562,0.000
1606131910.137,-140.625,-13.184,-3.906,-42.480,0.000
1606131910.141,-366.211,-34.180,-10.742,-640.137,0.000
1606131910.145,-352.051,-26.367,-19.531,-649.902,0.000
1606131910.148,-82.031,-13.672,-16.113,-8.789,0.000
1606131910.152,77.148,-15.137,-15.137,426.758,0.000
1606131910.156,-50.781,-31.250,-31.250,117.188,0.000
1606131910.160,-279.297,-58.105,-46.387,-501.953,0.000
1606131910.164,-294.434,-53.223,-43.457,-604.980,0.000
1606131910.168,-30.273,-31.250,-19.531,0.000,0.000
1606131910.172,175.293,-21.973,-11.719,506.836,0.000
1606131910.176,79.590,-12.695,-26.367,288.574,0.000
1606131910.180,-170.410,-40.527,-41.016,-352.051,0.000
1606131910.184,-226.074,-62.988,-46.387,-556.641,0.000
1606131910.188,21.973,-45.410,-35.156,-27.832,0.000
1606131910.191,230.957,-29.785,-26.855,528.320,0.000
1606131910.195,148.438,-35.645,-32.715,406.738,0.000
1606131910.199,-103.027,-59.570,-44.922,-244.629,0.000
1606131910.203,-191.895,-64.941,-50.293,-536.133,0.000
1606131910.207,12.207,-46.875,-40.039,-67.871,0.000
1606131910.211,241.211,-31.250,-25.879,521.484,0.000
1606131910.215,207.031,-28.809,-32.227,482.910,0.000
1606131910.219,-56.152,-45.898,-47.363,-158.691,0.000
1606131910.223,-190.918,-55.176,-43.945,-524.414,0.000
1606131910.227,-25.391,-40.039,-41.992,-141.113,0.000
1606131910.230,213.379,-36.621,-38.086,462.402,0.000
1606131910.234,214.355,-14.160,-34.668,517.578,0.000
1606131910.238,-34.180,-2.930,-48.828,-87.891,0.000
1606131910.242,-195.801,-49.805,-58.105,-529.297,0.000
1606131910.246,-53.223,-55.176,-52.246,-231.445,0.000
1606131910.250,200.684,-35.156,-35.645,414.062,0.000
1606131910.254,234.375,-29.785,-27.344,573.242,0.000
1606131910.258,16.602,-47.363,-36.133,6.348,0.000
1606131910.262,-170.410,-64.453,-47.852,-502.441,0.000
1606131910.266,-84.473,-56.152,-41.992,-296.387,0.000
1606131910.270,178.711,-37.109,-31.250,358.887,0.000
1606131910.273,259.277,-22.461,-30.273,602.051,0.000
1606131910.277,52.246,-28.809,-44.434,101.074,0.000
1606131910.281,-165.039,-55.664,-56.641,-468.750,0.000
1606131910.285,-106.934,-54.199,-50.781,-366.211,0.000
1606131910.289,161.621,-28.320,-34.180,292.480,0.000
1606131910.293,269.043,-20.020,-29.297,600.586,0.000
1606131910.297,64.941,-39.062,-49.316,155.273,0.000
1606131910.301,-165.527,-58.594,-57.129,-434.570,0.000
1606131910.305,-131.836,-57.617,-45.410,-417.480,0.000
1606131910.309,129.395,-33.691,-31.738,214.844,0.000
1606131910.313,268.066,-17.090,-26.855,614.258,0.000
1606131910.316,101.562,-22.461,-39.551,262.207,0.000
1606131910.320,-147.461,-49.316,-51.270,-375.488,0.000
1606131910.324,-167.969,-60.059,-48.828,-476.074,0.000
1606131910.328,62.988,-40.527,-31.250,118.164,0.000
1606131910.332,247.559,-17.090,-20.020,584.961,0.000
1606131910.336,127.930,-11.230,-30.762,327.637,0.000
1606131910.340,-145.020,-39.551,-48.828,-323.730,0.000
1606131910.344,-189.941,-54.688,-50.781,-527.832,0.000
1606131910.348,44.922,-33.691,-31.738,26.367,0.000
1606131910.352,223.145,-19.531,-14.648,557.129,0.000
1606131910.355,125.488,-22.949,-23.926,387.695,0.000
1606131910.359,-138.184,-41.504,-43.945,-282.227,0.000
1606131910.363,-228.516,-50.781,-45.898,-573.730,0.000
1606131910.367,-17.090,-40.039,-28.320,-86.426,0.000
1606131910.371,199.707,-29.297,-20.508,486.816,0.000
1606131910.375,149.902,-17.090,-29.297,420.410,0.000
1606131910.379,-111.816,-30.273,-34.180,-225.586,0.000
1606131910.383,-233.398,-47.852,-34.180,-577.148,0.000
1606131910.387,-52.246,-33.203,-20.020,-175.293,0.000
1606131910.391,188.477,-17.578,-7.812,438.477,0.000
1606131910.395,181.152,-12.207,-21.973,476.074,0.000
1606131910.398,-77.148,-32.227,-36.133,-144.531,0.000
1606131910.402,-231.934,-48.828,-42.480,-572.754,0.000
1606131910.406,-91.309,-33.203,-30.273,-252.441,0.000
1606131910.410,164.551,-18.555,-20.508,393.066,0.000
1606131910.414,207.520,-9.277,-23.926,516.113,0.000
1606131910.418,-63.965,-16.113,-37.598,-78.613,0.000
1606131910.422,-260.254,-46.387,-50.781,-573.242,0.000
1606131910.426,-129.395,-41.504,-37.598,-331.543,0.000
1606131910.430,132.812,-18.066,-21.973,317.871,0.000
1606131910.434,201.172,-15.137,-20.020,531.738,0.000
1606131910.438,-28.809,-36.621,-40.527,8.789,0.000
1606131910.441,-240.723,-52.734,-60.059,-541.504,0.000
1606131910.445,-162.598,-43.945,-45.898,-405.762,0.000
1606131910.449,99.121,-33.203,-27.832,247.559,0.000
1606131910.453,198.730,-14.160,-22.949,540.039,0.000
1606131910.457,-4.883,-16.113,-31.250,88.379,0.000
1606131910.461,-236.328,-50.781,-41.016,-507.812,0.000
1606131910.465,-198.730,-50.293,-35.156,-477.051,0.000
1606131910.469,60.059,-32.715,-18.555,164.551,0.000
1606131910.473,194.336,-9.277,-18.066,536.133,0.000
1606131910.477,28.320,-11.230,-30.762,155.762,0.000
1606131910.480,-219.238,-45.898,-46.875,-471.680,0.000
1606131910.484,-229.492,-48.340,-45.898,-540.527,0.000
1606131910.488,37.598,-22.461,-23.438,67.383,0.000
1606131910.492,206.543,-15.137,-15.625,520.508,0.000
1606131910.496,43.945,-31.738,-28.809,210.449,0.000
1606131910.500,-207.031,-43.457,-44.434,-434.082,0.000
1606131910.504,-237.305,-39.551,-40.527,-560.059,0.000
1606131910.508,-2.441,-23.926,-26.367,2.441,0.000
1606131910.512,193.848,-21.484,-20.508,510.742,0.000
1606131910.516,92.285,-11.230,-22.949,317.383,0.000
1606131910.520,-169.922,-13.184,-30.762,-332.520,0.000
1606131910.523,-244.141,-38.574,-38.086,-583.496,0.000
1606131910.527,-27.344,-33.203,-35.156,-80.078,0.000
1606131910.531,190.918,-20.996,-24.414,489.258,0.000
1606131910.535,134.277,-25.879,-22.461,394.043,0.000
1606131910.539,-122.070,-40.527,-39.551,-246.094,0.000
1606131910.543,-239.746,-44.922,-36.621,-566.406,0.000
1606131910.547,-60.059,-29.297,-24.414,-136.230,0.000
1606131910.551,165.527,-20.508,-25.879,460.938,0.000
1606131910.555,136.230,-5.859,-23.438,458.008,0.000
1606131910.559,-124.023,-16.113,-35.156,-177.734,0.000
1606131910.563,-264.648,-44.434,-39.551,-594.238,0.000
1606131910.566,-113.281,-39.551,-29.785,-247.070,0.000
1606131910.570,129.883,-26.367,-20.508,383.789,0.000
1606131910.574,149.414,-20.996,-21.484,468.750,0.000
1606131910.578,-92.285,-36.621,-35.645,-127.930,0.000
1606131910.582,-267.578,-47.363,-48.828,-598.633,0.000
1606131910.586,-144.531,-40.039,-44.434,-346.680,0.000
1606131910.590,121.094,-24.902,-29.297,312.012,0.000
1606131910.594,181.641,-9.277,-22.461,519.043,0.000
1606131910.598,-42.969,-18.066,-28.809,-17.578,0.000
1606131910.602,-244.141,-38.574,-38.574,-554.199,0.000
1606131910.605,-162.598,-30.273,-31.738,-397.461,0.000
1606131910.609,107.910,-15.137,-19.043,256.348,0.000
1606131910.613,204.102,19.531,-19.531,532.715,0.000
1606131910.617,-5.371,41.504,-33.691,54.199,0.000
1606131910.621,-232.422,-23.438,-42.480,-531.250,0.000
1606131910.625,-189.453,-56.152,-38.574,-477.051,0.000
1606131910.629,69.336,-30.273,-23.438,180.176,0.000
1606131910.633,183.594,-19.531,-17.578,535.645,0.000
1606131910.637,9.766,-33.203,-25.391,131.836,0.000
1606131910.641,-234.375,-52.734,-37.598,-476.074,0.000
1606131910.645,-223.633,-55.664,-41.504,-522.949,0.000
1606131910.648,31.250,-42.969,-29.297,87.891,0.000
1606131910.652,172.852,-17.578,-19.531,520.996,0.000
1606131910.656,33.691,1.465,-19.531,212.402,0.000
1606131910.660,-218.262,-33.203,-32.227,-416.504,0.000
1606131910.664,-254.395,-62.012,-35.645,-549.805,0.000
1606131910.668,-8.301,-40.527,-20.996,20.020,0.000
1606131910.672,175.293,-23.926,-8.301,515.137,0.000
1606131910.676,62.500,-32.715,-13.184,290.039,0.000
1606131910.680,-190.918,-49.316,-36.133,-359.375,0.000
1606131910.684,-253.906,-49.805,-35.645,-573.242,0.000
1606131910.688,-29.785,-28.809,-14.160,-54.688,0.000
1606131910.691,176.270,-21.484,-10.254,491.211,0.000
1606131910.695,110.352,5.859,-18.066,362.305,0.000
1606131910.699,-143.555,-4.395,-31.250,-282.227,0.000
1606131910.703,-246.582,-54.688,-27.832,-587.891,0.000
1606131910.707,-47.852,-35.645,-15.625,-144.531,0.000
1606131910.711,182.129,-12.207,-7.812,444.824,0.000
1606131910.715,156.738,-16.602,-15.137,418.457,0.000
1606131910.719,-104.492,-41.016,-36.621,-210.449,0.000
1606131910.723,-250.977,-52.734,-47.852,-589.844,0.000
1606131910.727,-79.590,-32.715,-38.574,-219.238,0.000
1606131910.730,165.527,-11.719,-22.461,401.367,0.000
1606131910.734,172.363,1.465,-20.508,473.145,0.000
1606131910.738,-71.289,-9.277,-33.691,-122.070,0.000
1606131910.742,-235.352,-31.250,-42.480,-571.777,0.000
1606131910.746,-109.863,-28.809,-33.203,-295.410,0.000
1606131910.750,137.207,-16.602,-20.020,333.984,0.000
1606131910.754,191.406,4.883,-20.508,494.629,0.000
1606131910.758,-53.223,-12.695,-35.156,-56.641,0.000
1606131910.762,-264.648,-46.875,-44.434,-560.547,0.000
1606131910.766,-161.133,-41.504,-43.457,-370.605,0.000
1606131910.770,98.145,-32.227,-31.738,276.855,0.000
1606131910.773,177.246,-18.555,-23.438,527.832,0.000
1606131910.777,-33.203,-25.879,-27.832,31.738,0.000
1606131910.781,-248.535,-40.039,-39.062,-529.297,0.000
1606131910.785,-189.941,-35.156,-39.551,-439.941,0.000
1606131910.789,74.219,-26.855,-23.438,194.824,0.000
1606131910.793,183.105,-14.160,-16.602,512.207,0.000
1606131910.797,7.812,16.602,-26.367,109.375,0.000
1606131910.801,-223.633,-16.113,-42.480,-478.027,0.000
1606131910.805,-212.402,-51.758,-45.898,-497.070,0.000
1606131910.809,55.176,-30.762,-26.367,129.395,0.000
1606131910.813,202.148,-22.461,-13.184,540.527,0.000
1606131910.816,45.410,-28.320,-22.949,202.637,0.000
1606131910.820,-200.195,-45.898,-41.504,-429.199,0.000
1606131910.824,-221.680,-46.387,-47.363,-540.039,0.000
1606131910.828,23.438,-35.156,-31.250,50.781,0.000
1606131910.832,201.660,-17.090,-17.090,524.414,0.000
1606131910.836,81.055,0.000,-30.762,266.113,0.000
1606131910.840,-183.594,-36.133,-50.293,-381.836,0.000
1606131910.844,-239.258,-62.500,-48.828,-573.242,0.000
1606131910.848,-3.906,-41.016,-27.832,-26.855,0.000
1606131910.852,196.289,-17.578,-8.301,511.230,0.000
1606131910.855,113.770,-22.949,-15.137,357.910,0.000
1606131910.859,-146.484,-46.387,-29.297,-296.387,0.000
1606131910.863,-238.281,-52.246,-34.180,-575.195,0.000
1606131910.867,-40.039,-37.109,-25.879,-100.586,0.000
1606131910.871,177.734,-22.949,-9.766,471.680,0.000
1606131910.875,145.996,-23.926,-17.578,412.109,0.000
1606131910.879,-133.789,-41.992,-40.527,-223.145,0.000
1606131910.883,-274.902,-54.199,-46.387,-581.543,0.000
1606131910.887,-94.238,-43.457,-35.156,-193.359,0.000
1606131910.891,142.090,-38.574,-17.578,415.039,0.000
1606131910.895,143.066,10.742,-18.555,449.707,0.000
1606131910.898,-104.980,39.551,-35.156,-162.109,0.000
1606131910.902,-261.719,-30.762,-38.574,-589.355,0.000
1606131910.906,-120.605,-47.852,-28.809,-279.297,0.000
1606131910.910,127.441,-26.367,-17.090,355.469,0.000
1606131910.914,159.668,-27.344,-11.230,493.164,0.000
1606131910.918,-77.637,-43.457,-25.879,-73.242,0.000
1606131910.922,-264.160,-49.316,-40.039,-577.637,0.000
1606131910.926,-148.926,-34.180,-33.691,-357.422,0.000
1606131910.930,109.863,-27.832,-20.508,291.992,0.000
1606131910.934,170.898,-7.324,-9.766,506.348,0.000
1606131910.938,-46.875,-8.301,-22.461,-7.812,0.000
1606131910.941,-252.441,-52.734,-43.945,-555.664,0.000
1606131910.945,-188.965,-47.363,-41.992,-441.406,0.000
1606131910.949,73.242,-23.926,-24.902,215.332,0.000
1606131910.953,181.152,-17.578,-16.113,520.996,0.000
1606131910.957,0.488,-31.250,-28.320,65.918,0.000
1606131910.961,-229.980,-52.734,-40.527,-515.137,0.000
1606131910.965,-210.449,-47.363,-36.621,-485.840,0.000
1606131910.969,51.270,-26.855,-25.391,153.809,0.000
1606131910.973,190.918,-16.602,-18.066,548.340,0.000
1606131910.977,45.898,-1.465,-21.484,194.824,0.000
1606131910.980,-194.824,-24.902,-33.691,-449.707,0.000
1606131910.984,-190.918,-50.293,-35.156,-487.793,0.000
1606131910.988,57.617,-35.156,-23.438,133.789,0.000
1606131910.992,196.289,-23.926,-19.043,520.508,0.000
1606131910.996,62.988,-27.344,-30.273,245.605,0.000
1606131911.000,-189.453,-44.922,-40.527,-392.578,0.000
1606131911.004,-241.699,-45.410,-39.062,-559.570,0.000
1606131911.008,-19.531,-33.691,-27.832,-9.766,0.000
1606131911.012,180.664,-20.996,-17.578,497.070,0.000
1606131911.016,89.844,-20.996,-22.949,313.965,0.000
1606131911.020,-169.922,-45.410,-36.621,-324.219,0.000
1606131911.023,-245.117,-51.758,-37.598,-581.055,0.000
1606131911.027,-33.203,-33.691,-27.344,-92.773,0.000
1606131911.031,180.176,-22.949,-21.484,465.332,0.000
1606131911.035,126.465,-2.441,-28.320,370.605,0.000
1606131911.039,-136.230,-18.066,-38.574,-268.066,0.000
1606131911.043,-249.023,-46.875,-42.969,-603.516,0.000
1606131911.047,-60.547,-29.785,-33.691,-194.336,0.000
1606131911.051,166.992,-12.695,-12.695,415.039,0.000
1606131911.055,150.391,-11.719,-14.648,431.152,0.000
1606131911.059,-105.957,-34.668,-33.691,-203.125,0.000
1606131911.063,-258.789,-49.805,-43.457,-612.305,0.000
1606131911.066,-85.449,-32.227,-40.039,-268.066,0.000
1606131911.070,153.320,-21.484,-25.879,364.746,0.000
1606131911.074,155.762,-5.371,-25.879,464.844,0.000
1606131911.078,-76.172,2.930,-40.527,-120.605,0.000
1606131911.082,-247.070,-31.250,-49.316,-588.867,0.000
1606131911.086,-134.277,-40.527,-37.109,-342.773,0.000
1606131911.090,112.305,-32.227,-15.625,299.316,0.000
1606131911.094,163.574,-30.273,-17.578,496.094,0.000
1606131911.098,-63.477,-48.340,-37.598,-33.691,0.000
1606131911.102,-262.207,-58.105,-39.551,-563.477,0.000
1606131911.105,-195.312,-42.480,-32.715,-415.039,0.000
1606131911.109,63.965,-33.691,-22.949,234.863,0.000
1606131911.113,163.086,-13.672,-13.672,524.902,0.000
1606131911.117,-41.016,-4.883,-25.879,60.059,0.000
1606131911.121,-260.254,-41.992,-34.668,-521.973,0.000
1606131911.125,-217.285,-50.293,-31.250,-477.051,0.000
1606131911.129,44.434,-37.109,-28.320,166.504,0.000
1606131911.133,174.316,-18.066,-21.484,535.156,0.000
1606131911.137,10.254,-10.254,-35.645,149.414,0.000
1606131911.141,-211.914,-41.016,-47.363,-457.031,0.000
1606131911.145,-213.379,-46.387,-36.133,-511.719,0.000
1606131911.148,32.227,-24.902,-18.555,97.656,0.000
1606131911.152,211.426,-16.113,-5.371,548.340,0.000
1606131911.156,105.957,-25.391,-16.113,258.301,0.000
1606131911.160,-152.344,-43.457,-41.504,-368.164,0.000
1606131911.164,-211.914,-55.176,-35.645,-502.930,0.000
1606131911.168,46.387,-38.086,-9.277,81.543,0.000
1606131911.172,246.582,-21.484,-9.277,587.402,0.000
1606131911.176,143.555,-11.230,-20.020,377.441,0.000
1606131911.180,-119.629,-20.020,-33.203,-274.902,0.000
1606131911.184,-181.641,-42.969,-32.227,-515.625,0.000
1606131911.188,31.738,-31.250,-11.230,-7.324,0.000
1606131911.191,225.098,-23.926,-12.695,535.645,0.000
1606131911.195,162.109,-29.297,-24.414,424.805,0.000
1606131911.199,-100.586,-47.852,-39.551,-224.121,0.000
1606131911.203,-205.566,-52.734,-46.875,-541.992,0.000
1606131911.207,-7.812,-31.738,-26.367,-94.238,0.000
1606131911.211,217.285,-20.508,-12.695,492.676,0.000
1606131911.215,195.801,-13.184,-22.461,465.820,0.000
1606131911.219,-76.172,-33.203,-38.086,-167.480,0.000
1606131911.223,-232.910,-59.570,-45.410,-556.152,0.000
1606131911.227,-64.453,-45.898,-32.715,-186.523,0.000
1606131911.230,176.270,-24.902,-13.184,439.453,0.000
1606131911.234,184.570,-23.438,-11.230,501.465,0.000
1606131911.238,-64.941,-41.992,-25.391,-97.656,0.000
1606131911.242,-228.516,-48.828,-31.738,-548.828,0.000
1606131911.246,-103.027,-41.016,-30.762,-289.062,0.000
1606131911.250,155.273,-28.809,-16.113,354.980,0.000
1606131911.254,207.031,-4.883,-12.695,539.551,0.000
1606131911.258,-33.691,-3.418,-25.879,-16.113,0.000
1606131911.262,-221.191,-38.086,-29.785,-537.109,0.000
1606131911.266,-124.512,-41.016,-30.762,-360.352,0.000
1606131911.270,132.812,-20.996,-18.066,285.156,0.000
1606131911.273,216.309,-14.160,-13.184,549.316,0.000
1606131911.277,7.812,-29.785,-24.414,56.641,0.000
1606131911.281,-214.355,-47.852,-27.344,-519.043,0.000
1606131911.285,-163.086,-43.945,-27.832,-433.105,0.000
1606131911.289,98.633,-29.785,-19.043,219.727,0.000
1606131911.293,208.984,-19.043,-15.137,556.641,0.000
1606131911.297,28.809,-28.320,-24.414,141.602,0.000
1606131911.301,-202.148,-43.945,-29.297,-458.496,0.000
1606131911.305,-180.664,-44.434,-24.414,-480.957,0.000
1606131911.309,70.801,-30.762,-16.113,143.066,0.000
1606131911.313,198.242,-22.949,-17.090,554.688,0.000
1606131911.316,46.875,-22.461,-23.926,221.191,0.000
1606131911.320,-199.219,-40.039,-35.156,-419.922,0.000
1606131911.324,-229.004,-47.363,-36.621,-541.016,0.000
1606131911.328,22.949,-26.855,-22.949,50.781,0.000
1606131911.332,210.449,-15.625,-15.137,532.715,0.000
1606131911.336,85.449,-30.762,-19.043,291.504,0.000
1606131911.340,-179.199,-41.992,-28.809,-352.051,0.000
1606131911.344,-233.398,-40.039,-30.273,-556.641,0.000
1606131911.348,-7.812,-32.715,-20.508,-26.367,0.000
1606131911.352,191.895,-20.508,-13.184,514.648,0.000
1606131911.355,111.328,-8.789,-23.926,365.234,0.000
1606131911.359,-153.809,-21.973,-42.480,-300.293,0.000
1606131911.363,-245.117,-40.527,-49.316,-589.355,0.000
1606131911.367,-42.480,-29.297,-32.227,-117.676,0.000
1606131911.371,170.898,-18.555,-20.020,456.055,0.000
1606131911.375,142.578,-20.996,-24.414,409.668,0.000
1606131911.379,-107.422,-33.691,-30.273,-220.215,0.000
1606131911.383,-240.234,-44.434,-41.504,-587.402,0.000
1606131911.387,-57.129,-36.133,-35.156,-197.266,0.000
1606131911.391,182.617,-18.066,-18.066,431.152,0.000
1606131911.395,166.992,-15.137,-25.391,475.098,0.000
1606131911.398,-88.867,-37.109,-41.504,-148.438,0.000
1606131911.402,-241.699,-49.316,-41.504,-579.590,0.000
1606131911.406,-109.863,-39.062,-28.809,-273.926,0.000
1606131911.410,155.762,-20.996,-16.113,366.211,0.000
1606131911.414,193.359,-13.184,-18.555,510.742,0.000
1606131911.418,-64.453,-30.762,-31.250,-62.988,0.000
1606131911.422,-250.488,-45.410,-40.527,-573.242,0.000
1606131911.426,-145.996,-40.039,-36.133,-368.164,0.000
1606131911.430,118.164,-22.461,-22.949,291.016,0.000
1606131911.434,189.941,-16.113,-16.113,526.367,0.000
1606131911.438,-29.297,-22.949,-20.508,17.578,0.000
1606131911.441,-239.258,-34.668,-28.809,-535.156,0.000
1606131911.445,-183.594,-35.645,-29.297,-434.082,0.000
1606131911.449,69.824,-25.391,-19.043,205.078,0.000
1606131911.453,187.988,-6.836,-9.277,516.113,0.000
1606131911.457,4.395,0.000,-24.902,77.637,0.000
1606131911.461,-233.887,-25.879,-33.691,-519.043,0.000
1606131911.465,-211.914,-41.992,-39.551,-507.812,0.000
1606131911.469,49.805,-23.438,-42.480,133.789,0.000
1606131911.473,191.895,-3.906,-24.902,529.297,0.000
1606131911.477,27.344,-21.484,-23.926,166.016,0.000
1606131911.480,-207.520,-44.434,-38.086,-460.938,0.000
1606131911.484,-208.496,-45.898,-43.457,-542.969,0.000
1606131911.488,37.109,-27.832,-26.855,68.359,0.000
1606131911.492,185.547,-12.695,-20.508,530.762,0.000
1606131911.496,52.246,-13.672,-33.691,257.812,0.000
1606131911.500,-199.219,-36.133,-41.992,-382.812,0.000
1606131911.504,-248.047,-50.293,-36.621,-558.594,0.000
1606131911.508,-9.766,-30.273,-29.297,-8.301,0.000
1606131911.512,183.105,-15.625,-24.902,515.137,0.000
1606131911.516,99.121,-21.973,-20.996,336.914,0.000
1606131911.520,-151.367,-39.062,-29.785,-311.035,0.000
1606131911.523,-241.699,-47.852,-35.645,-580.078,0.000
1606131911.527,-37.109,-30.273,-28.809,-94.238,0.000
1606131911.531,179.688,-11.230,-20.508,475.098,0.000
1606131911.535,118.652,-11.230,-20.996,391.602,0.000
1606131911.539,-134.277,-37.598,-37.598,-260.254,0.000
1606131911.543,-249.023,-54.688,-44.922,-611.816,0.000
1606131911.547,-76.660,-33.203,-29.297,-197.266,0.000
1606131911.551,155.762,-10.254,-13.672,416.992,0.000
1606131911.555,136.719,-15.137,-17.578,438.965,0.000
1606131911.559,-106.445,-28.809,-27.344,-183.594,0.000
1606131911.563,-250.977,-44.922,-35.156,-597.168,0.000
1606131911.566,-103.516,-38.574,-29.297,-266.602,0.000
1606131911.570,136.230,-19.531,-21.973,363.770,0.000
1606131911.574,149.414,-19.043,-24.414,474.609,0.000
1606131911.578,-84.961,-35.156,-37.109,-103.516,0.000
1606131911.582,-257.324,-45.410,-49.805,-577.637,0.000
1606131911.586,-146.973,-38.574,-34.668,-339.844,0.000
1606131911.590,121.582,-25.879,-18.066,305.176,0.000
1606131911.594,191.406,-16.113,-18.555,512.207,0.000
1606131911.598,-35.645,-25.879,-21.973,-7.812,0.000
1606131911.602,-235.840,-44.922,-36.133,-543.945,0.000
1606131911.605,-165.527,-41.016,-37.109,-405.762,0.000
1606131911.609,86.914,-22.949,-23.438,235.840,0.000
1606131911.613,178.223,-20.508,-18.066,518.066,0.000
1606131911.617,-10.254,-45.410,-29.785,77.148,0.000
1606131911.621,-226.562,-58.105,-45.410,-499.512,0.000
1606131911.625,-225.586,-46.387,-34.668,-496.582,0.000
1606131911.629,29.785,-24.414,-12.695,123.047,0.000
1606131911.633,144.531,-15.137,-3.906,471.191,0.000
1606131911.637,-55.176,-21.484,-15.625,71.777,0.000
1606131911.641,-290.039,-48.340,-26.855,-547.363,0.000
1606131911.645,-313.965,-56.152,-25.879,-626.953,0.000
1606131911.648,-64.941,-20.996,-19.043,-18.555,0.000
1606131911.652,99.609,-1.465,-7.324,422.852,0.000
1606131911.656,-48.340,-14.648,-25.879,116.699,0.000
1606131911.660,-292.969,-38.086,-48.340,-515.137,0.000
1606131911.664,-318.848,-46.387,-24.902,-639.648,0.000
1606131911.668,-65.430,-32.715,3.418,-63.965,0.000
1606131911.672,132.324,-27.344,0.488,440.430,0.000
1606131911.676,34.180,-28.320,-6.836,257.812,0.000
1606131911.680,-208.008,-44.434,-20.020,-374.512,0.000
1606131911.684,-270.996,-55.176,-37.598,-603.027,0.000
1606131911.688,-48.340,-35.156,-25.879,-91.309,0.000
1606131911.691,172.852,-24.902,-12.207,473.145,0.000
1606131911.695,116.699,-25.879,-12.207,373.047,0.000
1606131911.699,-143.066,-39.551,-24.414,-268.555,0.000
1606131911.703,-239.746,-55.176,-40.039,-591.309,0.000
1606131911.707,-48.340,-37.109,-30.273,-160.156,0.000
1606131911.711,159.180,-22.949,-18.555,433.594,0.000
1606131911.715,142.090,-33.203,-27.344,425.293,0.000
1606131911.719,-110.840,-46.387,-44.922,-193.848,0.000
1606131911.723,-250.488,-48.340,-47.363,-576.172,0.000
1606131911.727,-92.773,-35.645,-36.133,-232.910,0.000
1606131911.730,146.973,-25.391,-20.996,377.441,0.000
1606131911.734,165.527,-28.320,-23.438,458.984,0.000
1606131911.738,-74.707,-44.434,-38.086,-121.094,0.000
1606131911.742,-246.094,-46.875,-43.945,-570.312,0.000
1606131911.746,-119.141,-31.738,-31.738,-313.477,0.000
1606131911.750,136.719,-22.949,-17.090,325.684,0.000
1606131911.754,188.477,11.230,-15.625,509.766,0.000
1606131911.758,-34.668,42.480,-28.809,-24.902,0.000
1606131911.762,-233.887,-16.602,-47.363,-553.711,0.000
1606131911.766,-152.344,-44.434,-40.039,-387.207,0.000
1606131911.770,125.000,-23.438,-20.020,274.902,0.000
1606131911.773,206.055,-3.418,-17.090,541.016,0.000
1606131911.777,-13.672,0.488,-27.344,60.547,0.000
1606131911.781,-225.098,-44.434,-36.621,-507.812,0.000
1606131911.785,-181.641,-50.781,-32.715,-427.246,0.000
1606131911.789,80.078,-33.691,-21.484,210.449,0.000
1606131911.793,203.613,-26.367,-20.020,549.316,0.000
1606131911.797,31.250,-27.344,-19.043,153.320,0.000
1606131911.801,-208.496,-43.945,-27.344,-453.613,0.000
1606131911.805,-204.590,-46.387,-32.227,-481.934,0.000
1606131911.809,56.152,-30.273,-18.066,129.395,0.000
1606131911.813,204.102,-15.137,-12.207,544.434,0.000
1606131911.816,47.852,-10.742,-25.879,230.469,0.000
1606131911.820,-179.199,-36.133,-31.738,-391.602,0.000
1606131911.824,-207.031,-48.340,-20.508,-514.160,0.000
1606131911.828,8.789,-33.691,-17.090,41.504,0.000
1606131911.832,196.289,-17.090,-15.137,524.414,0.000
1606131911.836,91.797,-7.812,-12.695,303.223,0.000
1606131911.840,-167.969,-32.715,-24.902,-350.098,0.000
1606131911.844,-231.445,-45.410,-30.762,-564.941,0.000
1606131911.848,-16.113,-23.926,-22.461,-41.504,0.000
1606131911.852,189.453,-14.648,-15.137,494.629,0.000
1606131911.855,113.770,-22.949,-22.461,351.074,0.000
1606131911.859,-162.109,-38.574,-34.180,-299.805,0.000
1606131911.863,-256.348,-43.457,-36.621,-591.309,0.000
1606131911.867,-55.664,-34.668,-29.785,-145.508,0.000
1606131911.871,159.668,-22.461,-20.020,436.035,0.000
1606131911.875,127.930,6.836,-15.625,412.109,0.000
1606131911.879,-128.418,-13.184,-27.832,-216.309,0.000
1606131911.883,-266.113,-51.758,-39.551,-598.145,0.000
1606131911.887,-85.938,-36.621,-27.344,-229.004,0.000
1606131911.891,149.414,-18.555,-13.672,387.207,0.000
1606131911.895,140.137,-19.531,-25.391,448.730,0.000
1606131911.898,-107.910,-38.086,-44.434,-158.203,0.000
1606131911.902,-270.508,-48.828,-44.922,-596.191,0.000
1606131911.906,-127.930,-31.250,-31.250,-294.922,0.000
1606131911.910,128.906,-13.672,-16.602,346.680,0.000
1606131911.914,167.480,-5.859,-15.625,499.023,0.000
1606131911.918,-71.289,-28.809,-32.715,-62.012,0.000
1606131911.922,-255.371,-58.105,-40.039,-565.918,0.000
1606131911.926,-146.973,-41.504,-31.738,-370.117,0.000
1606131911.930,97.168,-27.344,-13.672,276.367,0.000
1606131911.934,165.527,-2.930,-4.883,527.344,0.000
1606131911.938,-44.434,27.344,-22.949,31.250,0.000
1606131911.941,-254.395,-20.020,-32.227,-534.668,0.000
1606131911.945,-187.988,-47.852,-29.785,-437.012,0.000
1606131911.949,74.219,-33.203,-21.973,205.078,0.000
1606131911.953,186.523,-9.766,-8.789,521.484,0.000
1606131911.957,8.789,3.906,-20.996,97.168,0.000
1606131911.961,-218.262,-32.227,-32.227,-498.535,0.000
1606131911.965,-201.660,-47.852,-28.809,-498.047,0.000
1606131911.969,56.152,-40.039,-16.602,128.906,0.000
1606131911.973,185.547,-23.438,-9.766,527.344,0.000
1606131911.977,18.555,-30.273,-21.484,172.852,0.000
1606131911.980,-226.562,-47.852,-32.715,-461.426,0.000
1606131911.984,-247.070,-47.852,-33.203,-552.734,0.000
1606131911.988,3.418,-34.668,-25.879,41.504,0.000
1606131911.992,181.152,-20.020,-13.184,516.113,0.000
1606131911.996,60.059,-22.949,-18.066,257.812,0.000
1606131912.000,-196.289,-42.480,-46.387,-395.996,0.000
1606131912.004,-249.023,-47.363,-39.062,-576.660,0.000
1606131912.008,-12.695,-33.691,-16.602,-29.785,0.000
1606131912.012,179.688,-28.809,-24.414,489.746,0.000
1606131912.016,87.402,-5.371,-34.180,331.055,0.000
1606131912.020,-167.480,-9.766,-36.621,-313.477,0.000
1606131912.023,-258.789,-52.246,-37.109,-592.773,0.000
1606131912.027,-54.688,-44.434,-29.297,-115.234,0.000
1606131912.031,167.480,-31.250,-17.578,463.379,0.000
1606131912.035,116.699,-33.203,-21.973,396.973,0.000
1606131912.039,-139.160,-45.898,-35.645,-262.695,0.000
1606131912.043,-250.488,-51.270,-40.039,-596.191,0.000
1606131912.047,-86.426,-38.086,-26.855,-179.688,0.000
1606131912.051,147.461,-25.391,-15.137,413.086,0.000
1606131912.055,146.484,4.395,-24.414,441.895,0.000
1606131912.059,-115.234,-9.277,-41.992,-192.871,0.000
1606131912.063,-273.926,-49.805,-44.434,-620.605,0.000
1606131912.066,-128.906,-41.504,-23.926,-297.363,0.000
1606131912.070,125.488,-25.879,-14.648,338.867,0.000
1606131912.074,161.133,-17.578,-30.273,467.285,0.000
1606131912.078,-73.242,-35.645,-42.480,-102.051,0.000
1606131912.082,-259.766,-52.246,-38.086,-587.402,0.000
1606131912.086,-151.367,-41.016,-32.715,-364.258,0.000
1606131912.090,114.746,-26.367,-16.113,295.898,0.000
1606131912.094,184.570,7.324,-12.695,515.137,0.000
1606131912.098,-39.062,2.441,-28.320,-11.719,0.000
1606131912.102,-249.023,-46.875,-35.645,-552.246,0.000
1606131912.105,-181.152,-40.527,-26.367,-429.199,0.000
1606131912.109,91.797,-28.320,-12.695,217.773,0.000
1606131912.113,182.617,-5.859,-14.648,525.879,0.000
1606131912.117,-23.926,5.371,-21.973,83.984,0.000
1606131912.121,-240.723,-42.969,-41.504,-508.789,0.000
1606131912.125,-213.867,-51.758,-43.945,-481.445,0.000
1606131912.129,51.270,-25.391,-23.926,166.016,0.000
1606131912.133,182.129,-21.484,-20.996,535.645,0.000
1606131912.137,9.277,-38.574,-37.109,155.273,0.000
1606131912.141,-229.004,-52.734,-47.363,-458.008,0.000
1606131912.145,-228.516,-45.410,-36.621,-529.297,0.000
1606131912.148,25.879,-31.738,-22.949,73.730,0.000
1606131912.152,181.641,-19.531,-14.160,521.973,0.000
1606131912.156,52.734,-16.602,-25.391,237.793,0.000
1606131912.160,-195.312,-43.457,-38.574,-403.809,0.000
1606131912.164,-238.281,-59.570,-32.227,-567.383,0.000
1606131912.168,-0.977,-37.109,-25.391,-6.836,0.000
1606131912.172,189.453,-14.648,-11.719,498.535,0.000
1606131912.176,94.727,-21.973,-23.926,310.059,0.000
1606131912.180,-168.457,-56.641,-46.875,-338.867,0.000
1606131912.184,-244.141,-55.176,-35.156,-591.797,0.000
1606131912.188,-29.297,-31.250,-22.461,-85.938,0.000
1606131912.191,183.594,-18.066,-14.648,480.469,0.000
1606131912.195,132.812,-4.883,-18.555,386.230,0.000
1606131912.199,-124.512,-23.926,-36.133,-263.184,0.000
1606131912.203,-245.117,-51.758,-43.945,-601.562,0.000
1606131912.207,-72.754,-37.598,-29.785,-176.758,0.000
1606131912.211,155.762,-21.484,-19.043,432.617,0.000
1606131912.215,136.230,-24.902,-14.160,443.359,0.000
1606131912.219,-119.629,-34.668,-14.648,-183.105,0.000
1606131912.223,-263.184,-40.527,-29.785,-585.449,0.000
1606131912.227,-105.957,-28.320,-29.297,-244.629,0.000
1606131912.230,142.578,-16.113,-6.836,386.719,0.000
1606131912.234,160.156,-8.301,-11.230,491.699,0.000
1606131912.238,-89.844,-25.391,-36.621,-104.980,0.000
1606131912.242,-263.184,-49.805,-39.551,-592.773,0.000
1606131912.246,-137.695,-39.062,-36.621,-345.703,0.000
1606131912.250,116.211,-25.391,-28.809,310.059,0.000
1606131912.254,176.270,-19.043,-21.484,511.719,0.000
1606131912.258,-55.176,-31.738,-35.645,-23.438,0.000
1606131912.262,-257.812,-47.363,-44.922,-565.918,0.000
1606131912.266,-165.039,-35.645,-40.527,-420.410,0.000
1606131912.270,99.121,-13.672,-22.949,248.047,0.000
1606131912.273,190.918,-6.348,-12.695,533.691,0.000
1606131912.277,-16.602,-24.902,-29.785,48.340,0.000
1606131912.281,-236.816,-40.039,-38.574,-530.762,0.000
1606131912.285,-185.059,-35.156,-36.133,-458.496,0.000
1606131912.289,84.961,-19.043,-24.414,193.848,0.000
1606131912.293,209.961,-11.719,-19.531,547.363,0.000
1606131912.297,20.996,-31.250,-37.598,138.184,0.000
1606131912.301,-220.215,-56.641,-52.246,-478.516,0.000
1606131912.305,-203.613,-56.641,-50.781,-516.113,0.000
1606131912.309,57.617,-35.645,-30.273,104.980,0.000
1606131912.313,207.520,-24.414,-18.066,535.645,0.000
1606131912.316,73.730,-30.273,-29.297,228.027,0.000
1606131912.320,-184.570,-39.062,-36.621,-408.203,0.000
1606131912.324,-236.328,-48.828,-39.062,-550.293,0.000
1606131912.328,7.324,-28.809,-26.855,28.809,0.000
1606131912.332,190.918,-12.695,-15.625,527.344,0.000
1606131912.336,87.402,-31.250,-32.227,301.270,0.000
1606131912.340,-174.316,-44.922,-44.922,-357.910,0.000
1606131912.344,-243.164,-39.062,-40.039,-585.449,0.000
1606131912.348,-21.484,-23.926,-23.926,-59.570,0.000
1606131912.352,189.453,-16.113,-10.742,484.863,0.000
1606131912.355,112.793,-23.926,-19.531,353.027,0.000
1606131912.359,-160.645,-47.852,-36.133,-298.828,0.000
1606131912.363,-258.301,-47.852,-39.551,-594.238,0.000
1606131912.367,-69.336,-31.250,-31.738,-142.578,0.000
1606131912.371,153.809,-21.484,-21.484,442.871,0.000
1606131912.375,119.141,-24.902,-25.879,417.480,0.000
1606131912.379,-143.066,-37.109,-39.062,-218.262,0.000
1606131912.383,-276.855,-44.434,-45.898,-615.234,0.000
1606131912.387,-109.863,-35.156,-40.527,-262.695,0.000
1606131912.391,145.996,-15.137,-24.902,370.605,0.000
1606131912.395,167.969,-1.465,-18.066,460.938,0.000
1606131912.398,-78.613,-16.602,-40.039,-150.391,0.000
1606131912.402,-255.859,-40.039,-41.504,-607.422,0.000
1606131912.406,-129.883,-30.273,-33.691,-320.312,0.000
1606131912.410,135.742,-5.371,-21.484,323.730,0.000
1606131912.414,185.059,-2.930,-6.836,494.141,0.000
1606131912.418,-66.895,-29.297,-25.391,-59.082,0.000
1606131912.422,-256.348,-40.527,-44.434,-571.777,0.000
1606131912.426,-148.926,-29.297,-30.762,-383.789,0.000
1606131912.430,110.840,-19.043,-10.742,267.090,0.000
1606131912.434,183.594,-13.672,-14.648,515.625,0.000
1606131912.438,-25.879,-24.414,-30.762,25.391,0.000
1606131912.441,-241.699,-47.852,-38.574,-533.691,0.000
1606131912.445,-194.336,-45.898,-36.133,-456.055,0.000
1606131912.449,67.383,-24.902,-26.855,197.754,0.000
1606131912.453,183.105,-20.508,-20.020,536.621,0.000
1606131912.457,2.930,-29.785,-24.414,116.211,0.000
1606131912.461,-229.004,-38.086,-40.039,-485.840,0.000
1606131912.465,-210.938,-40.527,-44.922,-500.000,0.000
1606131912.469,44.434,-30.762,-28.809,125.977,0.000
1606131912.473,190.918,-12.695,-16.113,534.180,0.000
1606131912.477,41.992,9.766,-32.715,201.172,0.000
1606131912.480,-212.891,-18.066,-51.758,-443.848,0.000
1606131912.484,-236.328,-47.852,-45.898,-565.430,0.000
1606131912.488,19.531,-28.809,-26.855,41.992,0.000
1606131912.492,195.801,-18.066,-14.160,520.508,0.000
1606131912.496,81.055,-23.438,-22.461,273.926,0.000
1606131912.500,-169.922,-39.551,-37.109,-367.676,0.000
1606131912.504,-230.957,-42.969,-36.621,-572.266,0.000
1606131912.508,-9.277,-25.879,-25.879,-29.297,0.000
1606131912.512,208.496,-7.324,-11.230,504.395,0.000
1606131912.516,135.742,-10.254,-19.043,347.656,0.000
1606131912.520,-151.855,-34.180,-40.039,-297.852,0.000
1606131912.523,-244.141,-41.504,-46.875,-589.355,0.000
1606131912.527,-37.109,-29.785,-34.668,-131.348,0.000
1606131912.531,181.152,-13.184,-17.578,453.125,0.000
1606131912.535,142.090,-12.695,-15.137,406.738,0.000
1606131912.539,-120.605,-29.785,-29.785,-231.934,0.000
1606131912.543,-249.023,-30.762,-32.715,-592.285,0.000
1606131912.547,-75.684,-19.043,-20.508,-192.871,0.000
1606131912.551,167.480,-11.230,-11.230,431.641,0.000
1606131912.555,160.645,-13.672,-22.461,472.168,0.000
1606131912.559,-104.980,-35.645,-36.133,-149.902,0.000
1606131912.563,-265.137,-51.758,-38.086,-591.797,0.000
1606131912.566,-125.977,-38.574,-28.320,-285.645,0.000
1606131912.570,122.070,-28.809,-12.207,354.980,0.000
1606131912.574,158.203,-26.367,-15.137,485.352,0.000
1606131912.578,-77.637,-35.156,-33.203,-87.891,0.000
1606131912.582,-273.926,-48.340,-34.180,-572.754,0.000
1606131912.586,-164.062,-43.945,-21.973,-364.746,0.000
1606131912.590,109.863,-28.320,-15.625,283.203,0.000
1606131912.594,177.734,-27.832,-13.672,524.414,0.000
1606131912.598,-41.016,-41.504,-30.762,13.184,0.000
1606131912.602,-257.324,-55.664,-53.223,-548.828,0.000
1606131912.605,-182.617,-52.246,-42.480,-436.035,0.000
1606131912.609,87.402,-27.832,-25.391,225.098,0.000
1606131912.613,172.363,-8.301,-21.484,544.434,0.000
1606131912.617,-15.137,-23.438,-34.180,93.750,0.000
1606131912.621,-242.188,-56.152,-38.574,-512.207,0.000
1606131912.625,-215.332,-51.758,-32.715,-497.070,0.000
1606131912.629,49.316,-33.203,-25.879,147.461,0.000
1606131912.633,189.453,-23.926,-11.719,544.922,0.000
1606131912.637,26.367,-24.902,-27.344,182.129,0.000
1606131912.641,-221.680,-44.434,-41.504,-453.613,0.000
1606131912.645,-225.098,-50.781,-32.715,-535.156,0.000
1606131912.648,24.414,-31.738,-20.996,74.707,0.000
1606131912.652,189.941,-17.090,-16.602,528.320,0.000
1606131912.656,62.500,-27.344,-25.391,248.535,0.000
1606131912.660,-191.895,-41.992,-41.992,-394.531,0.000
1606131912.664,-237.305,-41.504,-32.715,-565.918,0.000
1606131912.668,-15.625,-36.621,-19.043,-22.461,0.000
1606131912.672,180.176,-26.855,-18.555,492.188,0.000
1606131912.676,86.914,-11.230,-20.996,331.543,0.000
1606131912.680,-177.734,-26.855,-38.086,-316.895,0.000
1606131912.684,-257.324,-52.734,-45.410,-590.820,0.000
1606131912.688,-50.781,-33.691,-30.273,-100.586,0.000
1606131912.691,167.969,-17.090,-10.254,474.121,0.000
1606131912.695,115.234,-21.484,-10.254,392.578,0.000
1606131912.699,-154.297,-46.387,-27.832,-261.719,0.000
1606131912.703,-280.273,-55.664,-37.109,-606.445,0.000
1606131912.707,-95.215,-32.227,-26.855,-188.965,0.000
1606131912.711,140.137,-26.855,-17.090,413.574,0.000
1606131912.715,133.789,-8.301,-16.113,436.523,0.000
1606131912.719,-111.816,-14.160,-31.738,-179.688,0.000
1606131912.723,-270.996,-47.363,-42.969,-597.656,0.000
1606131912.727,-122.070,-36.621,-26.855,-271.484,0.000
1606131912.730,128.418,-27.344,-13.672,367.676,0.000
1606131912.734,155.273,-23.926,-23.438,481.934,0.000
1606131912.738,-87.891,-34.668,-40.039,-107.422,0.000
1606131912.742,-267.578,-45.410,-41.504,-583.496,0.000
1606131912.746,-152.832,-41.504,-26.367,-344.238,0.000
1606131912.750,110.840,-37.598,-17.578,309.570,0.000
1606131912.754,187.012,-1.465,-12.207,525.391,0.000
1606131912.758,-42.480,21.973,-19.043,-2.930,0.000
1606131912.762,-268.555,-37.598,-44.434,-565.430,0.000
1606131912.766,-189.941,-60.059,-37.598,-428.711,0.000
1606131912.770,78.125,-37.598,-21.973,240.234,0.000
1606131912.773,178.223,-31.250,-19.531,534.668,0.000
1606131912.777,-20.020,-44.434,-27.832,66.406,0.000
1606131912.781,-249.512,-57.129,-45.410,-521.973,0.000
1606131912.785,-212.891,-45.410,-42.969,-474.609,0.000
1606131912.789,59.082,-25.391,-20.508,175.781,0.000
1606131912.793,201.172,-18.555,-7.324,540.527,0.000
1606131912.797,24.902,-33.691,-18.555,147.461,0.000
1606131912.801,-219.727,-47.852,-41.992,-469.238,0.000
1606131912.805,-206.055,-47.852,-39.551,-523.438,0.000
1606131912.809,40.527,-31.738,-19.043,91.309,0.000
1606131912.813,191.895,-17.578,-15.625,538.086,0.000
1606131912.816,57.129,-19.043,-25.879,237.793,0.000
1606131912.820,-203.125,-43.457,-34.668,-405.273,0.000
1606131912.824,-239.258,-52.246,-33.203,-549.316,0.000
1606131912.828,-4.395,-35.645,-24.414,9.277,0.000
1606131912.832,184.570,-16.602,-5.371,508.789,0.000
1606131912.836,90.820,-17.090,-13.672,309.082,0.000
1606131912.840,-165.527,-45.410,-44.434,-352.539,0.000
1606131912.844,-253.906,-52.246,-42.480,-590.820,0.000
1606131912.848,-46.875,-32.715,-23.438,-77.148,0.000
1606131912.852,173.340,-27.832,-17.090,483.398,0.000
1606131912.855,100.098,-1.953,-28.320,371.094,0.000
1606131912.859,-164.551,-1.465,-38.574,-285.645,0.000
1606131912.863,-266.113,-49.316,-41.016,-604.004,0.000
1606131912.867,-70.312,-45.898,-35.645,-166.016,0.000
1606131912.871,168.457,-25.391,-15.625,438.477,0.000
1606131912.875,149.902,-20.020,-2.441,442.383,0.000
1606131912.879,-109.863,-42.480,-25.879,-189.941,0.000
1606131912.883,-260.254,-62.988,-46.387,-602.539,0.000
1606131912.887,-90.820,-49.805,-34.180,-250.488,0.000
1606131912.891,168.945,-23.926,-17.090,397.461,0.000
1606131912.895,173.340,-16.113,-12.207,494.629,0.000
1606131912.898,-72.754,-36.133,-25.879,-105.957,0.000
1606131912.902,-249.512,-48.828,-30.762,-573.242,0.000
1606131912.906,-121.094,-40.527,-21.484,-308.594,0.000
1606131912.910,150.391,-25.391,-5.859,348.633,0.000
1606131912.914,203.613,4.883,-3.906,545.898,0.000
1606131912.918,-29.785,-4.883,-22.949,-9.277,0.000
1606131912.922,-235.840,-44.434,-34.180,-548.340,0.000
1606131912.926,-161.133,-38.086,-36.133,-383.301,0.000
1606131912.930,111.816,-21.973,-19.043,266.113,0.000
1606131912.934,203.125,-14.160,-20.020,527.832,0.000
1606131912.938,-32.715,-31.738,-34.668,42.969,0.000
1606131912.941,-247.559,-49.316,-37.598,-525.391,0.000
1606131912.945,-192.871,-41.016,-32.227,-460.449,0.000
1606131912.949,64.453,-21.484,-16.113,182.129,0.000
1606131912.953,180.176,-12.695,-19.043,522.949,0.000
1606131912.957,6.836,-0.488,-31.738,121.582,0.000
1606131912.961,-221.191,-27.832,-34.668,-481.445,0.000
1606131912.965,-212.402,-54.199,-44.922,-517.090,0.000
1606131912.969,41.016,-32.227,-37.109,103.516,0.000
1606131912.973,196.289,-18.555,-24.414,529.785,0.000
1606131912.977,50.781,-30.273,-34.668,204.590,0.000
1606131912.980,-197.266,-53.223,-42.969,-430.664,0.000
1606131912.984,-227.539,-52.734,-38.086,-553.711,0.000
1606131912.988,18.066,-29.785,-25.879,36.621,0.000
1606131912.992,201.660,-21.973,-23.438,523.926,0.000
1606131912.996,96.680,-11.719,-31.738,285.156,0.000
1606131913.000,-167.480,-31.738,-32.715,-359.863,0.000
1606131913.004,-248.535,-53.711,-37.109,-572.266,0.000
1606131913.008,-22.949,-32.715,-28.809,-46.387,0.000
1606131913.012,186.523,-18.066,-17.090,491.699,0.000
1606131913.016,106.934,-28.320,-34.668,342.285,0.000
1606131913.020,-157.715,-46.387,-49.316,-309.570,0.000
1606131913.023,-254.883,-48.828,-46.875,-603.516,0.000
1606131913.027,-48.340,-37.109,-31.250,-143.555,0.000
1606131913.031,184.570,-23.438,-19.531,454.590,0.000
1606131913.035,140.625,-6.348,-14.648,425.781,0.000
1606131913.039,-134.277,-30.273,-29.785,-219.727,0.000
1606131913.043,-274.414,-57.129,-48.828,-607.422,0.000
1606131913.047,-92.773,-28.809,-33.691,-228.516,0.000
1606131913.051,150.879,-11.230,-24.902,404.785,0.000
1606131913.055,167.480,8.789,-32.227,469.238,0.000
1606131913.059,-93.262,2.930,-42.480,-155.762,0.000
1606131913.063,-285.156,-44.922,-48.828,-613.770,0.000
1606131913.066,-135.742,-40.039,-37.109,-321.289,0.000
1606131913.070,130.859,-22.461,-14.160,333.496,0.000
1606131913.074,172.852,-23.438,-11.230,495.605,0.000
1606131913.078,-67.383,-32.227,-30.273,-60.059,0.000
1606131913.082,-261.719,-41.992,-42.480,-569.824,0.000
1606131913.086,-164.062,-39.062,-38.574,-388.184,0.000
1606131913.090,104.980,-22.949,-19.043,276.367,0.000
1606131913.094,185.547,-8.789,-18.066,535.156,0.000
1606131913.098,-37.109,-18.555,-30.273,20.508,0.000
1606131913.102,-255.371,-47.852,-38.574,-553.711,0.000
1606131913.105,-194.336,-49.805,-34.668,-455.078,0.000
1606131913.109,75.684,-28.809,-17.578,198.730,0.000
1606131913.113,196.777,-16.602,-8.789,540.527,0.000
1606131913.117,19.531,-31.250,-26.367,110.352,0.000
1606131913.121,-228.027,-50.781,-45.898,-501.953,0.000
1606131913.125,-221.191,-45.410,-36.621,-498.047,0.000
1606131913.129,55.176,-26.367,-24.414,133.789,0.000
1606131913.133,202.637,-16.113,-27.832,533.691,0.000
1606131913.137,52.734,-0.977,-28.809,191.895,0.000
1606131913.141,-196.777,-21.973,-38.574,-437.012,0.000
1606131913.145,-227.539,-43.457,-43.945,-542.969,0.000
1606131913.148,22.949,-22.461,-32.227,49.805,0.000
1606131913.152,201.172,-12.695,-19.043,527.832,0.000
1606131913.156,72.754,-24.902,-19.531,274.902,0.000
1606131913.160,-194.824,-44.922,-41.016,-378.906,0.000
1606131913.164,-257.812,-50.293,-45.410,-569.824,0.000
1606131913.168,-21.973,-35.645,-30.273,-21.973,0.000
1606131913.172,184.570,-13.184,-21.973,510.254,0.000
1606131913.176,96.680,-11.230,-24.902,354.492,0.000
1606131913.180,-171.387,-34.180,-32.227,-304.199,0.000
1606131913.184,-266.113,-42.969,-34.668,-593.750,0.000
1606131913.188,-59.082,-32.227,-25.879,-116.211,0.000
1606131913.191,168.945,-15.625,-17.090,474.121,0.000
1606131913.195,124.512,-14.648,-13.184,415.039,0.000
1606131913.199,-141.113,-35.156,-32.227,-235.352,0.000
1606131913.203,-271.484,-46.387,-43.457,-593.750,0.000
1606131913.207,-89.355,-36.621,-22.461,-179.199,0.000
1606131913.211,162.109,-19.531,-13.184,439.453,0.000
1606131913.215,164.062,-11.230,-20.996,468.262,0.000
1606131913.219,-97.168,-22.461,-29.297,-148.438,0.000
1606131913.223,-260.254,-36.621,-36.133,-583.008,0.000
1606131913.227,-104.980,-35.645,-33.203,-270.508,0.000
1606131913.230,163.574,-24.414,-26.855,380.371,0.000
1606131913.234,176.758,-5.859,-24.902,517.578,0.000
1606131913.238,-75.195,-2.441,-29.785,-63.477,0.000
1606131913.242,-258.789,-38.086,-42.969,-569.336,0.000
1606131913.246,-149.902,-39.062,-37.109,-356.445,0.000
1606131913.250,112.793,-17.578,-17.090,299.805,0.000
1606131913.254,185.547,-17.578,-15.625,519.531,0.000
1606131913.258,-42.969,-33.203,-27.344,-11.719,0.000
1606131913.262,-266.602,-48.340,-42.969,-568.359,0.000
1606131913.266,-190.918,-41.992,-44.434,-439.453,0.000
1606131913.270,87.891,-21.484,-23.438,232.910,0.000
1606131913.273,192.383,-22.949,-17.578,538.086,0.000
1606131913.277,-4.883,-36.621,-26.855,83.496,0.000
1606131913.281,-237.305,-48.340,-37.598,-516.113,0.000
1606131913.285,-205.566,-44.434,-37.109,-493.652,0.000
1606131913.289,64.453,-24.902,-12.695,159.668,0.000
1606131913.293,203.125,-1.953,-3.418,546.875,0.000
1606131913.297,33.691,-8.789,-20.508,169.922,0.000
1606131913.301,-219.727,-50.781,-36.621,-466.797,0.000
1606131913.305,-228.027,-52.734,-34.668,-539.551,0.000
1606131913.309,36.133,-32.715,-9.766,83.008,0.000
1606131913.313,213.867,-17.578,4.883,551.758,0.000
1606131913.316,80.566,-15.625,-11.719,270.020,0.000
1606131913.320,-180.176,-36.133,-29.297,-385.254,0.000
1606131913.324,-228.027,-42.480,-23.926,-561.035,0.000
1606131913.328,6.348,-25.879,-18.066,1.465,0.000
1606131913.332,206.055,-11.719,-20.996,524.902,0.000
1606131913.336,107.910,-5.859,-24.414,333.496,0.000
1606131913.340,-166.504,-31.250,-35.156,-335.938,0.000
1606131913.344,-250.488,-47.363,-37.109,-595.215,0.000
1606131913.348,-29.785,-29.297,-18.555,-85.449,0.000
1606131913.352,189.453,-6.836,-5.859,485.352,0.000
1606131913.355,126.465,-1.465,-16.602,389.160,0.000
1606131913.359,-144.531,-30.273,-31.250,-270.996,0.000
1606131913.363,-262.695,-51.270,-37.109,-612.793,0.000
1606131913.367,-70.312,-35.645,-24.902,-191.406,0.000
1606131913.371,171.387,-22.949,-11.230,420.898,0.000
1606131913.375,143.555,-8.789,-18.555,427.246,0.000
1606131913.379,-126.465,-8.301,-25.879,-206.543,0.000
1606131913.383,-281.738,-47.852,-33.203,-627.441,0.000
1606131913.387,-125.488,-46.387,-31.250,-288.086,0.000
1606131913.391,138.184,-21.973,-13.184,370.117,0.000
1606131913.395,162.109,-17.578,-14.648,482.422,0.000
1606131913.398,-88.379,-35.156,-29.785,-106.934,0.000
1606131913.402,-259.277,-47.363,-32.715,-575.684,0.000
1606131913.406,-124.023,-42.480,-27.832,-323.730,0.000
1606131913.410,132.324,-34.668,-20.020,329.590,0.000
1606131913.414,174.805,-9.766,-15.137,523.438,0.000
1606131913.418,-53.711,6.348,-28.320,-24.414,0.000
1606131913.422,-256.348,-34.180,-42.480,-568.848,0.000
1606131913.426,-166.016,-51.270,-29.785,-404.785,0.000
1606131913.430,108.398,-32.715,-12.695,272.949,0.000
1606131913.434,199.707,-22.461,-9.277,558.105,0.000
1606131913.438,-8.789,-34.180,-24.414,65.918,0.000
1606131913.441,-240.723,-52.734,-48.340,-531.738,0.000
1606131913.445,-197.266,-49.316,-46.875,-472.168,0.000
1606131913.449,76.660,-35.645,-30.273,179.688,0.000
1606131913.453,211.426,-14.160,-21.484,551.758,0.000
1606131913.457,38.086,2.441,-28.809,163.574,0.000
1606131913.461,-207.031,-32.227,-42.969,-464.355,0.000
1606131913.465,-202.148,-42.480,-31.738,-512.695,0.000
1606131913.469,54.199,-23.438,-6.836,112.793,0.000
1606131913.473,208.008,-17.578,-20.020,550.293,0.000
1606131913.477,62.988,-25.391,-34.668,238.770,0.000
1606131913.480,-199.219,-44.922,-37.109,-416.016,0.000
1606131913.484,-240.234,-51.758,-48.340,-570.312,0.000
1606131913.488,8.789,-38.086,-38.086,12.695,0.000
1606131913.492,208.008,-18.066,-20.020,530.762,0.000
1606131913.496,103.027,-22.461,-24.414,315.430,0.000
1606131913.500,-166.016,-37.598,-37.598,-346.680,0.000
1606131913.504,-243.164,-38.574,-36.133,-579.590,0.000
1606131913.508,-26.855,-25.391,-24.414,-63.477,0.000
1606131913.512,189.941,-14.648,-12.695,499.023,0.000
1606131913.516,114.746,-19.043,-19.531,378.906,0.000
1606131913.520,-169.922,-36.621,-35.645,-286.133,0.000
1606131913.523,-273.438,-44.922,-32.227,-592.285,0.000
1606131913.527,-69.336,-34.668,-16.113,-141.602,0.000
1606131913.531,169.922,-25.391,-14.648,454.590,0.000
1606131913.535,143.066,-26.367,-25.391,433.105,0.000
1606131913.539,-125.977,-45.410,-36.133,-211.914,0.000
1606131913.543,-264.160,-58.105,-41.016,-595.703,0.000
1606131913.547,-93.262,-43.457,-30.762,-226.074,0.000
1606131913.551,154.297,-25.879,-20.020,406.250,0.000
1606131913.555,164.062,-24.414,-24.902,485.840,0.000
1606131913.559,-83.984,-38.574,-29.785,-119.141,0.000
1606131913.563,-255.859,-52.734,-34.180,-586.914,0.000
1606131913.566,-125.488,-40.039,-26.855,-314.941,0.000
1606131913.570,136.230,-25.391,-16.602,344.727,0.000
1606131913.574,178.223,-16.113,-16.113,513.672,0.000
1606131913.578,-62.500,-28.320,-29.297,-50.293,0.000
1606131913.582,-263.184,-46.875,-39.062,-578.613,0.000
1606131913.586,-173.340,-43.457,-33.691,-407.227,0.000
1606131913.590,97.656,-31.250,-24.414,257.324,0.000
1606131913.594,187.500,-5.859,-20.508,530.762,0.000
1606131913.598,-26.855,21.484,-23.926,46.387,0.000
1606131913.602,-250.000,-15.137,-25.879,-528.809,0.000
1606131913.605,-188.477,-45.410,-19.531,-451.660,0.000
1606131913.609,85.449,-21.484,-8.301,196.289,0.000
1606131913.613,194.824,-13.672,-17.578,526.855,0.000
1606131913.617,-2.441,-22.461,-42.969,98.633,0.000
1606131913.621,-242.188,-45.410,-59.570,-522.461,0.000
1606131913.625,-234.863,-46.387,-61.523,-550.293,0.000
1606131913.629,24.902,-27.344,-40.039,93.262,0.000
1606131913.633,184.082,-9.766,-21.973,524.902,0.000
1606131913.637,39.062,-19.043,-26.367,193.359,0.000
1606131913.641,-211.914,-42.969,-34.668,-445.801,0.000
1606131913.645,-235.352,-40.039,-36.133,-562.500,0.000
1606131913.648,20.996,-17.578,-21.973,31.738,0.000
1606131913.652,205.078,-3.906,-14.160,523.926,0.000
1606131913.656,90.332,6.348,-23.926,289.062,0.000
1606131913.660,-173.828,-21.973,-40.039,-361.328,0.000
1606131913.664,-237.793,-47.363,-44.922,-565.430,0.000
1606131913.668,-6.348,-24.414,-28.320,-30.762,0.000
1606131913.672,203.125,-10.254,-11.719,509.277,0.000
1606131913.676,116.211,-20.996,-20.020,360.840,0.000
1606131913.680,-161.133,-41.992,-39.551,-293.945,0.000
1606131913.684,-261.719,-52.246,-45.898,-586.914,0.000
1606131913.688,-44.922,-30.273,-23.438,-120.605,0.000
1606131913.691,178.711,-10.742,-10.254,466.309,0.000
1606131913.695,131.348,-2.930,-25.879,414.551,0.000
1606131913.699,-136.230,-25.879,-49.316,-237.305,0.000
1606131913.703,-268.555,-52.246,-55.176,-609.375,0.000
1606131913.707,-92.773,-34.668,-33.203,-220.703,0.000
1606131913.711,156.250,-24.414,-16.602,400.391,0.000
1606131913.715,161.621,-9.766,-13.672,460.938,0.000
1606131913.719,-91.797,-20.508,-25.879,-148.926,0.000
1606131913.723,-257.324,-52.246,-39.551,-591.309,0.000
1606131913.727,-134.766,-41.992,-30.273,-293.945,0.000
1606131913.730,119.141,-25.391,-12.695,341.797,0.000
1606131913.734,163.086,-13.672,-15.137,495.117,0.000
1606131913.738,-75.195,-18.555,-31.250,-63.965,0.000
1606131913.742,-263.672,-40.527,-44.434,-575.195,0.000
1606131913.746,-166.016,-41.504,-36.621,-374.023,0.000
1606131913.750,102.539,-25.879,-18.066,284.180,0.000
1606131913.754,178.711,-13.672,-19.531,528.320,0.000
1606131913.758,-45.410,-25.391,-31.250,25.391,0.000
1606131913.762,-251.953,-40.039,-33.203,-534.668,0.000
1606131913.766,-180.176,-39.551,-31.738,-433.105,0.000
1606131913.770,81.543,-25.879,-24.414,219.727,0.000
1606131913.773,191.406,-8.301,-15.625,546.387,0.000
1606131913.777,7.812,-21.973,-16.113,119.141,0.000
1606131913.781,-226.562,-39.062,-23.438,-477.051,0.000
1606131913.785,-206.055,-35.156,-33.203,-474.121,0.000
1606131913.789,50.781,-26.855,-28.809,153.809,0.000
1606131913.793,192.383,-19.043,-17.578,541.504,0.000
1606131913.797,35.156,-3.906,-25.879,189.941,0.000
1606131913.801,-213.867,-20.020,-37.109,-435.059,0.000
1606131913.805,-232.422,-41.992,-40.527,-539.551,0.000
1606131913.809,19.531,-25.391,-36.621,45.898,0.000
1606131913.813,195.312,-5.859,-29.785,510.742,0.000
1606131913.816,74.219,-12.695,-35.156,261.230,0.000
1606131913.820,-191.406,-42.480,-39.551,-380.859,0.000
1606131913.824,-256.836,-46.387,-36.133,-572.754,0.000
1606131913.828,-18.066,-20.996,-29.297,-24.902,0.000
1606131913.832,186.523,-13.184,-18.066,498.535,0.000
1606131913.836,91.309,-8.789,-22.949,325.684,0.000
1606131913.840,-167.969,-24.414,-32.227,-315.430,0.000
1606131913.844,-257.324,-47.852,-36.621,-585.449,0.000
1606131913.848,-57.617,-39.062,-32.715,-121.094,0.000
1606131913.852,166.504,-20.020,-24.414,442.871,0.000
1606131913.855,123.535,-18.066,-27.832,379.883,0.000
1606131913.859,-141.602,-46.875,-33.203,-251.465,0.000
1606131913.863,-256.348,-50.781,-22.949,-596.680,0.000
1606131913.867,-71.289,-27.832,-21.973,-179.688,0.000
1606131913.871,162.109,-8.301,-21.973,430.664,0.000
1606131913.875,147.461,-10.742,-24.414,443.848,0.000
1606131913.879,-118.164,-39.551,-41.016,-166.992,0.000
1606131913.883,-270.020,-49.316,-45.898,-585.449,0.000
1606131913.887,-114.258,-37.109,-34.668,-280.273,0.000
1606131913.891,145.020,-25.879,-15.625,344.727,0.000
1606131913.895,179.199,13.184,-13.672,482.910,0.000
1606131913.898,-68.359,31.250,-27.344,-81.543,0.000
1606131913.902,-255.371,-24.414,-32.715,-568.848,0.000
1606131913.906,-143.066,-41.504,-22.949,-351.562,0.000
1606131913.910,125.000,-20.996,-18.066,296.387,0.000
1606131913.914,192.383,-16.602,-23.438,512.207,0.000
1606131913.918,-41.504,-36.621,-36.621,-7.812,0.000
1606131913.922,-249.023,-50.781,-41.016,-541.504,0.000
1606131913.926,-166.992,-43.457,-29.297,-408.691,0.000
1606131913.930,100.586,-22.461,-20.996,232.910,0.000
1606131913.934,205.566,-2.441,-18.555,528.320,0.000
1606131913.938,7.812,-7.812,-18.066,88.379,0.000
1606131913.941,-231.445,-41.992,-30.273,-491.211,0.000
1606131913.945,-209.961,-46.387,-34.668,-479.004,0.000
1606131913.949,56.641,-22.949,-20.508,143.066,0.000
1606131913.953,200.195,-13.672,-13.672,525.879,0.000
1606131913.957,36.621,-18.066,-17.090,166.992,0.000
1606131913.961,-213.379,-35.645,-38.086,-457.031,0.000
1606131913.965,-212.402,-43.945,-43.457,-503.418,0.000
1606131913.969,44.434,-28.809,-31.738,105.957,0.000
1606131913.973,195.801,-9.766,-20.508,520.996,0.000
1606131913.977,61.035,20.996,-25.879,253.906,0.000
1606131913.980,-194.824,3.418,-41.504,-387.695,0.000
1606131913.984,-241.699,-38.086,-40.039,-532.715,0.000
1606131913.988,-3.906,-25.879,-20.996,23.926,0.000
1606131913.992,194.824,-13.672,-20.020,487.305,0.000
1606131913.996,97.656,-20.996,-31.738,311.035,0.000
1606131914.000,-169.434,-33.203,-40.527,-317.383,0.000
1606131914.004,-259.277,-38.086,-47.363,-572.754,0.000
1606131914.008,-34.180,-27.832,-41.016,-90.820,0.000
1606131914.012,197.754,-8.301,-20.996,471.680,0.000
1606131914.016,125.488,-14.160,-10.254,385.254,0.000
1606131914.020,-161.621,-34.180,-26.855,-260.742,0.000
1606131914.023,-265.137,-43.457,-38.574,-589.355,0.000
1606131914.027,-74.219,-38.086,-27.344,-176.758,0.000
1606131914.031,153.809,-25.879,-16.113,407.715,0.000
1606131914.035,148.926,-10.254,-10.254,425.293,0.000
1606131914.039,-114.746,-27.344,-23.438,-187.012,0.000
1606131914.043,-270.996,-53.711,-43.945,-595.703,0.000
1606131914.047,-113.281,-41.992,-21.973,-260.254,0.000
1606131914.051,145.996,-20.996,-1.953,369.141,0.000
1606131914.055,169.434,-19.043,-17.578,469.727,0.000
1606131914.059,-91.309,-41.504,-34.180,-123.047,0.000
1606131914.063,-250.488,-54.688,-34.180,-541.992,0.000
1606131914.066,-107.910,-36.621,-28.320,-273.438,0.000
1606131914.070,133.301,-21.973,-23.438,309.082,0.000
1606131914.074,183.105,-9.766,-21.973,496.094,0.000
1606131914.078,-49.805,-4.883,-36.133,-23.438,0.000
1606131914.082,-245.605,-36.133,-36.621,-525.879,0.000
1606131914.086,-160.645,-43.457,-31.250,-377.930,0.000
1606131914.090,106.445,-20.020,-16.113,250.977,0.000
1606131914.094,205.078,-6.836,-6.836,536.621,0.000
1606131914.098,-3.418,-28.809,-27.344,80.566,0.000
1606131914.102,-232.422,-51.758,-36.621,-488.770,0.000
1606131914.105,-193.848,-47.363,-32.715,-434.570,0.000
1606131914.109,76.660,-27.832,-13.672,198.730,0.000
1606131914.113,205.566,-10.254,-5.859,551.758,0.000
1606131914.117,16.602,-21.973,-21.484,161.621,0.000
1606131914.121,-232.910,-43.457,-35.156,-437.500,0.000
1606131914.125,-229.004,-42.480,-35.156,-483.398,0.000
1606131914.129,42.480,-20.508,-17.578,118.164,0.000
1606131914.133,206.543,-5.859,-5.371,533.691,0.000
1606131914.137,54.199,-18.555,-19.531,218.262,0.000
1606131914.141,-211.914,-43.945,-45.410,-403.320,0.000
1606131914.145,-248.535,-48.828,-49.805,-540.039,0.000
1606131914.148,3.906,-32.227,-28.320,20.508,0.000
1606131914.152,195.312,-20.508,-12.695,507.812,0.000
1606131914.156,92.285,-21.484,-19.531,298.828,0.000
1606131914.160,-173.340,-38.086,-34.668,-339.844,0.000
1606131914.164,-253.906,-45.410,-37.109,-572.266,0.000
1606131914.168,-32.715,-30.762,-32.715,-79.590,0.000
1606131914.172,188.477,-20.020,-24.414,458.984,0.000
1606131914.176,125.977,1.953,-15.625,354.980,0.000
1606131914.180,-133.301,-8.789,-30.762,-280.762,0.000
1606131914.184,-247.559,-40.039,-46.875,-593.750,0.000
1606131914.188,-70.312,-30.273,-22.949,-158.203,0.000
1606131914.191,167.480,-21.484,-9.277,432.129,0.000
1606131914.195,134.766,-22.461,-27.832,413.086,0.000
1606131914.199,-129.883,-42.969,-41.992,-208.008,0.000
1606131914.203,-255.859,-49.805,-34.668,-578.613,0.000
1606131914.207,-87.402,-30.762,-24.414,-221.680,0.000
1606131914.211,160.645,-20.020,-19.531,384.766,0.000
1606131914.215,175.293,-7.812,-19.531,463.379,0.000
1606131914.219,-83.008,-15.625,-32.715,-124.512,0.000
1606131914.223,-258.789,-42.969,-40.039,-573.242,0.000
1606131914.227,-129.883,-41.504,-36.621,-305.664,0.000
1606131914.230,136.719,-24.902,-24.414,319.824,0.000
1606131914.234,186.523,-18.555,-21.973,479.980,0.000
1606131914.238,-62.500,-34.668,-29.297,-58.105,0.000
1606131914.242,-261.719,-47.852,-32.227,-557.617,0.000
1606131914.246,-163.574,-39.062,-34.668,-387.207,0.000
1606131914.250,107.422,-25.391,-21.973,249.023,0.000
1606131914.254,196.777,-9.766,-15.625,516.113,0.000
1606131914.258,-15.625,-2.441,-30.762,44.434,0.000
1606131914.262,-239.258,-35.645,-45.410,-521.973,0.000
1606131914.266,-181.152,-46.875,-44.922,-454.102,0.000
1606131914.270,90.332,-20.508,-24.414,182.617,0.000
1606131914.273,218.262,-7.812,-12.207,524.902,0.000
1606131914.277,34.180,-25.879,-25.391,129.395,0.000
1606131914.281,-217.773,-45.898,-41.016,-472.656,0.000
1606131914.285,-208.008,-39.551,-38.086,-491.211,0.000
1606131914.289,52.734,-25.391,-25.391,126.465,0.000
1606131914.293,204.590,-20.020,-17.090,517.090,0.000
1606131914.297,55.664,-20.508,-34.668,192.383,0.000
1606131914.301,-196.777,-38.086,-57.617,-420.898,0.000
1606131914.305,-239.258,-47.363,-46.387,-542.969,0.000
1606131914.309,2.930,-32.227,-22.461,21.484,0.000
1606131914.313,194.336,-13.184,-12.207,488.281,0.000
1606131914.316,80.566,-5.371,-19.043,257.324,0.000
1606131914.320,-195.312,-34.180,-35.645,-377.441,0.000
1606131914.324,-268.066,-47.363,-37.109,-583.496,0.000
1606131914.328,-31.250,-26.367,-15.137,-63.477,0.000
1606131914.332,174.805,-13.672,-7.324,460.938,0.000
1606131914.336,100.586,-23.438,-18.066,324.707,0.000
1606131914.340,-166.992,-50.781,-37.598,-306.641,0.000
1606131914.344,-274.902,-59.082,-51.758,-594.238,0.000
1606131914.348,-64.941,-29.297,-37.598,-142.090,0.000
1606131914.352,169.434,-15.625,-18.555,432.617,0.000
1606131914.355,125.977,-6.836,-19.043,387.207,0.000
1606131914.359,-147.461,-10.742,-32.715,-243.164,0.000
1606131914.363,-276.855,-36.133,-35.156,-593.262,0.000
1606131914.367,-100.586,-36.133,-28.809,-223.633,0.000
1606131914.371,137.695,-27.344,-27.344,369.629,0.000
1606131914.375,141.602,-25.879,-29.785,436.035,0.000
1606131914.379,-114.746,-42.969,-33.203,-152.344,0.000
1606131914.383,-278.320,-51.758,-41.504,-581.543,0.000
1606131914.387,-127.930,-35.645,-41.016,-291.992,0.000
1606131914.391,145.020,-22.461,-20.996,335.938,0.000
1606131914.395,193.848,-2.441,-17.090,488.770,0.000
1606131914.398,-63.477,-14.160,-33.203,-66.406,0.000
1606131914.402,-270.020,-53.223,-38.086,-563.965,0.000
1606131914.406,-165.039,-44.434,-29.785,-364.746,0.000
1606131914.410,111.816,-22.461,-17.578,274.414,0.000
1606131914.414,187.500,-22.461,-25.391,499.512,0.000
1606131914.418,-39.551,-41.016,-37.598,7.324,0.000
1606131914.422,-247.559,-52.734,-39.551,-532.227,0.000
1606131914.426,-176.758,-39.551,-37.598,-432.129,0.000
1606131914.430,85.449,-19.531,-28.809,201.660,0.000
1606131914.434,189.453,-16.602,-24.414,508.301,0.000
1606131914.438,-5.371,-26.367,-29.297,98.633,0.000
1606131914.441,-232.910,-46.387,-43.457,-474.121,0.000
1606131914.445,-215.820,-59.082,-38.086,-476.074,0.000
1606131914.449,43.945,-38.574,-20.020,136.719,0.000
1606131914.453,203.613,-16.113,-18.066,522.949,0.000
1606131914.457,45.410,5.371,-25.879,189.941,0.000
1606131914.461,-214.844,-21.484,-38.574,-415.039,0.000
1606131914.465,-240.234,-54.199,-39.062,-517.578,0.000
1606131914.469,17.090,-38.086,-26.367,60.547,0.000
1606131914.473,205.078,-21.484,-15.137,524.902,0.000
1606131914.477,75.195,-28.809,-21.973,266.602,0.000
1606131914.480,-192.871,-52.734,-36.621,-373.535,0.000
1606131914.484,-236.328,-48.828,-33.691,-553.223,0.000
1606131914.488,5.859,-23.438,-23.926,-15.137,0.000
1606131914.492,203.613,-14.160,-21.484,500.488,0.000
1606131914.496,113.770,-18.066,-33.203,333.008,0.000
1606131914.500,-163.574,-39.062,-41.504,-311.523,0.000
1606131914.504,-258.301,-47.852,-41.504,-577.148,0.000
1606131914.508,-42.480,-34.180,-28.320,-109.863,0.000
1606131914.512,189.453,-19.043,-21.973,452.637,0.000
1606131914.516,142.090,-17.090,-34.180,391.602,0.000
1606131914.520,-121.582,-37.109,-43.945,-232.910,0.000
1606131914.523,-247.559,-44.434,-44.922,-575.195,0.000
1606131914.527,-73.730,-29.297,-24.902,-183.594,0.000
1606131914.531,179.688,-13.672,-7.324,414.551,0.000
1606131914.535,168.457,-6.836,-21.484,445.801,0.000
1606131914.539,-93.750,-18.066,-37.598,-160.645,0.000
1606131914.543,-256.836,-43.457,-37.598,-589.844,0.000
1606131914.547,-113.281,-43.457,-27.344,-278.809,0.000
1606131914.551,155.273,-17.090,-14.160,359.375,0.000
1606131914.555,191.895,-8.789,-10.254,488.281,0.000
1606131914.559,-61.523,-28.320,-22.461,-78.125,0.000
1606131914.563,-255.371,-42.969,-32.715,-562.012,0.000
1606131914.566,-145.996,-33.691,-27.832,-335.938,0.000
1606131914.570,123.047,-17.090,-10.254,305.176,0.000
1606131914.574,194.824,-15.625,-5.859,522.949,0.000
1606131914.578,-36.133,-31.738,-29.785,12.207,0.000
1606131914.582,-256.348,-42.969,-43.945,-532.227,0.000
1606131914.586,-174.316,-39.551,-35.645,-408.203,0.000
1606131914.590,106.445,-26.367,-17.090,241.211,0.000
1606131914.594,213.867,-2.441,-11.719,541.992,0.000
1606131914.598,12.695,-4.395,-21.973,96.191,0.000
1606131914.602,-229.980,-38.086,-29.297,-485.840,0.000
1606131914.605,-206.055,-43.945,-38.086,-471.680,0.000
1606131914.609,61.035,-26.367,-27.344,147.461,0.000
1606131914.613,201.172,-9.766,-12.207,519.531,0.000
1606131914.617,40.527,-20.508,-25.879,152.344,0.000
1606131914.621,-221.680,-48.340,-45.410,-456.055,0.000
1606131914.625,-250.000,-50.293,-47.363,-531.250,0.000
1606131914.629,17.578,-31.250,-31.738,63.477,0.000
1606131914.633,194.824,-21.973,-15.137,511.719,0.000
1606131914.637,64.453,9.766,-19.043,237.305,0.000
1606131914.641,-192.871,-2.441,-37.598,-395.996,0.000
1606131914.645,-246.094,-39.551,-41.504,-562.500,0.000
1606131914.648,-4.883,-26.367,-23.926,-13.184,0.000
1606131914.652,194.824,-14.648,-14.160,486.816,0.000
1606131914.656,100.098,-18.555,-21.484,307.129,0.000
1606131914.660,-162.109,-37.109,-37.598,-324.707,0.000
1606131914.664,-247.559,-42.480,-47.852,-567.383,0.000
1606131914.668,-20.508,-25.391,-32.715,-76.660,0.000
1606131914.672,204.102,-18.066,-19.043,474.609,0.000
1606131914.676,138.184,-8.789,-23.926,382.812,0.000
1606131914.680,-135.254,-24.902,-38.086,-250.977,0.000
1606131914.684,-252.930,-48.340,-47.363,-581.055,0.000
1606131914.688,-66.895,-32.715,-33.203,-171.387,0.000
1606131914.691,171.875,-19.531,-17.090,423.828,0.000
1606131914.695,153.809,-22.461,-18.555,437.500,0.000
1606131914.699,-113.281,-36.133,-37.598,-180.176,0.000
1606131914.703,-271.973,-48.828,-40.527,-589.844,0.000
1606131914.707,-114.258,-42.480,-28.320,-258.301,0.000
1606131914.711,151.855,-24.414,-19.531,364.258,0.000
1606131914.715,178.711,-16.113,-26.367,468.262,0.000
1606131914.719,-80.078,-39.062,-47.852,-108.887,0.000
1606131914.723,-267.578,-57.129,-48.340,-576.172,0.000
1606131914.727,-143.066,-39.062,-35.156,-333.008,0.000
1606131914.730,129.883,-24.414,-25.879,299.316,0.000
1606131914.734,191.406,-8.789,-22.461,484.863,0.000
1606131914.738,-43.945,-2.441,-27.344,-34.668,0.000
1606131914.742,-242.188,-35.645,-34.668,-551.270,0.000
1606131914.746,-158.691,-43.457,-24.902,-405.762,0.000
1606131914.750,111.328,-20.020,-6.348,236.816,0.000
1606131914.754,214.844,-13.672,-18.555,521.973,0.000
1606131914.758,-0.977,-33.691,-35.156,57.617,0.000
1606131914.762,-236.816,-52.246,-47.852,-517.578,0.000
1606131914.766,-190.918,-43.457,-43.457,-454.590,0.000
1606131914.770,93.750,-19.043,-15.137,188.477,0.000
1606131914.773,226.562,-7.324,-8.301,543.945,0.000
1606131914.777,40.039,-13.184,-29.297,155.762,0.000
1606131914.781,-203.125,-35.645,-30.273,-440.918,0.000
1606131914.785,-200.195,-35.645,-28.320,-489.746,0.000
1606131914.789,60.059,-15.625,-27.832,108.398,0.000
1606131914.793,223.633,-8.789,-14.648,539.062,0.000
1606131914.797,68.848,-22.949,-22.461,232.910,0.000
1606131914.801,-201.660,-42.480,-36.621,-397.461,0.000
1606131914.805,-237.793,-47.852,-37.598,-537.109,0.000
1606131914.809,11.719,-33.203,-29.297,13.184,0.000
1606131914.813,203.613,-15.137,-15.625,502.441,0.000
1606131914.816,89.844,-10.254,-18.555,304.688,0.000
1606131914.820,-187.500,-34.180,-37.598,-339.844,0.000
1606131914.824,-270.508,-45.898,-43.945,-583.984,0.000
1606131914.828,-26.855,-25.391,-39.062,-86.914,0.000
1606131914.832,202.637,-8.301,-23.926,469.727,0.000
1606131914.836,125.000,6.348,-28.809,358.887,0.000
1606131914.840,-144.531,-12.207,-41.504,-284.180,0.000
1606131914.844,-253.418,-34.668,-33.691,-591.797,0.000
1606131914.848,-45.898,-23.438,-20.996,-154.297,0.000
1606131914.852,201.660,-7.324,-13.672,439.941,0.000
1606131914.855,161.621,-14.160,-26.367,421.387,0.000
1606131914.859,-123.047,-34.668,-43.945,-203.125,0.000
1606131914.863,-267.578,-40.039,-38.574,-586.426,0.000
1606131914.867,-101.562,-30.273,-31.250,-236.328,0.000
1606131914.871,163.086,-20.996,-21.973,388.184,0.000
1606131914.875,195.312,-6.836,-16.602,480.957,0.000
1606131914.879,-92.285,-20.508,-41.016,-115.723,0.000
1606131914.883,-286.133,-48.828,-46.387,-582.520,0.000
1606131914.887,-137.207,-44.434,-28.320,-320.312,0.000
1606131914.891,135.254,-29.297,-15.137,325.195,0.000
1606131914.895,186.523,-16.113,-15.137,507.324,0.000
1606131914.898,-58.594,-32.227,-27.344,-27.832,0.000
1606131914.902,-263.672,-56.152,-33.203,-540.527,0.000
1606131914.906,-165.527,-40.527,-27.344,-378.418,0.000
1606131914.910,108.887,-20.996,-18.066,252.930,0.000
1606131914.914,198.730,-6.836,-16.113,509.766,0.000
1606131914.918,-28.809,2.441,-34.668,32.715,0.000
1606131914.922,-268.066,-38.574,-45.898,-542.480,0.000
1606131914.926,-190.430,-45.898,-31.738,-438.477,0.000
1606131914.930,98.145,-21.973,-18.555,221.680,0.000
1606131914.934,221.680,-8.301,-16.113,534.180,0.000
1606131914.938,43.457,-16.113,-24.414,133.301,0.000
1606131914.941,-205.566,-41.016,-39.551,-467.285,0.000
1606131914.945,-187.988,-37.109,-33.203,-494.141,0.000
1606131914.949,88.379,-23.438,-19.043,130.371,0.000
1606131914.953,241.211,-1.953,-12.207,544.434,0.000
1606131914.957,76.660,17.090,-24.902,216.797,0.000
1606131914.961,-199.219,-22.461,-44.434,-418.457,0.000
1606131914.965,-227.051,-38.086,-38.574,-537.109,0.000
1606131914.969,37.109,-21.484,-26.367,41.016,0.000
1606131914.973,232.422,-9.766,-21.484,519.043,0.000
1606131914.977,113.281,-12.695,-25.879,279.785,0.000
1606131914.980,-182.129,-35.645,-34.180,-374.023,0.000
1606131914.984,-251.953,-40.039,-41.992,-587.402,0.000
1606131914.988,-1.465,-20.996,-32.227,-51.758,0.000
1606131914.992,219.727,-5.859,-15.625,491.699,0.000
1606131914.996,137.695,-13.184,-20.996,349.121,0.000
1606131915.000,-150.391,-37.109,-39.551,-292.480,0.000
1606131915.004,-263.672,-42.969,-48.828,-578.125,0.000
1606131915.008,-54.199,-26.367,-31.738,-125.977,0.000
1606131915.012,181.152,-28.809,-16.113,451.172,0.000
1606131915.016,140.137,14.648,-15.137,418.457,0.000
1606131915.020,-136.230,29.297,-25.391,-213.379,0.000
1606131915.023,-284.180,-42.480,-43.945,-601.562,0.000
1606131915.027,-110.352,-45.898,-40.039,-232.910,0.000
1606131915.031,145.996,-26.855,-23.926,397.461,0.000
1606131915.035,155.762,-19.043,-19.043,461.426,0.000
1606131915.039,-101.074,-31.250,-22.461,-146.484,0.000
1606131915.043,-270.996,-45.410,-42.969,-589.355,0.000
1606131915.047,-124.023,-32.227,-42.480,-296.387,0.000
1606131915.051,145.508,-21.973,-17.090,349.121,0.000
1606131915.055,176.758,-5.371,-17.090,493.164,0.000
1606131915.059,-59.570,-14.648,-14.648,-50.781,0.000
1606131915.063,-236.816,-47.363,-18.066,-534.668,0.000
1606131915.066,-128.418,-44.922,-29.297,-332.520,0.000
1606131915.070,160.645,-30.762,-22.461,326.172,0.000
1606131915.074,249.512,-22.949,-20.508,574.219,0.000
1606131915.078,19.043,-35.645,-32.227,83.008,0.000
1606131915.082,-177.734,-46.875,-41.992,-460.449,0.000
1606131915.086,-101.074,-39.062,-26.855,-354.004,0.000
1606131915.090,167.969,-24.414,-12.695,298.340,0.000
1606131915.094,289.062,-5.859,-24.414,627.441,0.000
1606131915.098,75.684,-14.160,-33.203,200.684,0.000
1606131915.102,-169.434,-44.922,-25.391,-399.414,0.000
1606131915.105,-140.625,-42.969,-30.762,-410.645,0.000
1606131915.109,124.023,-38.574,-35.156,206.055,0.000
1606131915.113,266.602,-13.672,-24.902,602.539,0.000
1606131915.117,111.328,14.648,-19.043,271.973,0.000
1606131915.121,-144.531,-43.945,-27.344,-351.562,0.000
1606131915.125,-175.781,-72.266,-44.922,-463.867,0.000
1606131915.129,94.727,-43.457,-38.574,125.000,0.000
1606131915.133,271.484,-26.367,-18.555,595.703,0.000
1606131915.137,124.023,-30.273,-14.160,346.680,0.000
1606131915.141,-130.859,-48.828,-29.297,-292.969,0.000
1606131915.145,-191.406,-55.176,-43.457,-487.305,0.000
1606131915.148,42.480,-41.992,-27.344,42.480,0.000
1606131915.152,249.512,-27.344,-10.254,559.082,0.000
1606131915.156,163.086,-10.254,-13.184,402.832,0.000
1606131915.160,-108.887,-29.297,-15.137,-244.141,0.000
1606131915.164,-203.613,-53.711,-10.254,-521.484,0.000
1606131915.168,7.324,-42.480,-12.207,-47.852,0.000
1606131915.172,230.469,-33.691,-6.348,508.789,0.000
1606131915.176,187.500,-25.391,2.441,444.824,0.000
1606131915.180,-91.309,-40.039,-16.113,-192.383,0.000
1606131915.184,-230.469,-57.617,-28.320,-554.688,0.000
1606131915.188,-24.902,-39.551,-8.789,-154.785,0.000
1606131915.191,218.750,-28.809,9.766,462.402,0.000
1606131915.195,201.660,7.812,3.906,497.070,0.000
1606131915.199,-65.918,14.648,-9.766,-122.559,0.000
1606131915.203,-236.328,-38.086,-4.883,-538.086,0.000
1606131915.207,-78.613,-40.039,14.648,-228.027,0.000
1606131915.211,177.246,-23.926,16.602,393.066,0.000
1606131915.215,208.008,-25.391,-0.488,519.531,0.000
1606131915.219,-48.828,-52.246,-16.113,-56.641,0.000
1606131915.223,-243.652,-69.336,-20.508,-541.992,0.000
1606131915.227,-120.117,-52.246,-11.719,-315.430,0.000
1606131915.230,158.691,-34.180,6.348,336.426,0.000
1606131915.234,216.309,-26.367,16.602,555.176,0.000
1606131915.238,-41.504,-37.109,4.883,17.090,0.000
1606131915.242,-242.188,-52.734,-6.836,-533.203,0.000
1606131915.246,-161.133,-48.340,2.441,-404.297,0.000
1606131915.250,88.867,-36.133,10.742,239.258,0.000
1606131915.254,200.684,1.465,5.371,539.062,0.000
1606131915.258,9.277,0.977,1.953,105.469,0.000
1606131915.262,-226.074,-51.270,-11.719,-474.609,0.000
1606131915.266,-192.383,-51.758,-19.531,-458.984,0.000
1606131915.270,84.473,-31.250,-2.441,174.316,0.000
1606131915.273,218.262,-20.996,1.953,551.758,0.000
1606131915.277,40.039,-31.250,-10.254,188.965,0.000
1606131915.281,-207.031,-52.734,-21.484,-426.758,0.000
1606131915.285,-204.102,-48.340,-16.113,-503.418,0.000
1606131915.289,50.293,-34.180,0.000,96.191,0.000
1606131915.293,208.496,-24.414,-0.488,537.109,0.000
1606131915.297,77.637,31.250,-9.766,264.648,0.000
1606131915.301,-186.523,7.324,-14.648,-366.699,0.000
1606131915.305,-228.027,-60.059,-21.973,-543.945,0.000
1606131915.309,16.113,-39.551,-13.672,-1.953,0.000
1606131915.313,197.754,-20.508,-0.977,505.371,0.000
1606131915.316,104.980,-31.250,-6.348,330.078,0.000
1606131915.320,-166.016,-56.152,-25.391,-313.965,0.000
1606131915.324,-260.742,-57.617,-28.809,-568.848,0.000
1606131915.328,-46.387,-41.992,-12.695,-84.473,0.000
1606131915.332,194.824,-37.109,-1.465,461.914,0.000
1606131915.336,125.488,0.977,-1.465,368.164,0.000
1606131915.340,-167.480,-12.207,-22.461,-269.531,0.000
1606131915.344,-273.926,-54.688,-27.344,-601.074,0.000
1606131915.348,-83.496,-37.598,-9.277,-188.965,0.000
1606131915.352,159.668,-23.926,-6.836,409.668,0.000
1606131915.355,142.090,-27.344,-21.484,417.480,0.000
1606131915.359,-132.324,-47.363,-37.598,-206.055,0.000
1606131915.363,-283.691,-58.105,-43.457,-614.746,0.000
1606131915.367,-122.070,-45.410,-29.785,-281.250,0.000
1606131915.371,127.930,-31.250,-16.113,346.191,0.000
1606131915.375,163.574,-4.395,-18.555,458.496,0.000
1606131915.379,-85.449,-14.648,-28.320,-111.816,0.000
1606131915.383,-281.738,-52.246,-41.504,-599.609,0.000
1606131915.387,-166.016,-46.875,-40.039,-378.418,0.000
1606131915.391,117.676,-40.039,-27.832,275.391,0.000
1606131915.395,196.777,2.930,-25.879,493.652,0.000
1606131915.398,-51.270,18.066,-29.297,-24.902,0.000
1606131915.402,-267.578,-44.434,-42.969,-553.711,0.000
1606131915.406,-178.711,-56.152,-41.992,-410.156,0.000
1606131915.410,92.285,-38.086,-26.855,229.492,0.000
1606131915.414,180.176,-32.227,-28.320,508.789,0.000
1606131915.418,-32.227,-48.340,-41.504,46.875,0.000
1606131915.422,-264.648,-62.988,-53.711,-527.832,0.000
1606131915.426,-211.914,-48.828,-42.480,-475.586,0.000
1606131915.430,62.012,-34.180,-27.832,158.203,0.000
1606131915.434,185.547,-8.789,-27.832,517.578,0.000
1606131915.438,3.906,0.000,-32.715,133.789,0.000
1606131915.441,-256.836,-46.875,-48.828,-485.352,0.000
1606131915.445,-262.695,-62.988,-49.805,-542.969,0.000
1606131915.449,12.695,-41.992,-30.273,65.918,0.000
1606131915.453,180.176,-21.484,-9.277,501.953,0.000
1606131915.457,55.176,-24.414,-16.602,208.496,0.000
1606131915.461,-215.820,-46.875,-44.922,-425.781,0.000
1606131915.465,-282.227,-49.805,-51.758,-585.449,0.000
1606131915.469,-17.090,-31.738,-34.180,-27.832,0.000
1606131915.473,191.895,-21.484,-26.855,479.492,0.000
1606131915.477,88.867,20.020,-42.480,274.414,0.000
1606131915.480,-186.035,4.883,-51.758,-376.953,0.000
1606131915.484,-278.320,-62.012,-56.152,-624.512,0.000
1606131915.488,-51.758,-49.805,-38.086,-117.676,0.000
1606131915.492,183.594,-26.367,-15.625,443.848,0.000
1606131915.496,110.840,-27.832,-24.902,336.914,0.000
1606131915.500,-175.781,-50.293,-51.270,-305.176,0.000
1606131915.504,-270.020,-56.641,-45.898,-618.652,0.000
1606131915.508,-77.148,-36.133,-29.297,-183.105,0.000
1606131915.512,146.484,-22.949,-27.344,411.621,0.000
1606131915.516,139.160,-18.066,-25.879,413.086,0.000
1606131915.520,-123.047,-34.180,-35.156,-200.195,0.000
1606131915.523,-280.273,-49.316,-41.016,-598.145,0.000
1606131915.527,-117.188,-41.016,-40.039,-254.883,0.000
1606131915.531,148.438,-28.809,-30.273,371.094,0.000
1606131915.535,164.062,-7.324,-23.926,460.938,0.000
1606131915.539,-102.051,-22.949,-40.039,-133.789,0.000
1606131915.543,-270.996,-56.641,-44.922,-590.332,0.000
1606131915.547,-129.395,-46.875,-27.832,-320.801,0.000
1606131915.551,133.789,-23.926,-21.484,327.637,0.000
1606131915.555,196.777,-15.137,-21.973,512.207,0.000
1606131915.559,-50.293,-30.273,-30.273,-37.598,0.000
1606131915.563,-277.832,-49.316,-47.852,-565.918,0.000
1606131915.566,-184.082,-44.922,-46.875,-395.020,0.000
1606131915.570,101.562,-37.598,-27.344,266.602,0.000
1606131915.574,195.801,-13.184,-25.879,523.438,0.000
1606131915.578,-25.879,20.996,-41.992,29.785,0.000
1606131915.582,-259.766,-24.902,-54.688,-538.574,0.000
1606131915.586,-204.102,-48.828,-40.527,-470.703,0.000
1606131915.590,73.730,-22.461,-20.508,171.875,0.000
1606131915.594,195.312,-14.160,-19.531,510.742,0.000
1606131915.598,1.953,-33.203,-28.809,103.027,0.000
1606131915.602,-245.117,-53.711,-43.945,-499.023,0.000
1606131915.605,-235.352,-46.875,-44.922,-522.461,0.000
1606131915.609,38.574,-39.551,-29.297,108.887,0.000
1606131915.613,218.262,-4.395,-17.578,530.762,0.000
1606131915.617,52.734,25.391,-24.414,201.660,0.000
1606131915.621,-214.355,-27.344,-41.016,-434.570,0.000
1606131915.625,-236.328,-53.223,-44.434,-556.641,0.000
1606131915.629,17.578,-32.715,-27.344,29.297,0.000
1606131915.633,209.473,-15.137,-20.020,516.113,0.000
1606131915.637,98.633,-14.648,-25.879,298.828,0.000
1606131915.641,-172.852,-33.691,-41.016,-342.285,0.000
1606131915.645,-249.512,-41.992,-51.758,-569.336,0.000
1606131915.648,-17.578,-29.785,-38.086,-54.199,0.000
1606131915.652,207.031,-12.207,-17.578,492.188,0.000
1606131915.656,134.277,-9.766,-15.625,375.977,0.000
1606131915.660,-157.227,-41.504,-43.457,-278.320,0.000
1606131915.664,-259.766,-61.523,-61.035,-598.633,0.000
1606131915.668,-52.734,-42.480,-36.621,-145.508,0.000
1606131915.672,171.387,-30.273,-17.090,445.801,0.000
1606131915.676,142.090,-3.418,-15.625,419.434,0.000
1606131915.680,-127.441,-3.418,-11.230,-214.355,0.000
1606131915.684,-261.230,-44.434,-23.926,-588.867,0.000
1606131915.688,-75.684,-41.504,-35.156,-204.590,0.000
1606131915.691,154.785,-25.879,-16.113,395.996,0.000
1606131915.695,123.535,-20.508,-15.137,428.711,0.000
1606131915.699,-145.508,-41.992,-31.250,-189.941,0.000
1606131915.703,-328.125,-58.594,-42.969,-653.320,0.000
1606131915.707,-190.918,-39.551,-47.363,-380.371,0.000
1606131915.711,67.871,-20.508,-28.320,248.535,0.000
1606131915.715,98.633,5.859,-13.184,401.855,0.000
1606131915.719,-145.020,-2.930,-25.879,-159.180,0.000
1606131915.723,-353.516,-51.270,-39.062,-667.969,0.000
1606131915.727,-247.070,-50.781,-33.203,-474.121,0.000
1606131915.730,33.203,-30.762,-13.672,178.711,0.000
1606131915.734,124.512,-20.996,-10.254,429.688,0.000
1606131915.738,-81.055,-36.621,-33.203,-45.410,0.000
1606131915.742,-282.715,-63.965,-54.688,-589.355,0.000
1606131915.746,-213.867,-51.270,-51.758,-487.793,0.000
1606131915.750,57.129,-30.273,-41.016,169.922,0.000
1606131915.754,187.500,-4.395,-29.297,509.277,0.000
1606131915.758,-1.465,35.156,-39.062,103.516,0.000
1606131915.762,-235.840,-11.719,-48.828,-486.816,0.000
1606131915.766,-208.008,-56.641,-42.969,-496.582,0.000
1606131915.770,53.711,-38.086,-28.809,125.977,0.000
1606131915.773,205.566,-20.996,-14.160,531.250,0.000
1606131915.777,51.270,-28.809,-23.926,200.195,0.000
1606131915.781,-205.566,-49.316,-37.598,-425.781,0.000
1606131915.785,-228.027,-49.316,-37.598,-534.180,0.000
1606131915.789,25.391,-34.668,-21.484,55.176,0.000
1606131915.793,211.914,-25.391,-10.254,529.785,0.000
1606131915.797,84.473,-33.203,-16.602,290.527,0.000
1606131915.801,-178.711,-55.664,-36.133,-358.398,0.000
1606131915.805,-233.887,-60.547,-32.715,-567.871,0.000
1606131915.809,-15.625,-45.410,-20.508,-35.645,0.000
1606131915.813,196.777,-21.973,-16.602,498.047,0.000
1606131915.816,122.559,9.277,-18.555,353.516,0.000
1606131915.820,-146.973,-22.949,-32.227,-283.691,0.000
1606131915.824,-243.652,-55.176,-31.738,-572.266,0.000
1606131915.828,-40.039,-41.504,-25.391,-132.812,0.000
1606131915.832,190.430,-26.855,-17.090,437.500,0.000
1606131915.836,145.996,-25.391,-18.066,389.160,0.000
1606131915.840,-129.883,-44.434,-29.785,-251.465,0.000
1606131915.844,-266.602,-54.688,-41.992,-609.863,0.000
1606131915.848,-87.402,-38.574,-37.109,-221.680,0.000
1606131915.852,166.992,-28.809,-21.973,378.418,0.000
1606131915.855,169.434,-13.672,-25.879,420.410,0.000
1606131915.859,-100.586,-17.090,-41.992,-184.082,0.000
1606131915.863,-273.438,-43.945,-49.316,-609.863,0.000
1606131915.867,-125.488,-37.598,-39.551,-302.246,0.000
1606131915.871,143.066,-21.973,-22.949,337.891,0.000
1606131915.875,162.598,-22.949,-22.949,479.004,0.000
1606131915.879,-94.727,-43.457,-33.203,-86.426,0.000
1606131915.883,-282.227,-55.176,-33.691,-573.242,0.000
1606131915.887,-182.129,-53.223,-27.344,-361.816,0.000
1606131915.891,95.703,-40.527,-7.812,290.039,0.000
1606131915.895,180.664,-11.230,-4.883,522.461,0.000
1606131915.898,-46.875,-13.184,-32.715,5.859,0.000
1606131915.902,-251.953,-46.875,-40.039,-540.527,0.000
1606131915.906,-180.176,-43.457,-26.855,-418.945,0.000
1606131915.910,81.055,-20.996,-19.043,230.957,0.000
1606131915.914,194.824,-13.184,-21.484,541.992,0.000
1606131915.918,-8.789,-30.762,-35.645,99.121,0.000
1606131915.922,-232.910,-50.293,-49.316,-496.582,0.000
1606131915.926,-204.102,-46.387,-44.434,-483.398,0.000
1606131915.930,50.293,-29.785,-20.996,148.926,0.000
1606131915.934,205.078,-12.207,-14.648,536.133,0.000
1606131915.938,40.527,-19.043,-30.273,170.410,0.000
1606131915.941,-220.215,-45.898,-43.945,-455.566,0.000
1606131915.945,-244.629,-48.340,-42.969,-547.363,0.000
1606131915.949,6.836,-31.738,-29.785,42.480,0.000
1606131915.953,179.688,-17.090,-26.855,497.559,0.000
1606131915.957,52.246,14.648,-28.809,239.746,0.000
1606131915.961,-209.473,-12.207,-44.922,-394.531,0.000
1606131915.965,-261.719,-55.176,-45.410,-578.125,0.000
1606131915.969,-20.996,-32.715,-18.555,-27.832,0.000
1606131915.973,195.801,-14.160,-5.371,502.441,0.000
1606131915.977,110.352,-21.973,-25.391,325.195,0.000
1606131915.980,-157.227,-43.457,-50.781,-341.309,0.000
1606131915.984,-248.535,-41.992,-47.852,-575.684,0.000
1606131915.988,-35.645,-25.879,-25.391,-74.707,0.000
1606131915.992,178.223,-24.414,-17.578,460.449,0.000
1606131915.996,132.324,4.395,-25.391,385.254,0.000
1606131916.000,-122.559,-15.625,-32.227,-247.070,0.000
1606131916.004,-244.141,-55.664,-30.762,-579.102,0.000
1606131916.008,-63.965,-38.086,-19.043,-170.410,0.000
1606131916.012,183.105,-21.484,-11.230,431.152,0.000
1606131916.016,171.387,-20.508,-12.695,453.125,0.000
1606131916.020,-98.633,-37.598,-38.086,-166.504,0.000
1606131916.023,-261.719,-53.711,-45.898,-586.914,0.000
1606131916.027,-111.816,-43.945,-34.668,-275.391,0.000
1606131916.031,149.902,-29.785,-20.508,359.863,0.000
1606131916.035,197.754,-0.488,-16.602,488.770,0.000
1606131916.039,-61.523,1.465,-34.180,-98.145,0.000
1606131916.043,-264.648,-48.340,-31.250,-582.520,0.000
1606131916.047,-137.695,-49.316,-37.598,-350.098,0.000
1606131916.051,135.742,-24.902,-35.645,303.711,0.000
1606131916.055,208.008,-22.461,-24.902,518.555,0.000
1606131916.059,-29.297,-41.992,-39.062,-10.254,0.000
1606131916.063,-242.676,-55.664,-45.410,-548.340,0.000
1606131916.066,-152.832,-41.504,-36.133,-406.738,0.000
1606131916.070,119.141,-21.484,-19.043,242.188,0.000
1606131916.074,220.215,-13.672,-13.184,537.109,0.000
1606131916.078,21.973,-26.367,-24.414,89.844,0.000
1606131916.082,-211.426,-47.852,-25.391,-491.211,0.000
1606131916.086,-183.105,-45.410,-32.715,-463.379,0.000
1606131916.090,90.820,-30.273,-31.738,167.480,0.000
1606131916.094,235.840,-9.766,-22.461,535.645,0.000
1606131916.098,43.457,-11.230,-33.203,156.250,0.000
1606131916.102,-208.008,-45.410,-44.434,-439.941,0.000
1606131916.105,-209.473,-43.945,-31.250,-496.094,0.000
1606131916.109,62.988,-14.160,-9.277,92.285,0.000
1606131916.113,242.676,-6.348,-8.789,536.621,0.000
1606131916.117,69.336,-23.926,-13.184,237.793,0.000
1606131916.121,-174.805,-41.504,-16.113,-366.699,0.000
1606131916.125,-204.102,-37.109,-17.090,-506.836,0.000
1606131916.129,15.137,-28.320,-13.672,11.230,0.000
1606131916.133,204.590,-18.066,-16.602,514.160,0.000
1606131916.137,97.168,40.527,-20.996,319.824,0.000
1606131916.141,-169.434,22.949,-26.367,-324.219,0.000
1606131916.145,-252.930,-46.875,-25.391,-573.730,0.000
1606131916.148,-32.715,-37.598,-19.531,-81.055,0.000
1606131916.152,187.012,-14.160,-13.184,479.492,0.000
1606131916.156,119.141,-22.461,-16.602,376.465,0.000
1606131916.160,-147.949,-40.527,-15.625,-266.113,0.000
1606131916.164,-242.676,-41.016,-17.578,-584.961,0.000
1606131916.168,-60.059,-34.668,-26.367,-162.598,0.000
1606131916.172,164.062,-23.926,-8.301,439.453,0.000
1606131916.176,155.273,9.277,-13.184,442.383,0.000
1606131916.180,-110.352,-7.812,-34.668,-187.988,0.000
1606131916.184,-261.719,-50.781,-33.691,-588.867,0.000
1606131916.188,-105.469,-38.574,-24.902,-256.836,0.000
1606131916.191,149.902,-20.020,-21.484,369.141,0.000
1606131916.195,169.922,-17.578,-12.695,474.121,0.000
1606131916.199,-89.844,-36.133,-22.949,-119.141,0.000
1606131916.203,-279.785,-55.664,-41.504,-597.168,0.000
1606131916.207,-149.902,-47.852,-26.855,-344.238,0.000
1606131916.211,126.953,-26.855,-16.602,301.758,0.000
1606131916.215,177.246,-28.320,-20.020,492.676,0.000
1606131916.219,-61.523,-44.434,-21.484,-33.691,0.000
1606131916.223,-263.184,-52.734,-30.762,-555.664,0.000
1606131916.227,-154.297,-38.086,-32.715,-400.391,0.000
1606131916.230,110.352,-27.832,-18.066,246.094,0.000
1606131916.234,179.688,2.441,-7.324,526.855,0.000
1606131916.238,-11.230,30.762,-22.949,64.941,0.000
1606131916.242,-238.770,-24.414,-45.410,-515.625,0.000
1606131916.246,-193.359,-48.340,-40.039,-461.914,0.000
1606131916.250,82.520,-24.902,-14.160,185.059,0.000
1606131916.254,208.984,-16.113,-11.230,541.504,0.000
1606131916.258,26.367,-28.320,-31.738,150.879,0.000
1606131916.262,-220.703,-51.758,-42.480,-456.543,0.000
1606131916.266,-215.332,-44.434,-40.039,-504.883,0.000
1606131916.270,48.340,-26.855,-23.926,106.445,0.000
1606131916.273,208.008,-9.277,-15.625,528.809,0.000
1606131916.277,60.547,4.883,-21.973,219.238,0.000
1606131916.281,-208.984,-36.133,-33.203,-411.133,0.000
1606131916.285,-232.910,-59.082,-35.645,-547.852,0.000
1606131916.289,4.395,-41.016,-26.367,7.324,0.000
1606131916.293,172.363,-20.508,-12.695,497.070,0.000
1606131916.297,68.359,-19.043,-17.090,292.480,0.000
1606131916.301,-200.684,-39.062,-38.086,-357.910,0.000
1606131916.305,-264.648,-39.551,-42.480,-585.938,0.000
1606131916.309,-37.598,-20.508,-35.645,-79.102,0.000
1606131916.313,191.895,0.977,-20.020,471.680,0.000
1606131916.316,123.535,17.578,-15.625,363.770,0.000
1606131916.320,-156.738,-19.043,-38.086,-290.039,0.000
1606131916.324,-259.766,-52.246,-49.805,-606.445,0.000
1606131916.328,-61.523,-39.062,-36.133,-165.527,0.000
1606131916.332,177.734,-23.926,-18.555,422.852,0.000
1606131916.336,155.762,-3.418,-16.602,405.762,0.000
1606131916.340,-109.863,-18.555,-33.691,-215.332,0.000
1606131916.344,-268.066,-44.922,-40.039,-598.145,0.000
1606131916.348,-109.863,-31.738,-32.227,-243.652,0.000
1606131916.352,140.625,-17.090,-27.344,365.723,0.000
1606131916.355,160.645,-20.508,-18.066,449.707,0.000
1606131916.359,-91.309,-33.691,-25.391,-127.930,0.000
1606131916.363,-268.066,-43.945,-45.898,-578.613,0.000
1606131916.367,-132.812,-36.621,-37.598,-310.059,0.000
1606131916.371,127.441,-27.344,-24.902,325.684,0.000
1606131916.375,172.852,-4.883,-26.367,493.652,0.000
1606131916.379,-65.918,-11.230,-40.039,-50.293,0.000
1606131916.383,-270.020,-50.293,-50.293,-559.570,0.000
1606131916.387,-163.086,-46.387,-33.203,-383.789,0.000
1606131916.391,116.699,-23.926,-11.719,269.531,0.000
1606131916.395,198.242,-12.207,-12.695,536.621,0.000
1606131916.398,-24.902,-29.297,-29.297,45.410,0.000
1606131916.402,-236.816,-50.781,-35.156,-517.090,0.000
1606131916.406,-183.105,-44.434,-33.691,-434.570,0.000
1606131916.410,64.941,-24.414,-19.531,204.590,0.000
1606131916.414,183.105,-0.488,-16.113,533.691,0.000
1606131916.418,-7.812,20.020,-32.715,110.352,0.000
1606131916.422,-248.535,-26.855,-41.504,-487.305,0.000
1606131916.426,-230.957,-50.293,-36.133,-500.488,0.000
1606131916.430,37.109,-29.785,-18.066,116.699,0.000
1606131916.434,194.824,-27.344,-15.137,523.926,0.000
1606131916.438,47.363,-33.691,-26.855,200.195,0.000
1606131916.441,-209.473,-43.945,-36.133,-420.410,0.000
1606131916.445,-237.793,-42.480,-40.039,-540.527,0.000
1606131916.449,20.996,-26.367,-23.926,37.598,0.000
1606131916.453,206.543,-5.859,-10.742,520.996,0.000
1606131916.457,73.730,3.906,-23.438,278.809,0.000
1606131916.461,-189.453,-31.250,-35.645,-373.047,0.000
1606131916.465,-248.535,-52.246,-33.691,-577.148,0.000
1606131916.469,-32.715,-31.738,-17.578,-56.152,0.000
1606131916.473,186.523,-6.836,-9.277,479.980,0.000
1606131916.477,117.676,-12.695,-14.160,346.191,0.000
1606131916.480,-162.598,-41.016,-29.785,-306.641,0.000
1606131916.484,-266.602,-45.898,-36.621,-598.633,0.000
1606131916.488,-62.988,-33.691,-23.438,-133.301,0.000
1606131916.492,171.875,-23.438,-11.230,458.008,0.000
1606131916.496,147.461,-19.531,-32.227,416.016,0.000
1606131916.500,-122.070,-34.668,-47.852,-219.238,0.000
1606131916.504,-268.555,-37.109,-47.363,-595.703,0.000
1606131916.508,-99.609,-21.973,-43.457,-232.422,0.000
1606131916.512,160.645,-20.996,-24.414,388.184,0.000
1606131916.516,161.621,11.719,-23.926,448.730,0.000
1606131916.520,-104.980,15.137,-40.527,-147.949,0.000
1606131916.523,-279.785,-39.551,-45.410,-587.891,0.000
1606131916.527,-116.699,-30.273,-26.855,-306.641,0.000
1606131916.531,154.785,-10.254,-11.230,328.125,0.000
1606131916.535,170.898,-18.555,-22.461,474.609,0.000
1606131916.539,-76.172,-36.133,-48.828,-89.844,0.000
1606131916.543,-270.020,-49.316,-58.594,-590.820,0.000
1606131916.547,-160.645,-36.621,-49.805,-387.695,0.000
1606131916.551,114.746,-21.484,-34.668,262.695,0.000
1606131916.555,194.824,4.395,-30.762,505.859,0.000
1606131916.559,-31.738,0.977,-48.340,1.953,0.000
1606131916.563,-241.699,-45.410,-54.688,-549.316,0.000
1606131916.566,-177.734,-46.875,-37.109,-436.523,0.000
1606131916.570,94.238,-25.879,-18.555,212.891,0.000
1606131916.574,198.730,-15.137,-17.090,525.391,0.000
1606131916.578,-2.441,-27.344,-27.832,103.516,0.000
1606131916.582,-235.352,-41.016,-46.875,-489.746,0.000
1606131916.586,-229.980,-40.039,-50.293,-498.047,0.000
1606131916.590,40.527,-29.785,-36.133,126.465,0.000
1606131916.594,195.801,-2.930,-20.508,528.320,0.000
1606131916.598,38.086,11.230,-27.832,188.965,0.000
1606131916.602,-216.797,-32.715,-44.434,-439.453,0.000
1606131916.605,-233.398,-47.852,-34.668,-541.992,0.000
1606131916.609,29.297,-37.598,-19.531,51.270,0.000
1606131916.613,208.496,-15.137,-16.602,521.484,0.000
1606131916.617,80.566,2.930,-18.555,266.602,0.000
1606131916.621,-185.547,-21.484,-29.785,-376.953,0.000
1606131916.625,-243.164,-36.621,-38.086,-575.195,0.000
1606131916.629,-10.742,-30.762,-25.391,-39.062,0.000
1606131916.633,194.336,-17.090,-20.508,477.539,0.000
1606131916.637,107.422,-17.578,-26.367,319.336,0.000
1606131916.641,-168.945,-36.133,-31.250,-326.660,0.000
1606131916.645,-258.789,-44.434,-36.133,-611.328,0.000
1606131916.648,-44.922,-31.250,-27.344,-131.348,0.000
1606131916.652,197.266,-15.137,-21.484,443.359,0.000
1606131916.656,144.531,-14.648,-28.320,377.441,0.000
1606131916.660,-148.438,-27.344,-37.598,-254.883,0.000
1606131916.664,-273.438,-39.062,-35.645,-597.168,0.000
1606131916.668,-81.543,-24.414,-20.996,-196.777,0.000
1606131916.672,164.062,-6.348,-14.160,408.691,0.000
1606131916.676,151.855,-11.719,-18.555,449.707,0.000
1606131916.680,-104.492,-31.738,-26.855,-156.738,0.000
1606131916.684,-259.277,-43.945,-40.039,-579.102,0.000
1606131916.688,-115.234,-30.273,-37.109,-268.066,0.000
1606131916.691,149.414,-19.043,-18.555,364.746,0.000
1606131916.695,186.035,9.766,-23.926,494.141,0.000
1606131916.699,-65.918,13.184,-39.062,-77.637,0.000
1606131916.703,-260.254,-36.621,-41.016,-576.172,0.000
1606131916.707,-153.320,-37.598,-34.180,-356.934,0.000
1606131916.711,116.699,-20.508,-15.625,285.645,0.000
1606131916.715,191.895,-17.578,-13.672,503.418,0.000
1606131916.719,-35.645,-33.691,-39.551,-6.348,0.000
1606131916.723,-241.699,-48.340,-54.688,-554.688,0.000
1606131916.727,-178.223,-46.875,-44.922,-429.199,0.000
1606131916.730,84.473,-31.250,-26.855,214.355,0.000
1606131916.734,198.730,-4.395,-19.531,519.531,0.000
1606131916.738,-9.766,-21.973,-31.738,85.938,0.000
1606131916.742,-255.371,-57.617,-45.410,-514.648,0.000
1606131916.746,-217.773,-46.875,-44.922,-497.070,0.000
1606131916.750,53.223,-26.367,-27.832,139.648,0.000
1606131916.754,192.871,-8.301,-11.719,522.949,0.000
1606131916.758,32.227,-13.672,-28.320,167.480,0.000
1606131916.762,-220.215,-50.781,-45.410,-448.242,0.000
1606131916.766,-238.770,-55.664,-38.574,-530.273,0.000
1606131916.770,14.160,-36.621,-31.738,63.477,0.000
1606131916.773,192.383,-21.484,-25.391,516.113,0.000
1606131916.777,55.664,-33.203,-32.227,234.375,0.000
1606131916.781,-203.125,-55.176,-45.898,-399.414,0.000
1606131916.785,-246.094,-52.246,-42.969,-555.176,0.000
1606131916.789,-5.859,-37.109,-24.414,-9.277,0.000
1606131916.793,197.754,-26.855,-22.949,488.770,0.000
1606131916.797,79.102,18.555,-31.250,304.199,0.000
1606131916.801,-190.918,3.906,-24.414,-324.707,0.000
1606131916.805,-260.254,-51.270,-22.461,-571.777,0.000
1606131916.809,-43.945,-37.109,-22.461,-95.703,0.000
1606131916.813,181.641,-19.043,-16.602,462.891,0.000
1606131916.816,134.766,-16.602,-8.789,393.066,0.000
1606131916.820,-140.137,-41.016,-20.996,-239.746,0.000
1606131916.824,-269.531,-56.641,-43.457,-581.543,0.000
1606131916.828,-83.496,-41.504,-36.621,-170.410,0.000
1606131916.832,160.156,-27.344,-22.461,421.387,0.000
1606131916.836,138.184,-14.648,-23.926,429.199,0.000
1606131916.840,-125.488,-31.250,-38.574,-185.059,0.000
1606131916.844,-270.020,-58.105,-41.504,-585.449,0.000
1606131916.848,-113.281,-44.922,-26.367,-253.418,0.000
1606131916.852,135.742,-27.344,-20.996,362.305,0.000
1606131916.855,158.691,-23.926,-19.043,472.656,0.000
1606131916.859,-81.543,-36.621,-28.809,-90.820,0.000
1606131916.863,-261.230,-46.387,-48.828,-556.641,0.000
1606131916.867,-136.230,-35.156,-32.715,-325.195,0.000
1606131916.871,129.883,-17.578,-19.043,309.082,0.000
1606131916.875,208.008,-9.277,-22.461,513.184,0.000
1606131916.879,-12.207,-20.996,-33.691,-0.977,0.000
1606131916.883,-245.117,-40.527,-45.410,-534.180,0.000
1606131916.887,-168.945,-37.598,-40.039,-400.879,0.000
1606131916.891,96.680,-31.738,-23.438,232.910,0.000
1606131916.895,197.266,-7.812,-20.508,509.277,0.000
1606131916.898,-2.930,1.465,-26.367,62.500,0.000
1606131916.902,-246.094,-42.480,-30.273,-503.906,0.000
1606131916.906,-205.078,-48.828,-29.297,-464.844,0.000
1606131916.910,58.105,-27.832,-14.160,161.133,0.000
1606131916.914,188.965,-20.996,-8.301,522.949,0.000
1606131916.918,23.926,-31.250,-21.973,151.855,0.000
1606131916.922,-223.633,-50.293,-40.527,-451.660,0.000
1606131916.926,-219.727,-47.852,-44.434,-510.742,0.000
1606131916.930,37.598,-22.461,-25.879,77.148,0.000
1606131916.934,197.754,-7.812,-15.625,500.488,0.000
1606131916.938,57.129,-17.578,-25.879,208.496,0.000
1606131916.941,-200.195,-41.016,-39.551,-417.480,0.000
1606131916.945,-247.070,-45.898,-41.992,-563.965,0.000
1606131916.949,-3.418,-34.668,-27.832,-18.066,0.000
1606131916.953,190.918,-24.414,-19.531,470.215,0.000
1606131916.957,68.848,-25.879,-29.297,273.438,0.000
1606131916.961,-185.059,-38.574,-42.480,-361.328,0.000
1606131916.965,-241.699,-42.969,-41.016,-568.359,0.000
1606131916.969,-24.414,-28.809,-20.508,-74.707,0.000
1606131916.973,184.570,-14.160,-4.395,450.684,0.000
1606131916.977,120.605,13.672,-20.020,360.840,0.000
1606131916.980,-154.297,-1.953,-43.457,-281.738,0.000
1606131916.984,-260.254,-43.457,-42.480,-593.262,0.000
1606131916.988,-69.336,-32.715,-20.996,-169.434,0.000
1606131916.992,150.879,-11.230,-6.836,399.414,0.000
1606131916.996,128.418,-11.719,-12.207,393.555,0.000
1606131917.000,-131.348,-38.086,-25.391,-207.520,0.000
1606131917.004,-279.297,-48.828,-31.250,-592.285,0.000
1606131917.008,-119.629,-41.016,-25.391,-259.766,0.000
1606131917.012,129.883,-27.832,-20.508,346.191,0.000
1606131917.016,163.086,-19.043,-19.043,451.660,0.000
1606131917.020,-80.078,-32.227,-30.273,-114.746,0.000
1606131917.023,-270.996,-46.875,-33.203,-568.848,0.000
1606131917.027,-142.578,-34.668,-17.578,-327.637,0.000
1606131917.031,129.395,-18.066,-13.184,293.457,0.000
1606131917.035,176.758,4.395,-20.020,480.469,0.000
1606131917.039,-68.848,-9.277,-33.691,-52.734,0.000
1606131917.043,-255.859,-50.781,-39.062,-543.457,0.000
1606131917.047,-162.598,-41.016,-36.621,-376.953,0.000
1606131917.051,99.121,-17.090,-28.320,234.375,0.000
1606131917.055,199.219,-9.766,-16.602,505.371,0.000
1606131917.059,-15.137,-28.320,-24.414,44.922,0.000
1606131917.063,-246.582,-46.387,-42.969,-511.230,0.000
1606131917.066,-196.289,-42.480,-41.504,-449.707,0.000
1606131917.070,76.660,-29.785,-23.926,169.434,0.000
1606131917.074,199.707,-6.348,-14.160,507.812,0.000
1606131917.078,12.695,9.277,-35.156,122.070,0.000
1606131917.082,-221.680,-20.996,-61.035,-462.891,0.000
1606131917.086,-209.961,-42.969,-48.828,-500.488,0.000
1606131917.090,47.852,-24.902,-24.414,91.309,0.000
1606131917.094,198.730,-8.789,-10.254,510.254,0.000
1606131917.098,64.453,-15.625,-24.414,209.961,0.000
1606131917.102,-193.848,-36.133,-43.457,-400.391,0.000
1606131917.105,-241.211,-43.457,-40.039,-527.344,0.000
1606131917.109,2.930,-37.109,-25.391,24.414,0.000
1606131917.113,195.312,-17.578,-16.113,509.277,0.000
1606131917.117,89.355,-3.906,-32.227,291.016,0.000
1606131917.121,-173.340,-37.598,-40.039,-335.938,0.000
1606131917.125,-231.934,-56.152,-35.156,-544.922,0.000
1606131917.129,-12.695,-37.598,-34.180,-47.852,0.000
1606131917.133,170.410,-26.855,-23.926,473.633,0.000
1606131917.137,103.516,-29.785,-25.391,348.633,0.000
1606131917.141,-154.785,-46.387,-35.156,-269.043,0.000
1606131917.145,-260.254,-51.758,-42.480,-561.035,0.000
1606131917.148,-61.523,-41.016,-34.668,-134.277,0.000
1606131917.152,182.617,-16.113,-24.902,431.641,0.000
1606131917.156,151.367,-10.254,-29.297,409.180,0.000
1606131917.160,-118.652,-35.645,-37.109,-195.312,0.000
1606131917.164,-251.465,-47.852,-37.109,-565.918,0.000
1606131917.168,-88.379,-40.527,-31.738,-216.797,0.000
1606131917.172,156.738,-29.297,-14.648,382.812,0.000
1606131917.176,173.828,-3.418,-9.766,465.820,0.000
1606131917.180,-74.219,-13.672,-27.344,-106.934,0.000
1606131917.184,-252.441,-50.781,-34.668,-550.293,0.000
1606131917.188,-126.465,-41.992,-29.785,-285.645,0.000
1606131917.191,133.301,-22.461,-22.949,331.055,0.000
1606131917.195,185.547,-19.531,-19.043,495.117,0.000
1606131917.199,-59.082,-39.551,-33.691,-36.621,0.000
1606131917.203,-261.719,-59.570,-49.805,-538.086,0.000
1606131917.207,-159.668,-47.852,-38.574,-358.887,0.000
1606131917.211,100.098,-32.715,-28.809,266.113,0.000
1606131917.215,197.266,-5.371,-27.832,511.230,0.000
1606131917.219,-16.602,-4.883,-31.250,54.199,0.000
1606131917.223,-262.207,-43.457,-41.992,-495.117,0.000
1606131917.227,-196.777,-40.527,-42.480,-421.387,0.000
1606131917.230,81.543,-23.438,-23.926,208.008,0.000
1606131917.234,195.312,-22.461,-17.090,536.133,0.000
1606131917.238,16.113,-33.203,-31.738,140.625,0.000
1606131917.242,-214.355,-41.992,-41.016,-441.895,0.000
1606131917.246,-212.402,-42.969,-36.621,-471.680,0.000
1606131917.250,50.293,-29.297,-28.320,127.930,0.000
1606131917.254,206.055,-14.648,-24.414,537.109,0.000
1606131917.258,69.336,-21.484,-34.668,212.402,0.000
1606131917.262,-194.336,-46.875,-43.457,-415.039,0.000
1606131917.266,-234.375,-53.711,-32.715,-526.367,0.000
1606131917.270,33.691,-29.297,-17.578,42.480,0.000
1606131917.273,214.844,-12.207,-12.695,505.859,0.000
1606131917.277,99.609,-17.578,-22.949,271.973,0.000
1606131917.281,-168.945,-40.039,-43.457,-356.445,0.000
1606131917.285,-242.188,-47.852,-51.270,-549.805,0.000
1606131917.289,-4.395,-28.320,-37.109,-31.250,0.000
1606131917.293,208.496,-12.207,-20.508,487.793,0.000
1606131917.297,125.000,-21.484,-27.832,350.098,0.000
1606131917.301,-139.648,-39.551,-40.039,-275.391,0.000
1606131917.305,-241.699,-41.016,-35.156,-560.547,0.000
1606131917.309,-41.504,-23.926,-23.926,-116.211,0.000
1606131917.313,182.617,-14.160,-19.043,444.824,0.000
1606131917.316,143.555,-1.465,-23.438,402.832,0.000
1606131917.320,-122.559,-17.578,-32.227,-210.449,0.000
1606131917.324,-278.320,-47.852,-38.574,-568.848,0.000
1606131917.328,-108.398,-37.598,-33.203,-205.566,0.000
1606131917.332,147.461,-20.020,-21.484,387.695,0.000
1606131917.336,151.855,-20.020,-19.043,437.012,0.000
1606131917.340,-101.562,-38.086,-28.320,-151.367,0.000
1606131917.344,-270.508,-43.457,-37.598,-574.219,0.000
1606131917.348,-132.812,-28.809,-34.668,-278.809,0.000
1606131917.352,154.297,-8.301,-23.438,358.398,0.000
1606131917.355,192.383,-0.977,-28.809,494.141,0.000
1606131917.359,-60.547,-19.043,-43.457,-69.336,0.000
1606131917.363,-248.047,-39.551,-54.688,-549.805,0.000
1606131917.367,-152.832,-40.527,-47.363,-351.562,0.000
1606131917.371,111.816,-31.738,-27.832,273.926,0.000
1606131917.375,207.520,-4.395,-26.367,509.766,0.000
1606131917.379,-20.508,-4.883,-37.109,25.879,0.000
1606131917.383,-249.512,-39.062,-46.387,-511.230,0.000
1606131917.387,-174.805,-33.203,-44.434,-413.086,0.000
1606131917.391,97.656,-14.648,-24.902,211.426,0.000
1606131917.395,216.309,0.488,-23.438,521.973,0.000
1606131917.398,25.391,-13.672,-36.133,104.004,0.000
1606131917.402,-215.820,-47.363,-51.758,-476.074,0.000
1606131917.406,-192.871,-46.387,-49.316,-472.168,0.000
1606131917.410,79.102,-26.367,-27.344,145.508,0.000
1606131917.414,219.238,-16.113,-20.020,532.227,0.000
1606131917.418,46.875,-31.250,-30.273,188.477,0.000
1606131917.422,-204.590,-48.340,-50.781,-419.922,0.000
1606131917.426,-221.680,-40.039,-49.805,-508.789,0.000
1606131917.430,33.203,-28.809,-31.250,68.359,0.000
1606131917.434,204.102,-18.066,-19.531,520.508,0.000
1606131917.438,69.824,-23.926,-16.602,276.367,0.000
1606131917.441,-182.617,-47.363,-28.320,-348.145,0.000
1606131917.445,-245.605,-44.434,-29.297,-535.156,0.000
1606131917.449,-29.297,-27.832,-19.043,-19.043,0.000
1606131917.453,183.105,-15.137,-14.648,486.328,0.000
1606131917.457,108.398,20.020,-18.066,327.637,0.000
1606131917.461,-160.156,-5.859,-36.621,-301.758,0.000
1606131917.465,-255.859,-54.688,-49.805,-566.895,0.000
1606131917.469,-49.316,-45.898,-29.785,-112.793,0.000
1606131917.473,186.035,-27.832,-6.348,443.848,0.000
1606131917.477,130.371,-29.785,-18.555,380.371,0.000
1606131917.480,-152.832,-57.129,-37.109,-246.582,0.000
1606131917.484,-265.625,-57.129,-32.715,-581.543,0.000
1606131917.488,-71.289,-36.621,-29.297,-195.312,0.000
1606131917.492,173.828,-25.391,-19.531,396.973,0.000
1606131917.496,152.832,-5.371,-19.043,436.523,0.000
1606131917.500,-116.211,-26.855,-37.109,-165.527,0.000
1606131917.504,-277.832,-58.594,-42.480,-581.543,0.000
1606131917.508,-125.977,-41.992,-29.297,-279.785,0.000
1606131917.512,139.648,-17.578,-13.184,345.215,0.000
1606131917.516,181.641,-14.648,-17.090,468.750,0.000
1606131917.520,-63.965,-31.738,-28.320,-85.449,0.000
1606131917.523,-267.578,-47.363,-36.133,-549.316,0.000
1606131917.527,-136.230,-41.016,-29.785,-341.309,0.000
1606131917.531,145.996,-20.020,-11.230,293.945,0.000
1606131917.535,204.590,10.742,-10.254,511.230,0.000
1606131917.539,-20.020,21.484,-36.133,0.977,0.000
1606131917.543,-234.863,-22.949,-48.828,-529.785,0.000
1606131917.547,-169.922,-43.457,-23.438,-409.180,0.000
1606131917.551,94.238,-28.809,0.977,221.680,0.000
1606131917.555,199.219,-11.719,-3.906,507.812,0.000
1606131917.559,1.465,-22.949,-20.020,68.359,0.000
1606131917.563,-226.562,-41.992,-27.344,-493.652,0.000
1606131917.566,-198.242,-36.133,-17.578,-464.844,0.000
1606131917.570,65.918,-16.602,-4.883,149.902,0.000
1606131917.574,199.219,-7.812,-4.883,516.113,0.000
1606131917.578,44.434,-22.461,-20.508,158.691,0.000
1606131917.582,-211.426,-45.898,-40.039,-439.941,0.000
1606131917.586,-235.840,-47.363,-37.109,-507.324,0.000
1606131917.590,34.668,-32.715,-12.695,77.637,0.000
1606131917.594,207.031,-4.883,-6.836,510.254,0.000
1606131917.598,71.777,5.371,-30.273,247.559,0.000
1606131917.602,-189.941,-34.180,-43.457,-367.676,0.000
1606131917.605,-235.352,-43.945,-36.621,-538.574,0.000
1606131917.609,-0.977,-32.715,-27.344,-8.301,0.000
1606131917.613,196.777,-26.367,-19.531,491.699,0.000
1606131917.617,109.375,-29.297,-20.996,314.941,0.000
1606131917.621,-173.340,-54.199,-40.527,-323.730,0.000
1606131917.625,-262.207,-56.152,-42.480,-573.242,0.000
1606131917.629,-29.785,-29.297,-25.879,-89.355,0.000
1606131917.633,195.312,-9.766,-17.578,462.402,0.000
1606131917.637,140.137,21.973,-18.066,381.836,0.000
1606131917.641,-127.441,2.441,-30.762,-251.465,0.000
1606131917.645,-243.164,-43.457,-42.969,-574.219,0.000
1606131917.648,-73.242,-39.062,-34.180,-174.316,0.000
1606131917.652,159.668,-31.250,-19.531,406.250,0.000
1606131917.656,156.738,-28.320,-24.414,423.828,0.000
1606131917.660,-106.934,-40.527,-36.621,-181.641,0.000
1606131917.664,-257.324,-53.223,-46.875,-577.148,0.000
1606131917.668,-98.633,-44.922,-35.156,-258.301,0.000
1606131917.672,150.879,-26.855,-13.184,355.957,0.000
1606131917.676,176.758,0.977,-21.484,473.633,0.000
1606131917.680,-70.801,-16.602,-41.016,-95.703,0.000
1606131917.684,-264.648,-53.223,-49.316,-573.242,0.000
1606131917.688,-144.043,-42.480,-40.039,-349.121,0.000
1606131917.691,127.930,-17.578,-22.949,279.785,0.000
1606131917.695,184.570,-10.742,-20.996,479.980,0.000
1606131917.699,-47.363,-30.762,-30.273,-28.809,0.000
1606131917.703,-262.207,-45.898,-34.180,-548.828,0.000
1606131917.707,-191.895,-41.992,-35.156,-414.062,0.000
1606131917.711,88.379,-29.297,-19.531,216.797,0.000
1606131917.715,186.523,-18.555,-9.766,497.070,0.000
1606131917.719,-25.879,-27.344,-32.227,54.688,0.000
1606131917.723,-249.023,-42.480,-42.480,-513.184,0.000
1606131917.727,-207.031,-39.551,-40.039,-479.980,0.000
1606131917.730,55.664,-29.297,-24.902,139.160,0.000
1606131917.734,182.617,-13.184,-12.695,494.141,0.000
1606131917.738,7.812,-8.789,-26.367,133.301,0.000
1606131917.742,-241.699,-37.109,-38.574,-456.543,0.000
1606131917.746,-245.605,-48.340,-29.297,-510.254,0.000
1606131917.750,9.766,-32.227,-9.277,82.520,0.000
1606131917.754,174.316,-19.531,3.906,513.672,0.000
1606131917.758,43.945,-28.809,-5.859,232.422,0.000
1606131917.762,-230.957,-48.828,-35.156,-401.855,0.000
1606131917.766,-278.320,-51.758,-47.852,-550.293,0.000
1606131917.770,-18.066,-36.621,-27.832,9.277,0.000
1606131917.773,189.453,-6.836,-13.672,501.953,0.000
1606131917.777,90.332,-6.348,-20.508,309.082,0.000
1606131917.781,-180.176,-44.922,-46.387,-326.172,0.000
1606131917.785,-254.395,-48.828,-51.758,-554.688,0.000
1606131917.789,-26.367,-32.715,-30.762,-59.570,0.000
1606131917.793,193.359,-20.996,-19.531,479.980,0.000
1606131917.797,128.906,-25.879,-24.414,377.441,0.000
1606131917.801,-149.414,-45.410,-34.668,-255.859,0.000
1606131917.805,-257.812,-45.898,-41.992,-572.266,0.000
1606131917.809,-56.641,-38.574,-41.504,-154.785,0.000
1606131917.813,162.109,-29.297,-30.273,423.340,0.000
1606131917.816,145.020,-13.184,-29.297,428.223,0.000
1606131917.820,-125.488,-37.109,-37.109,-179.688,0.000
1606131917.824,-298.828,-63.965,-36.133,-588.867,0.000
1606131917.828,-134.766,-48.340,-23.926,-258.301,0.000
1606131917.832,135.254,-28.320,-15.137,358.398,0.000
1606131917.836,154.785,-16.113,-19.043,445.312,0.000
1606131917.840,-101.074,-31.738,-33.691,-125.977,0.000
1606131917.844,-262.695,-54.688,-41.504,-579.590,0.000
1606131917.848,-138.672,-49.805,-34.668,-334.961,0.000
1606131917.852,121.094,-30.762,-20.020,298.340,0.000
1606131917.855,179.199,-35.156,-17.578,486.328,0.000
1606131917.859,-66.406,-53.711,-32.227,-39.551,0.000
1606131917.863,-266.602,-59.082,-32.227,-541.016,0.000
1606131917.867,-164.551,-49.316,-17.578,-384.277,0.000
1606131917.871,104.492,-32.715,-9.766,251.953,0.000
1606131917.875,180.664,-1.465,-16.602,519.043,0.000
1606131917.879,-22.461,-7.812,-27.832,59.570,0.000
1606131917.883,-251.953,-51.758,-35.645,-496.094,0.000
1606131917.887,-202.637,-47.363,-29.297,-433.594,0.000
1606131917.891,76.172,-27.832,-10.254,199.219,0.000
1606131917.895,199.707,-16.602,-5.859,541.016,0.000
1606131917.898,20.508,-31.250,-25.391,150.391,0.000
1606131917.902,-213.867,-48.340,-40.527,-447.266,0.000
1606131917.906,-213.379,-39.062,-34.180,-490.234,0.000
1606131917.910,49.805,-28.809,-18.066,118.652,0.000
1606131917.914,223.633,-4.395,-9.277,532.227,0.000
1606131917.918,76.172,25.391,-19.531,224.609,0.000
1606131917.922,-183.594,-15.625,-34.180,-390.625,0.000
1606131917.926,-221.191,-53.711,-38.086,-530.762,0.000
1606131917.930,8.789,-40.039,-24.902,22.949,0.000
1606131917.934,192.871,-28.320,-12.207,500.488,0.000
1606131917.938,77.637,-37.109,-18.555,278.320,0.000
1606131917.941,-192.871,-52.734,-29.297,-343.750,0.000
1606131917.945,-261.230,-49.316,-27.832,-560.059,0.000
1606131917.949,-30.762,-38.086,-19.531,-70.312,0.000
1606131917.953,192.383,-16.113,-9.277,463.867,0.000
1606131917.957,120.605,2.441,-17.578,340.820,0.000
1606131917.961,-149.414,-36.621,-35.645,-285.156,0.000
1606131917.965,-258.301,-63.477,-37.109,-581.543,0.000
1606131917.969,-61.523,-43.945,-25.391,-149.902,0.000
1606131917.973,186.523,-18.066,-16.113,440.430,0.000
1606131917.977,156.738,-18.555,-16.602,425.293,0.000
1606131917.980,-114.258,-41.992,-28.320,-194.336,0.000
1606131917.984,-271.484,-58.594,-33.691,-575.195,0.000
1606131917.988,-105.957,-44.922,-21.973,-220.703,0.000
1606131917.992,152.832,-21.973,-12.207,383.301,0.000
1606131917.996,155.762,-23.926,-17.090,449.219,0.000
1606131918.000,-102.051,-40.527,-33.691,-131.348,0.000
1606131918.004,-277.344,-45.898,-36.621,-567.871,0.000
1606131918.008,-147.949,-36.621,-18.066,-302.246,0.000
1606131918.012,106.445,-39.062,-15.137,313.965,0.000
1606131918.016,156.738,-3.418,-21.484,479.980,0.000
1606131918.020,-64.941,4.395,-31.738,-41.504,0.000
1606131918.023,-264.160,-48.340,-42.480,-537.598,0.000
1606131918.027,-174.316,-45.410,-33.691,-372.559,0.000
1606131918.031,100.098,-33.203,-21.484,251.953,0.000
1606131918.035,195.312,-25.879,-17.578,513.672,0.000
1606131918.039,-2.441,-33.203,-31.738,40.039,0.000
1606131918.043,-232.910,-47.852,-50.293,-523.926,0.000
1606131918.047,-193.359,-35.645,-50.293,-447.266,0.000
1606131918.051,89.844,-18.066,-25.391,184.570,0.000
1606131918.055,209.473,3.418,-20.508,505.859,0.000
1606131918.059,23.926,-1.465,-30.273,100.098,0.000
1606131918.063,-220.215,-39.062,-43.457,-484.375,0.000
1606131918.066,-202.148,-40.527,-41.992,-500.488,0.000
1606131918.070,66.406,-15.625,-18.555,108.887,0.000
1606131918.074,216.309,-5.371,-8.301,509.277,0.000
1606131918.078,53.711,-24.414,-17.578,185.547,0.000
1606131918.082,-213.867,-42.480,-35.645,-427.246,0.000
1606131918.086,-241.211,-38.086,-32.227,-532.715,0.000
1606131918.090,4.395,-28.809,-17.090,32.715,0.000
1606131918.094,184.082,-11.230,-14.648,492.676,0.000
1606131918.098,67.871,-1.465,-24.902,264.648,0.000
1606131918.102,-190.430,-41.016,-32.715,-346.680,0.000
1606131918.105,-253.418,-54.688,-23.438,-544.434,0.000
1606131918.109,-25.391,-35.645,-17.090,-41.504,0.000
1606131918.113,189.941,-16.602,-10.742,479.492,0.000
1606131918.117,98.145,-10.742,-16.602,347.656,0.000
1606131918.121,-175.781,-40.527,-33.203,-274.902,0.000
1606131918.125,-276.367,-51.758,-24.902,-562.012,0.000
1606131918.129,-76.660,-38.574,-14.648,-121.582,0.000
1606131918.133,157.227,-23.438,-17.578,444.336,0.000
1606131918.137,119.629,-22.949,-24.414,405.273,0.000
1606131918.141,-144.043,-44.922,-31.738,-213.867,0.000
1606131918.145,-270.996,-50.781,-31.738,-576.172,0.000
1606131918.148,-91.797,-37.598,-25.391,-216.797,0.000
1606131918.152,158.691,-24.902,-6.836,386.719,0.000
1606131918.156,162.109,-7.324,-3.418,447.754,0.000
1606131918.160,-93.750,-21.484,-32.227,-144.531,0.000
1606131918.164,-255.859,-45.898,-37.109,-574.707,0.000
1606131918.168,-107.910,-35.156,-16.113,-293.457,0.000
1606131918.172,150.391,-18.555,-13.184,324.219,0.000
1606131918.176,182.617,-13.672,-20.020,465.332,0.000
1606131918.180,-57.129,-31.738,-34.668,-83.496,0.000
1606131918.184,-249.023,-44.434,-48.828,-568.359,0.000
1606131918.188,-148.438,-32.715,-34.668,-372.070,0.000
1606131918.191,121.094,-19.531,-9.277,269.043,0.000
1606131918.195,205.566,-8.301,-20.020,495.605,0.000
1606131918.199,-11.719,-19.043,-39.062,-4.883,0.000
1606131918.203,-252.441,-45.898,-40.039,-541.016,0.000
1606131918.207,-189.941,-41.992,-28.320,-441.895,0.000
1606131918.211,86.914,-25.391,-11.230,183.105,0.000
1606131918.215,192.871,-7.324,-10.742,501.953,0.000
1606131918.219,3.418,-16.113,-24.414,73.242,0.000
1606131918.223,-232.910,-37.598,-42.480,-505.859,0.000
