timestamps,TP9,AF7,AF8,TP10,Right AUX
1606140455.719,0.000,0.000,0.000,-0.488,0.000
1606140455.723,-0.488,0.000,0.000,-0.977,0.000
1606140455.727,0.488,-0.488,-1.953,3.418,0.000
1606140455.731,-0.977,0.000,3.906,-4.883,0.000
1606140455.735,0.000,-0.488,-21.973,13.184,0.000
1606140455.739,16.113,0.000,-54.688,115.234,0.000
1606140455.743,2.441,2.441,-52.734,94.238,0.000
1606140455.747,-44.922,-2.441,-58.105,-97.656,0.000
1606140455.751,-66.895,-7.324,-55.176,-192.871,0.000
1606140455.755,-39.551,-8.789,-53.223,-69.336,0.000
1606140455.758,5.371,-4.395,-51.758,110.352,0.000
1606140455.762,7.812,0.488,-47.363,106.445,0.000
1606140455.766,-21.973,-3.906,-53.223,-94.238,0.000
1606140455.770,-43.457,-5.371,-51.270,-200.195,0.000
1606140455.774,-31.250,-6.836,-41.016,-89.844,0.000
1606140455.778,12.695,-10.742,-39.551,89.844,0.000
1606140455.782,13.672,-12.695,-41.016,116.699,0.000
1606140455.786,-31.738,-14.648,-39.062,-62.012,0.000
1606140455.790,-61.523,-19.043,-38.086,-184.570,0.000
1606140455.794,-46.387,-22.949,-40.039,-112.305,0.000
1606140455.798,-6.836,-26.367,-46.387,59.082,0.000
1606140455.801,-2.441,-26.855,-49.805,105.957,0.000
1606140455.805,-45.898,-26.367,-51.758,-56.152,0.000
1606140455.809,-76.172,-27.344,-55.664,-207.031,0.000
1606140455.813,-56.152,-24.414,-55.176,-155.273,0.000
1606140455.817,-16.113,-22.949,-45.898,36.133,0.000
1606140455.821,7.812,-21.484,-39.551,121.582,0.000
1606140455.825,-15.137,-20.508,-43.945,-9.277,0.000
1606140455.829,-55.176,-24.902,-43.945,-174.805,0.000
1606140455.833,-46.875,-24.414,-41.504,-147.949,0.000
1606140455.837,-1.953,-3.418,-41.016,62.988,0.000
1606140455.840,9.766,-2.441,-42.969,153.809,0.000
1606140455.844,-16.602,-23.438,-40.527,18.066,0.000
1606140455.848,-51.270,-25.391,-37.109,-145.996,0.000
1606140455.852,-59.570,-25.879,-35.156,-145.508,0.000
1606140455.856,-22.461,-30.273,-29.297,36.133,0.000
1606140455.860,2.930,-24.414,-27.832,150.879,0.000
1606140455.864,-14.648,-17.578,-30.273,47.363,0.000
1606140455.868,-49.316,-18.066,-30.762,-133.789,0.000
1606140455.872,-58.594,-25.879,-27.344,-164.551,0.000
1606140455.876,-20.996,-21.484,-28.809,10.742,0.000
1606140455.880,9.766,-22.461,-29.297,153.809,0.000
1606140455.883,-10.254,-20.508,-29.297,80.566,0.000
1606140455.887,-54.688,-14.160,-33.203,-115.234,0.000
1606140455.891,-66.406,-25.391,-31.250,-183.594,0.000
1606140455.895,-32.715,-29.297,-29.297,-31.250,0.000
1606140455.899,2.930,-20.996,-23.438,128.906,0.000
1606140455.903,-10.254,-18.066,-20.508,81.055,0.000
1606140455.907,-55.176,-24.902,-26.855,-113.281,0.000
1606140455.911,-69.824,-24.414,-30.273,-193.848,0.000
1606140455.915,-43.457,-19.531,-31.250,-64.941,0.000
1606140455.919,-7.324,-18.066,-26.367,104.004,0.000
1606140455.923,-10.254,-23.926,-19.043,96.680,0.000
1606140455.926,-54.199,-27.344,-21.484,-95.703,0.000
1606140455.930,-72.754,-29.297,-28.320,-190.918,0.000
1606140455.934,-43.457,-19.531,-26.855,-72.754,0.000
1606140455.938,-8.301,-10.254,-28.320,84.961,0.000
1606140455.942,-6.836,-28.809,-29.785,104.492,0.000
1606140455.946,-43.457,-33.691,-24.902,-64.453,0.000
1606140455.950,-69.824,-32.715,-18.555,-192.383,0.000
1606140455.954,-47.852,-34.668,-14.648,-98.145,0.000
1606140455.958,-5.859,-29.297,-16.602,85.449,0.000
1606140455.962,8.301,-21.973,-18.555,133.789,0.000
1606140455.965,-22.949,-21.973,-21.484,-24.414,0.000
1606140455.969,-59.082,-29.785,-22.461,-180.664,0.000
1606140455.973,-47.363,-33.691,-21.484,-127.441,0.000
1606140455.977,4.883,-30.273,-19.531,72.754,0.000
1606140455.981,22.461,-23.926,-24.414,132.324,0.000
1606140455.985,-9.277,-16.602,-32.227,-32.715,0.000
1606140455.989,-62.988,-20.020,-35.645,-204.102,0.000
1606140455.993,-61.523,-28.809,-39.551,-171.875,0.000
1606140455.997,-13.672,-31.738,-39.062,27.832,0.000
1606140456.001,-4.395,-32.715,-36.621,112.793,0.000
1606140456.005,-30.762,-32.715,-37.109,-14.160,0.000
1606140456.008,-61.035,-31.250,-34.668,-176.758,0.000
1606140456.012,-59.082,-29.297,-34.180,-177.734,0.000
1606140456.016,-20.020,-26.367,-35.156,17.090,0.000
1606140456.020,-1.465,-20.996,-33.691,119.629,0.000
1606140456.024,-26.855,-18.066,-35.645,11.719,0.000
1606140456.028,-64.453,-22.949,-38.086,-156.250,0.000
1606140456.032,-74.219,-29.297,-38.086,-197.266,0.000
1606140456.036,-33.691,-20.020,-37.598,-21.484,0.000
1606140456.040,3.418,-10.742,-36.621,118.164,0.000
1606140456.044,-13.672,-20.996,-33.691,39.062,0.000
1606140456.048,-51.758,-28.320,-31.738,-145.996,0.000
1606140456.051,-54.199,-19.531,-34.180,-187.012,0.000
1606140456.055,-15.625,-11.230,-34.668,-17.578,0.000
1606140456.059,12.207,-17.578,-29.785,127.441,0.000
1606140456.063,0.977,-20.020,-27.832,75.684,0.000
1606140456.067,-43.457,-23.926,-27.344,-113.281,0.000
1606140456.071,-65.918,-29.297,-27.832,-182.617,0.000
1606140456.075,-32.227,-26.367,-24.414,-32.227,0.000
1606140456.079,2.930,-27.344,-20.508,134.277,0.000
1606140456.083,-5.371,-31.738,-21.973,107.422,0.000
1606140456.087,-41.016,-28.809,-21.484,-76.172,0.000
1606140456.090,-57.129,-28.320,-16.113,-170.410,0.000
1606140456.094,-31.250,-29.297,-13.184,-56.152,0.000
1606140456.098,6.836,-26.855,-10.254,115.234,0.000
1606140456.102,6.348,-21.973,-6.348,127.441,0.000
1606140456.106,-36.621,-27.832,-14.160,-59.082,0.000
1606140456.110,-62.012,-33.691,-20.020,-174.805,0.000
1606140456.114,-43.457,-30.762,-20.996,-77.637,0.000
1606140456.118,-6.836,-29.785,-23.926,102.051,0.000
1606140456.122,-2.930,-25.879,-20.996,132.812,0.000
1606140456.126,-47.852,-28.809,-17.578,-55.664,0.000
1606140456.130,-83.496,-34.668,-23.438,-200.684,0.000
1606140456.133,-69.336,-31.250,-23.926,-130.859,0.000
1606140456.137,-29.297,-24.902,-20.508,58.105,0.000
1606140456.141,-18.066,-33.691,-22.461,117.188,0.000
1606140456.145,-47.852,-38.086,-23.438,-31.250,0.000
1606140456.149,-80.566,-35.645,-25.879,-177.246,0.000
1606140456.153,-70.801,-33.691,-25.391,-140.625,0.000
1606140456.157,-30.762,-27.344,-19.043,38.574,0.000
1606140456.161,-15.137,-27.832,-18.066,118.652,0.000
1606140456.165,-39.551,-28.809,-24.414,-4.883,0.000
1606140456.169,-70.312,-30.273,-26.367,-178.223,0.000
1606140456.173,-69.824,-25.879,-27.832,-177.734,0.000
1606140456.176,-25.391,-19.043,-24.414,14.648,0.000
1606140456.180,7.812,-17.578,-21.484,131.348,0.000
1606140456.184,-18.555,-21.484,-24.414,24.902,0.000
1606140456.188,-61.035,-25.879,-28.809,-156.250,0.000
1606140456.192,-70.801,-32.227,-27.344,-179.688,0.000
1606140456.196,-28.320,-27.832,-25.391,9.277,0.000
1606140456.200,7.812,-20.996,-28.809,143.555,0.000
1606140456.204,-5.859,-20.996,-23.438,62.012,0.000
1606140456.208,-38.574,-20.020,-22.949,-120.605,0.000
1606140456.212,-51.270,-16.113,-25.879,-156.250,0.000
1606140456.215,-24.414,-19.531,-30.762,1.953,0.000
1606140456.219,4.395,-21.484,-32.227,126.953,0.000
1606140456.223,-14.160,-26.367,-29.297,65.918,0.000
1606140456.227,-44.434,-33.691,-29.785,-111.328,0.000
1606140456.231,-48.340,-29.297,-35.645,-176.270,0.000
1606140456.235,-31.250,-22.949,-30.762,-50.781,0.000
1606140456.239,-1.953,-22.949,-19.531,106.934,0.000
1606140456.243,-4.883,-24.414,-19.531,96.680,0.000
1606140456.247,-47.363,-24.414,-21.973,-97.656,0.000
1606140456.251,-65.918,-21.973,-21.484,-196.777,0.000
1606140456.255,-34.180,-17.578,-17.090,-54.199,0.000
1606140456.258,9.277,-15.625,-17.578,124.512,0.000
1606140456.262,9.277,-12.207,-20.020,116.211,0.000
1606140456.266,-39.062,-16.602,-23.438,-78.613,0.000
1606140456.270,-70.312,-24.902,-25.879,-194.824,0.000
1606140456.274,-50.293,-13.672,-33.691,-95.703,0.000
1606140456.278,-8.789,-11.230,-31.250,100.098,0.000
1606140456.282,-4.883,-28.320,-23.926,136.230,0.000
1606140456.286,-44.434,-31.738,-27.832,-45.898,0.000
1606140456.290,-66.895,-33.691,-25.879,-172.852,0.000
1606140456.294,-49.805,-33.691,-22.949,-100.586,0.000
1606140456.298,-6.348,-29.297,-22.461,84.961,0.000
1606140456.301,10.254,-24.414,-21.484,146.484,0.000
1606140456.305,-24.902,-23.926,-25.879,-14.648,0.000
1606140456.309,-61.035,-28.809,-29.785,-178.223,0.000
1606140456.313,-59.570,-30.273,-31.250,-144.043,0.000
1606140456.317,-20.508,-4.395,-28.809,50.781,0.000
1606140456.321,5.371,-3.906,-21.973,140.137,0.000
1606140456.325,-26.855,-26.855,-21.973,-9.277,0.000
1606140456.329,-64.941,-34.668,-25.879,-182.617,0.000
1606140456.333,-57.129,-36.133,-25.879,-159.668,0.000
1606140456.337,-16.602,-31.250,-24.902,33.203,0.000
1606140456.340,4.883,-28.809,-23.926,131.348,0.000
1606140456.344,-18.555,-28.320,-22.949,7.324,0.000
1606140456.348,-62.988,-29.785,-27.344,-173.340,0.000
1606140456.352,-70.312,-28.320,-32.715,-176.270,0.000
1606140456.356,-27.832,-7.812,-27.832,14.160,0.000
1606140456.360,1.953,-10.254,-23.438,136.230,0.000
1606140456.364,-23.438,-30.273,-29.297,39.551,0.000
1606140456.368,-63.965,-27.832,-26.855,-143.066,0.000
1606140456.372,-68.848,-23.926,-24.902,-176.758,0.000
1606140456.376,-30.273,-23.926,-24.902,0.977,0.000
1606140456.380,9.766,-20.508,-15.137,149.414,0.000
1606140456.383,-1.465,-17.090,-7.812,90.332,0.000
1606140456.387,-46.875,-20.996,-12.207,-106.934,0.000
1606140456.391,-70.312,-26.367,-18.555,-182.129,0.000
1606140456.395,-34.180,-16.602,-7.812,-27.832,0.000
1606140456.399,4.883,-16.113,-10.742,129.883,0.000
1606140456.403,-12.207,-20.020,-20.508,76.660,0.000
1606140456.407,-64.941,-23.438,-14.160,-132.812,0.000
1606140456.411,-84.961,-37.598,-14.160,-220.215,0.000
1606140456.415,-62.012,-6.348,-8.301,-95.703,0.000
1606140456.419,-43.945,16.113,-7.324,52.246,0.000
1606140456.423,-45.898,-15.625,-7.324,41.016,0.000
1606140456.426,-89.355,-27.344,-5.371,-155.273,0.000
1606140456.430,-126.953,-28.320,-3.906,-277.832,0.000
1606140456.434,-118.164,-28.320,-6.348,-178.223,0.000
1606140456.438,-83.008,-23.438,-6.348,0.488,0.000
1606140456.442,-85.938,-22.949,-0.977,22.461,0.000
1606140456.446,-144.531,-27.344,-3.418,-171.387,0.000
1606140456.450,-183.105,-31.250,0.488,-324.707,0.000
1606140456.454,-169.434,-14.648,8.301,-252.930,0.000
1606140456.458,-135.742,2.441,1.465,-67.383,0.000
1606140456.462,-128.418,-14.160,1.465,-17.578,0.000
1606140456.465,-166.016,-20.020,1.465,-177.246,0.000
1606140456.469,-200.684,-22.949,-3.906,-325.684,0.000
1606140456.473,-185.059,-25.879,4.883,-266.113,0.000
1606140456.477,-136.719,-13.672,10.742,-67.871,0.000
1606140456.481,-131.348,-10.254,-0.977,-6.836,0.000
1606140456.485,-170.898,-14.648,-11.719,-162.109,0.000
1606140456.489,-203.613,-11.230,-14.648,-316.406,0.000
1606140456.493,-195.801,-3.418,-18.066,-279.785,0.000
1606140456.497,-143.066,29.297,-15.137,-75.195,0.000
1606140456.501,-122.070,19.531,-14.648,18.066,0.000
1606140456.505,-162.598,-15.137,-20.996,-116.211,0.000
1606140456.508,-185.547,-16.602,-19.043,-279.785,0.000
1606140456.512,-165.527,-14.648,-20.508,-274.414,0.000
1606140456.516,-115.234,-11.719,-21.484,-81.543,0.000
1606140456.520,-77.148,-10.254,-18.555,42.969,0.000
1606140456.524,-81.055,-6.348,-21.973,-40.527,0.000
1606140456.528,-107.422,-8.789,-29.785,-211.914,0.000
1606140456.532,-104.492,-18.555,-36.133,-239.746,0.000
1606140456.536,-53.711,-17.090,-38.086,-42.969,0.000
1606140456.540,-16.602,-15.137,-37.109,106.445,0.000
1606140456.544,-32.715,-16.113,-33.203,30.762,0.000
1606140456.548,-68.359,-14.160,-32.227,-146.973,0.000
1606140456.551,-71.777,-21.973,-37.109,-196.777,0.000
1606140456.555,-22.461,-6.348,-37.598,-22.461,0.000
1606140456.559,13.672,-6.348,-34.180,137.207,0.000
1606140456.563,2.441,-27.832,-34.668,92.285,0.000
1606140456.567,-23.926,-23.926,-37.598,-90.332,0.000
1606140456.571,-32.227,-24.902,-39.062,-157.227,0.000
1606140456.575,4.883,-26.855,-37.598,-5.371,0.000
1606140456.579,47.363,-19.531,-37.109,162.109,0.000
1606140456.583,49.805,-17.578,-37.598,151.855,0.000
1606140456.587,17.090,-19.043,-40.527,-27.832,0.000
1606140456.590,-7.812,-23.926,-43.945,-128.906,0.000
1606140456.594,19.043,-1.953,-47.363,-20.996,0.000
1606140456.598,59.570,19.043,-48.340,159.668,0.000
1606140456.602,53.711,-5.371,-50.293,178.223,0.000
1606140456.606,2.930,-21.973,-52.734,-10.254,0.000
1606140456.610,-16.602,-28.809,-48.828,-134.766,0.000
1606140456.614,8.301,-29.297,-50.293,-40.527,0.000
1606140456.618,40.527,-20.508,-46.875,152.344,0.000
1606140456.622,55.176,-21.484,-41.504,188.477,0.000
1606140456.626,20.996,-28.809,-43.457,14.160,0.000
1606140456.630,-6.348,-35.156,-42.480,-113.281,0.000
1606140456.633,9.766,-21.484,-42.969,-38.086,0.000
1606140456.637,50.781,-3.906,-40.527,145.020,0.000
1606140456.641,68.848,-22.949,-36.621,204.590,0.000
1606140456.645,36.621,-33.203,-38.086,55.176,0.000
1606140456.649,-5.859,-34.180,-41.016,-97.656,0.000
1606140456.653,0.977,-33.203,-42.969,-69.824,0.000
1606140456.657,42.480,-28.320,-39.062,120.605,0.000
1606140456.661,52.734,-27.832,-35.645,208.008,0.000
1606140456.665,31.738,-27.344,-37.109,74.707,0.000
1606140456.669,-4.395,-33.203,-39.062,-98.633,0.000
1606140456.673,1.953,-29.297,-39.551,-90.332,0.000
1606140456.676,57.129,-18.066,-36.133,109.863,0.000
1606140456.680,79.590,-25.391,-33.691,218.750,0.000
1606140456.684,48.828,-34.180,-37.109,100.098,0.000
1606140456.688,3.906,-34.180,-39.062,-92.285,0.000
1606140456.692,-3.906,-37.109,-38.574,-122.070,0.000
1606140456.696,33.203,1.953,-41.016,59.082,0.000
1606140456.700,70.312,12.695,-37.109,193.848,0.000
1606140456.704,53.711,-29.785,-37.109,113.281,0.000
1606140456.708,-5.859,-38.574,-44.434,-82.031,0.000
1606140456.712,-15.137,-39.062,-40.039,-140.137,0.000
1606140456.715,27.832,-33.691,-36.133,26.367,0.000
1606140456.719,55.664,-36.621,-38.086,172.852,0.000
1606140456.723,40.527,-36.133,-32.715,125.000,0.000
1606140456.727,5.371,-27.832,-31.738,-54.688,0.000
1606140456.731,-9.277,-37.109,-36.133,-132.812,0.000
1606140456.735,18.066,-12.207,-37.109,1.953,0.000
1606140456.739,50.293,-5.371,-37.109,157.227,0.000
1606140456.743,45.898,-36.621,-38.574,137.695,0.000
1606140456.747,3.906,-34.180,-39.551,-51.270,0.000
1606140456.751,-20.508,-37.109,-38.086,-151.367,0.000
1606140456.755,7.812,-35.156,-30.762,-31.250,0.000
1606140456.758,40.527,-29.785,-24.902,143.555,0.000
1606140456.762,39.062,-26.855,-23.926,143.555,0.000
1606140456.766,-0.977,-22.949,-26.367,-40.039,0.000
1606140456.770,-36.133,-34.180,-28.320,-158.203,0.000
1606140456.774,-7.324,-4.883,-24.902,-54.199,0.000
1606140456.778,34.180,37.109,-25.879,127.441,0.000
1606140456.782,20.996,-5.371,-26.367,144.043,0.000
1606140456.786,-19.531,-41.016,-28.320,-37.598,0.000
1606140456.790,-43.945,-39.551,-31.250,-171.387,0.000
1606140456.794,-27.832,-31.738,-28.320,-103.516,0.000
1606140456.798,16.113,-30.273,-23.438,78.125,0.000
1606140456.801,25.879,-35.156,-15.625,134.277,0.000
1606140456.805,-10.742,-33.203,-18.066,-17.090,0.000
1606140456.809,-39.062,-32.227,-26.855,-164.062,0.000
1606140456.813,-37.598,-34.668,-26.855,-124.023,0.000
1606140456.817,-4.883,-33.203,-22.461,81.055,0.000
1606140456.821,16.602,-29.297,-15.137,170.410,0.000
1606140456.825,-12.695,-27.832,-16.602,19.531,0.000
1606140456.829,-48.828,-34.180,-21.973,-150.879,0.000
1606140456.833,-43.945,-26.367,-21.484,-141.113,0.000
1606140456.837,-0.977,7.324,-21.973,50.781,0.000
1606140456.840,26.855,-1.953,-20.020,159.668,0.000
1606140456.844,-0.488,-24.414,-17.578,41.504,0.000
1606140456.848,-43.457,-28.809,-17.578,-138.672,0.000
1606140456.852,-45.410,-28.320,-18.066,-149.902,0.000
1606140456.856,-12.695,-23.438,-21.484,24.414,0.000
1606140456.860,7.812,-26.855,-21.973,145.508,0.000
1606140456.864,-1.953,-26.367,-17.090,64.941,0.000
1606140456.868,-41.016,-22.461,-17.578,-112.793,0.000
1606140456.872,-59.082,-35.645,-16.113,-161.133,0.000
1606140456.876,-20.020,28.809,-17.090,-1.465,0.000
1606140456.880,8.789,55.664,-19.043,133.301,0.000
1606140456.883,-8.301,-20.020,-16.602,74.707,0.000
1606140456.887,-51.758,-35.156,-22.461,-111.328,0.000
1606140456.891,-71.777,-35.156,-28.320,-187.988,0.000
1606140456.895,-35.156,-34.180,-22.949,-37.109,0.000
1606140456.899,5.371,-24.902,-15.137,129.395,0.000
1606140456.903,-5.371,-22.461,-15.625,103.516,0.000
1606140456.907,-51.270,-23.438,-20.508,-83.496,0.000
1606140456.911,-69.824,-33.203,-21.484,-175.293,0.000
1606140456.915,-36.621,-9.277,-17.578,-44.922,0.000
1606140456.919,0.000,4.883,-17.578,125.488,0.000
1606140456.923,-11.230,-25.879,-20.020,113.770,0.000
1606140456.926,-51.758,-31.250,-21.973,-77.148,0.000
1606140456.930,-67.383,-30.273,-21.973,-182.617,0.000
1606140456.934,-47.852,-26.367,-25.391,-90.820,0.000
1606140456.938,-12.207,-26.855,-21.973,88.379,0.000
1606140456.942,-7.812,-33.203,-13.672,124.023,0.000
1606140456.946,-46.387,-35.156,-17.090,-53.223,0.000
1606140456.950,-73.730,-32.715,-18.066,-184.570,0.000
1606140456.954,-56.152,-30.762,-19.043,-111.816,0.000
1606140456.958,-11.719,-27.344,-18.555,82.520,0.000
1606140456.962,8.301,-26.855,-17.578,149.414,0.000
1606140456.965,-21.484,-25.391,-19.043,-4.883,0.000
1606140456.969,-58.105,-30.762,-23.926,-157.227,0.000
1606140456.973,-46.875,-20.996,-29.297,-123.047,0.000
1606140456.977,1.953,34.668,-18.555,81.055,0.000
1606140456.981,22.949,20.020,-12.695,171.387,0.000
1606140456.985,-13.672,-20.508,-20.508,16.602,0.000
1606140456.989,-53.223,-24.902,-23.926,-153.809,0.000
1606140456.993,-52.734,-28.809,-23.926,-135.254,0.000
1606140456.997,-16.113,-26.855,-21.973,53.711,0.000
1606140457.001,4.883,-31.738,-18.555,150.879,0.000
1606140457.005,-23.926,-35.156,-21.973,29.785,0.000
1606140457.008,-63.477,-40.039,-28.320,-149.902,0.000
1606140457.012,-63.965,-36.133,-31.250,-166.504,0.000
1606140457.016,-22.461,-1.465,-27.832,22.949,0.000
1606140457.020,4.395,-9.277,-20.996,140.625,0.000
1606140457.024,-11.230,-29.785,-20.508,49.805,0.000
1606140457.028,-49.805,-30.762,-20.508,-136.719,0.000
1606140457.032,-59.082,-35.156,-24.414,-193.848,0.000
1606140457.036,-18.555,-30.762,-22.461,-19.531,0.000
1606140457.040,18.555,-27.344,-16.113,133.301,0.000
1606140457.044,0.977,-28.320,-20.996,71.777,0.000
1606140457.048,-41.992,-27.832,-25.879,-118.652,0.000
1606140457.051,-53.711,-37.598,-18.555,-174.805,0.000
1606140457.055,-22.461,3.418,-11.230,-7.324,0.000
1606140457.059,6.348,27.344,-14.160,145.020,0.000
1606140457.063,-14.648,-20.508,-20.020,92.285,0.000
1606140457.067,-57.129,-33.691,-22.461,-99.121,0.000
1606140457.071,-78.125,-33.203,-20.996,-181.641,0.000
1606140457.075,-58.594,-33.203,-22.949,-51.758,0.000
1606140457.079,-13.672,-31.738,-20.020,119.629,0.000
1606140457.083,-10.742,-30.762,-15.625,113.770,0.000
1606140457.087,-52.734,-33.203,-19.043,-74.219,0.000
1606140457.090,-74.707,-37.598,-20.996,-184.570,0.000
1606140457.094,-51.758,-35.156,-21.484,-82.031,0.000
1606140457.098,-4.395,-27.344,-16.602,109.863,0.000
1606140457.102,11.719,-25.879,-16.113,141.602,0.000
1606140457.106,-31.250,-21.973,-20.508,-50.293,0.000
1606140457.110,-58.594,-29.297,-20.508,-181.152,0.000
1606140457.114,-37.598,-16.602,-14.648,-99.609,0.000
1606140457.118,-0.488,-2.441,-16.113,83.984,0.000
1606140457.122,13.184,-20.996,-24.902,132.812,0.000
1606140457.126,-6.348,-23.438,-30.762,-27.344,0.000
1606140457.130,-29.785,-30.762,-27.832,-166.504,0.000
1606140457.133,-33.203,-33.691,-17.090,-117.188,0.000
1606140457.137,-4.883,-34.180,-9.766,69.336,0.000
1606140457.141,6.836,-39.062,-9.766,133.789,0.000
1606140457.145,-28.320,-46.875,-14.160,-13.184,0.000
1606140457.149,-65.918,-50.293,-8.789,-161.621,0.000
1606140457.153,-57.129,-44.434,-7.324,-132.812,0.000
1606140457.157,-10.254,-31.738,-11.719,59.570,0.000
1606140457.161,8.789,-38.086,-5.371,145.020,0.000
1606140457.165,-22.949,-55.176,-4.883,18.066,0.000
1606140457.169,-57.129,-60.547,-7.324,-138.672,0.000
1606140457.173,-51.270,-59.570,-3.418,-132.324,0.000
1606140457.176,-14.160,-52.734,4.395,49.316,0.000
1606140457.180,27.344,-44.434,4.883,177.246,0.000
1606140457.184,5.859,-41.504,-1.953,86.426,0.000
1606140457.188,-50.293,-49.316,-6.348,-101.562,0.000
1606140457.192,-51.270,-46.875,-5.371,-124.512,0.000
1606140457.196,-2.930,-8.301,-4.395,49.805,0.000
1606140457.200,22.949,-18.555,-4.395,165.527,0.000
1606140457.204,1.953,-51.270,-4.395,93.262,0.000
1606140457.208,-41.016,-48.828,-4.883,-94.727,0.000
1606140457.212,-52.734,-49.805,-8.789,-157.715,0.000
1606140457.215,-17.578,-46.387,-13.184,-5.859,0.000
1606140457.219,15.625,-41.992,-6.836,146.973,0.000
1606140457.223,2.930,-41.992,-1.953,106.934,0.000
1606140457.227,-42.969,-42.480,-5.859,-86.426,0.000
1606140457.231,-52.246,-37.598,-9.277,-164.062,0.000
1606140457.235,-17.090,-36.621,-8.789,-35.156,0.000
1606140457.239,12.207,-36.621,-9.277,120.117,0.000
1606140457.243,6.348,-35.645,-14.160,110.352,0.000
1606140457.247,-27.344,-34.668,-16.602,-74.707,0.000
1606140457.251,-54.199,-41.016,-17.578,-183.105,0.000
1606140457.255,-31.738,-20.020,-20.508,-78.125,0.000
1606140457.258,9.277,8.301,-19.531,106.934,0.000
1606140457.262,15.625,-21.484,-16.113,129.395,0.000
1606140457.266,-20.020,-45.410,-18.555,-57.617,0.000
1606140457.270,-63.477,-50.293,-23.438,-186.523,0.000
1606140457.274,-43.457,-41.992,-23.926,-91.797,0.000
1606140457.278,8.301,-31.738,-20.996,97.656,0.000
1606140457.282,11.719,-38.574,-18.555,132.324,0.000
1606140457.286,-32.227,-42.480,-17.090,-36.133,0.000
1606140457.290,-67.871,-49.805,-22.949,-171.875,0.000
1606140457.294,-55.664,-24.414,-25.879,-112.793,0.000
1606140457.298,-7.812,2.441,-18.066,79.590,0.000
1606140457.301,5.371,-32.715,-16.113,146.484,0.000
1606140457.305,-35.156,-47.852,-21.484,-3.418,0.000
1606140457.309,-76.660,-47.852,-27.832,-162.598,0.000
1606140457.313,-74.707,-44.922,-24.414,-131.836,0.000
1606140457.317,-31.250,-41.504,-21.484,66.895,0.000
1606140457.321,-9.766,-43.945,-19.531,157.715,0.000
1606140457.325,-29.785,-41.504,-20.996,20.996,0.000
1606140457.329,-67.383,-44.922,-29.785,-152.832,0.000
1606140457.333,-71.777,-38.086,-23.926,-139.648,0.000
1606140457.337,-13.184,-6.348,-17.578,65.430,0.000
1606140457.340,17.578,-16.602,-23.438,164.062,0.000
1606140457.344,-28.320,-36.621,-27.832,14.160,0.000
1606140457.348,-80.566,-36.621,-29.785,-177.246,0.000
1606140457.352,-84.473,-31.250,-31.738,-190.430,0.000
1606140457.356,-42.480,-16.113,-30.273,-10.254,0.000
1606140457.360,-14.648,-22.949,-27.344,113.281,0.000
1606140457.364,-31.738,-33.691,-31.738,22.949,0.000
1606140457.368,-64.941,-40.527,-40.039,-160.645,0.000
1606140457.372,-83.008,-45.410,-40.527,-204.590,0.000
1606140457.376,-51.270,-39.551,-34.180,-37.598,0.000
1606140457.380,-8.789,-34.180,-25.879,120.605,0.000
1606140457.383,-12.207,-29.785,-20.508,84.961,0.000
1606140457.387,-59.570,-33.691,-24.902,-111.328,0.000
1606140457.391,-81.055,-44.434,-27.832,-196.777,0.000
1606140457.395,-46.387,-21.484,-23.438,-57.129,0.000
1606140457.399,-15.625,-17.578,-20.020,103.516,0.000
1606140457.403,-20.020,-35.156,-18.066,88.379,0.000
1606140457.407,-62.500,-34.668,-21.973,-105.469,0.000
1606140457.411,-86.914,-40.527,-28.320,-203.613,0.000
1606140457.415,-57.129,-33.691,-28.809,-70.312,0.000
1606140457.419,-14.160,-29.297,-26.367,111.816,0.000
1606140457.423,-9.766,-34.180,-19.043,123.535,0.000
1606140457.426,-53.223,-31.738,-17.578,-60.547,0.000
1606140457.430,-86.426,-41.992,-23.438,-179.688,0.000
1606140457.434,-68.359,-17.090,-19.531,-85.449,0.000
1606140457.438,-24.414,28.320,-13.672,93.750,0.000
1606140457.442,-21.484,-15.625,-17.578,110.840,0.000
1606140457.446,-62.988,-50.293,-19.531,-65.430,0.000
1606140457.450,-94.727,-47.363,-19.531,-196.289,0.000
1606140457.454,-78.613,-42.480,-19.043,-127.930,0.000
1606140457.458,-34.668,-35.156,-18.555,58.105,0.000
1606140457.462,-11.230,-34.180,-17.578,115.234,0.000
1606140457.465,-46.875,-37.598,-22.461,-41.504,0.000
1606140457.469,-86.914,-42.480,-29.297,-198.242,0.000
1606140457.473,-61.523,-13.184,-31.738,-145.508,0.000
1606140457.477,-8.789,10.254,-31.738,54.688,0.000
1606140457.481,4.395,-28.320,-31.250,125.000,0.000
1606140457.485,-27.344,-38.574,-28.320,-13.184,0.000
1606140457.489,-65.430,-32.227,-30.762,-179.199,0.000
1606140457.493,-61.523,-26.855,-29.785,-165.527,0.000
1606140457.497,-13.184,-20.020,-26.367,35.156,0.000
1606140457.501,-0.488,-31.250,-30.273,136.230,0.000
1606140457.505,-31.250,-29.785,-30.762,8.789,0.000
1606140457.508,-65.918,-27.832,-33.691,-165.039,0.000
1606140457.512,-65.918,-26.855,-34.668,-178.223,0.000
1606140457.516,-24.414,-23.926,-30.273,4.883,0.000
1606140457.520,0.977,-27.344,-29.785,136.230,0.000
1606140457.524,-16.602,-26.367,-27.344,56.641,0.000
1606140457.528,-62.500,-28.320,-28.320,-133.301,0.000
1606140457.532,-76.660,-43.457,-25.391,-189.941,0.000
1606140457.536,-39.062,4.883,-14.648,-20.508,0.000
1606140457.540,-7.812,20.508,-15.137,131.836,0.000
1606140457.544,-19.531,-31.250,-17.578,71.289,0.000
1606140457.548,-49.805,-33.203,-25.391,-113.281,0.000
1606140457.551,-55.664,-34.668,-28.320,-167.969,0.000
1606140457.555,-29.785,-35.156,-20.020,-21.484,0.000
1606140457.559,-6.836,-35.645,-15.625,123.535,0.000
1606140457.563,-10.742,-37.109,-15.625,86.914,0.000
1606140457.567,-40.527,-33.203,-18.066,-97.168,0.000
1606140457.571,-68.359,-41.504,-17.090,-187.500,0.000
1606140457.575,-48.340,-2.930,-17.090,-72.266,0.000
1606140457.579,-4.395,12.207,-14.648,100.586,0.000
1606140457.583,3.418,-28.320,-13.184,104.492,0.000
1606140457.587,-35.156,-31.738,-10.254,-78.613,0.000
1606140457.590,-63.965,-40.039,-12.695,-194.824,0.000
1606140457.594,-41.992,-40.039,-20.996,-100.098,0.000
1606140457.598,-5.859,-34.180,-19.531,80.078,0.000
1606140457.602,-1.465,-34.668,-16.602,112.793,0.000
1606140457.606,-39.551,-38.574,-19.531,-55.664,0.000
1606140457.610,-70.312,-42.480,-22.949,-191.895,0.000
1606140457.614,-54.688,-20.508,-18.066,-114.746,0.000
1606140457.618,-11.719,-15.137,-7.324,86.914,0.000
1606140457.622,2.930,-34.180,-10.742,145.508,0.000
1606140457.626,-37.109,-36.621,-20.508,-24.902,0.000
1606140457.630,-70.801,-41.992,-20.996,-181.152,0.000
1606140457.633,-60.059,-28.809,-26.855,-129.395,0.000
1606140457.637,-19.043,-14.160,-29.297,65.918,0.000
1606140457.641,-0.977,-31.250,-26.367,143.066,0.000
1606140457.645,-35.645,-39.551,-29.785,-3.418,0.000
1606140457.649,-70.801,-41.992,-28.809,-163.086,0.000
1606140457.653,-63.965,-36.621,-26.367,-140.137,0.000
1606140457.657,-22.949,-32.715,-23.438,43.457,0.000
1606140457.661,1.953,-33.203,-15.625,149.902,0.000
1606140457.665,-18.555,-28.809,-17.090,41.504,0.000
1606140457.669,-60.059,-37.109,-23.926,-142.578,0.000
1606140457.673,-55.176,-37.109,-26.367,-155.762,0.000
1606140457.676,-16.602,-5.859,-27.344,32.227,0.000
1606140457.680,6.348,-10.742,-21.973,145.996,0.000
1606140457.684,-3.418,-30.273,-18.066,49.316,0.000
1606140457.688,-42.969,-28.320,-21.484,-134.277,0.000
1606140457.692,-51.758,-31.738,-26.855,-179.688,0.000
1606140457.696,-7.812,-27.832,-24.902,-7.324,0.000
1606140457.700,28.320,-22.461,-18.555,140.625,0.000
1606140457.704,6.348,-28.809,-16.602,74.707,0.000
1606140457.708,-40.527,-31.738,-18.066,-112.305,0.000
1606140457.712,-52.246,-34.668,-22.461,-167.480,0.000
1606140457.715,-17.090,3.906,-22.461,-21.484,0.000
1606140457.719,16.602,24.414,-20.996,129.395,0.000
1606140457.723,4.883,-19.531,-18.066,93.262,0.000
1606140457.727,-39.062,-34.668,-21.484,-100.586,0.000
1606140457.731,-55.664,-36.133,-23.926,-182.129,0.000
1606140457.735,-27.832,-32.715,-23.926,-49.316,0.000
1606140457.739,5.859,-29.785,-22.461,115.723,0.000
1606140457.743,6.348,-20.996,-18.555,111.328,0.000
1606140457.747,-34.668,-20.996,-24.902,-86.914,0.000
1606140457.751,-62.500,-32.715,-26.367,-202.637,0.000
1606140457.755,-37.109,-21.973,-20.996,-83.008,0.000
1606140457.758,-1.465,-19.043,-24.902,94.727,0.000
1606140457.762,-6.836,-30.762,-28.320,99.121,0.000
1606140457.766,-51.758,-33.203,-28.320,-83.008,0.000
1606140457.770,-81.055,-37.109,-29.297,-203.125,0.000
1606140457.774,-62.500,-20.996,-31.738,-115.234,0.000
1606140457.778,-21.973,-13.672,-29.297,78.125,0.000
1606140457.782,-13.184,-32.715,-22.461,125.000,0.000
1606140457.786,-50.781,-37.109,-24.902,-47.363,0.000
1606140457.790,-77.148,-36.133,-24.902,-183.105,0.000
1606140457.794,-61.523,-34.668,-25.879,-122.070,0.000
1606140457.798,-16.602,-35.645,-28.809,61.035,0.000
1606140457.801,6.348,-35.645,-26.367,139.648,0.000
1606140457.805,-22.949,-32.227,-27.832,4.395,0.000
1606140457.809,-62.500,-34.180,-34.180,-164.062,0.000
1606140457.813,-61.035,-38.574,-35.645,-154.297,0.000
1606140457.817,-18.066,-25.391,-31.738,36.133,0.000
1606140457.821,11.719,-20.996,-26.367,144.531,0.000
1606140457.825,-14.648,-33.691,-23.926,21.973,0.000
1606140457.829,-59.082,-37.109,-26.367,-157.227,0.000
1606140457.833,-59.570,-35.645,-22.949,-166.992,0.000
1606140457.837,-18.066,-30.273,-22.461,11.719,0.000
1606140457.840,3.906,-28.809,-24.902,128.418,0.000
1606140457.844,-18.066,-31.250,-29.785,32.715,0.000
1606140457.848,-57.129,-31.738,-29.297,-148.438,0.000
1606140457.852,-57.129,-28.809,-26.855,-169.922,0.000
1606140457.856,-11.719,-26.855,-23.926,6.836,0.000
1606140457.860,17.578,-27.344,-20.508,125.488,0.000
1606140457.864,-1.465,-27.344,-22.461,46.875,0.000
1606140457.868,-45.410,-27.344,-26.855,-134.766,0.000
1606140457.872,-65.430,-30.762,-30.273,-188.965,0.000
1606140457.876,-36.621,-28.320,-28.320,-26.367,0.000
1606140457.880,-5.371,-24.902,-27.832,129.883,0.000
1606140457.883,-18.066,-28.320,-25.879,89.355,0.000
1606140457.887,-58.594,-30.273,-22.461,-101.562,0.000
1606140457.891,-83.008,-34.180,-24.414,-185.547,0.000
1606140457.895,-53.711,-25.879,-22.461,-41.504,0.000
1606140457.899,-3.906,-20.020,-20.508,120.117,0.000
1606140457.903,-18.555,-29.785,-26.855,85.938,0.000
1606140457.907,-71.777,-29.785,-33.691,-112.793,0.000
1606140457.911,-88.379,-36.133,-31.738,-207.031,0.000
1606140457.915,-58.105,-12.207,-33.203,-84.473,0.000
1606140457.919,-17.578,5.371,-30.273,91.797,0.000
1606140457.923,-13.184,-23.438,-22.949,99.609,0.000
1606140457.926,-49.805,-31.250,-22.949,-78.125,0.000
1606140457.930,-76.660,-32.227,-29.785,-192.383,0.000
1606140457.934,-53.223,-30.273,-36.621,-106.934,0.000
1606140457.938,-4.395,-24.414,-30.762,79.590,0.000
1606140457.942,3.906,-24.902,-20.020,124.512,0.000
1606140457.946,-39.551,-31.738,-21.484,-47.363,0.000
1606140457.950,-66.895,-39.551,-22.461,-190.918,0.000
1606140457.954,-47.363,-29.785,-21.973,-130.371,0.000
1606140457.958,-6.348,-17.578,-21.973,58.105,0.000
1606140457.962,6.348,-22.949,-17.090,125.488,0.000
1606140457.965,-31.250,-27.832,-18.066,-26.855,0.000
1606140457.969,-64.941,-31.250,-20.508,-176.758,0.000
1606140457.973,-43.945,-31.738,-21.484,-146.484,0.000
1606140457.977,-8.301,-30.762,-18.555,44.434,0.000
1606140457.981,0.488,-28.809,-16.113,139.160,0.000
1606140457.985,-27.832,-33.203,-19.531,6.348,0.000
1606140457.989,-68.359,-35.156,-22.949,-161.133,0.000
1606140457.993,-60.059,-29.297,-24.414,-147.461,0.000
1606140457.997,-17.578,-12.695,-25.391,31.738,0.000
1606140458.001,4.395,-19.043,-23.926,125.977,0.000
1606140458.005,-11.719,-39.551,-22.949,24.414,0.000
1606140458.008,-41.504,-35.156,-23.438,-141.602,0.000
1606140458.012,-46.387,-30.762,-26.855,-161.621,0.000
1606140458.016,-16.113,-29.785,-27.344,8.301,0.000
1606140458.020,10.742,-25.391,-23.438,129.395,0.000
1606140458.024,-5.371,-25.391,-23.926,53.711,0.000
1606140458.028,-51.270,-32.227,-30.273,-126.953,0.000
1606140458.032,-62.988,-37.109,-24.414,-182.129,0.000
1606140458.036,-21.484,-29.297,-15.625,-16.602,0.000
1606140458.040,12.695,-26.855,-15.625,131.348,0.000
1606140458.044,1.465,-32.227,-19.043,75.684,0.000
1606140458.048,-41.992,-31.738,-18.066,-110.352,0.000
1606140458.051,-61.035,-35.156,-15.625,-182.129,0.000
1606140458.055,-16.602,-17.090,-15.137,-36.133,0.000
1606140458.059,17.578,-13.184,-12.695,125.488,0.000
1606140458.063,0.488,-33.203,-15.137,96.191,0.000
1606140458.067,-44.434,-34.668,-21.973,-102.051,0.000
1606140458.071,-64.453,-34.668,-20.996,-196.777,0.000
1606140458.075,-32.227,-33.203,-20.020,-66.895,0.000
1606140458.079,4.395,-29.297,-20.020,102.539,0.000
1606140458.083,5.371,-28.809,-17.090,108.887,0.000
1606140458.087,-38.574,-27.832,-17.090,-72.754,0.000
1606140458.090,-63.965,-37.109,-20.508,-180.664,0.000
1606140458.094,-41.504,-17.090,-24.414,-81.543,0.000
1606140458.098,-5.859,16.602,-22.461,90.820,0.000
1606140458.102,-0.977,-14.648,-18.066,122.070,0.000
1606140458.106,-41.992,-37.598,-20.508,-46.387,0.000
1606140458.110,-75.195,-36.133,-26.367,-184.082,0.000
1606140458.114,-60.547,-34.180,-27.344,-128.418,0.000
1606140458.118,-19.043,-31.250,-24.414,58.594,0.000
1606140458.122,-4.883,-31.250,-23.926,116.211,0.000
1606140458.126,-37.598,-30.762,-25.879,-39.551,0.000
1606140458.130,-71.777,-35.645,-27.344,-185.547,0.000
1606140458.133,-61.523,-25.879,-25.879,-138.672,0.000
1606140458.137,-14.160,-14.160,-25.391,51.270,0.000
1606140458.141,-2.930,-24.414,-25.391,136.230,0.000
1606140458.145,-46.875,-33.691,-27.832,0.000,0.000
1606140458.149,-84.473,-39.551,-28.320,-167.969,0.000
1606140458.153,-82.031,-34.668,-24.414,-157.227,0.000
1606140458.157,-43.457,-33.691,-22.949,26.855,0.000
1606140458.161,-18.066,-37.109,-22.949,127.441,0.000
1606140458.165,-34.668,-36.621,-20.996,17.578,0.000
1606140458.169,-76.172,-41.992,-27.344,-162.598,0.000
1606140458.173,-82.031,-39.551,-32.227,-181.152,0.000
1606140458.176,-37.109,-33.691,-26.855,4.395,0.000
1606140458.180,-8.301,-31.738,-27.344,130.371,0.000
1606140458.184,-22.461,-30.762,-32.715,45.898,0.000
1606140458.188,-54.688,-36.621,-33.691,-140.625,0.000
1606140458.192,-63.965,-41.504,-22.461,-185.059,0.000
1606140458.196,-41.992,-33.203,-16.113,-17.090,0.000
1606140458.200,-27.344,-29.297,-12.207,114.746,0.000
1606140458.204,-40.527,-40.527,-10.254,52.246,0.000
1606140458.208,-77.148,-43.945,-10.254,-135.742,0.000
1606140458.212,-90.820,-42.480,-2.930,-198.242,0.000
1606140458.215,-61.035,-44.922,1.465,-41.504,0.000
1606140458.219,-26.367,-46.387,-3.418,115.723,0.000
1606140458.223,-29.785,-34.668,-6.348,86.426,0.000
1606140458.227,-71.777,-29.785,-10.254,-109.863,0.000
1606140458.231,-96.191,-40.527,-18.066,-211.426,0.000
1606140458.235,-70.801,-35.645,-18.066,-90.820,0.000
1606140458.239,-31.738,-32.227,-13.184,86.426,0.000
1606140458.243,-31.250,-42.969,-10.742,104.004,0.000
1606140458.247,-72.266,-45.410,-18.066,-80.078,0.000
1606140458.251,-91.797,-41.992,-20.508,-198.242,0.000
1606140458.255,-63.477,-42.969,-18.066,-97.168,0.000
1606140458.258,-19.531,-43.457,-16.113,85.938,0.000
1606140458.262,-15.137,-41.504,-18.066,118.164,0.000
1606140458.266,-56.641,-38.086,-21.973,-61.035,0.000
1606140458.270,-78.613,-44.922,-17.090,-193.359,0.000
1606140458.274,-53.223,-25.391,-18.555,-99.121,0.000
1606140458.278,-11.719,6.348,-19.531,79.590,0.000
1606140458.282,-2.441,-20.020,-12.207,120.117,0.000
1606140458.286,-39.062,-38.086,-12.207,-35.645,0.000
1606140458.290,-75.684,-36.621,-21.973,-179.688,0.000
1606140458.294,-67.383,-34.668,-22.949,-131.348,0.000
1606140458.298,-22.949,-34.180,-15.137,59.570,0.000
1606140458.301,-7.812,-36.621,-17.090,138.672,0.000
1606140458.305,-42.480,-30.762,-22.461,0.000,0.000
1606140458.309,-76.660,-34.180,-21.484,-159.668,0.000
1606140458.313,-71.289,-40.039,-20.020,-142.578,0.000
1606140458.317,-19.531,-36.133,-26.855,48.340,0.000
1606140458.321,7.812,-31.738,-25.879,147.949,0.000
1606140458.325,-33.203,-34.180,-22.949,21.484,0.000
1606140458.329,-78.125,-43.945,-28.320,-158.203,0.000
1606140458.333,-68.848,-39.062,-29.785,-163.574,0.000
1606140458.337,-24.902,-27.344,-22.949,29.785,0.000
1606140458.340,-1.465,-34.668,-20.996,149.414,0.000
1606140458.344,-20.508,-36.133,-25.391,43.457,0.000
1606140458.348,-62.500,-37.109,-28.320,-146.484,0.000
1606140458.352,-61.523,-29.297,-25.879,-175.781,0.000
1606140458.356,-19.043,-14.160,-25.879,-1.953,0.000
1606140458.360,4.883,-24.414,-23.926,130.371,0.000
1606140458.364,-7.324,-31.738,-20.020,64.941,0.000
1606140458.368,-48.828,-33.203,-24.414,-123.047,0.000
1606140458.372,-68.359,-34.668,-25.391,-193.848,0.000
1606140458.376,-38.574,-24.902,-23.926,-48.828,0.000
1606140458.380,-3.418,-23.926,-21.973,110.840,0.000
1606140458.383,-8.301,-32.715,-22.949,75.195,0.000
1606140458.387,-53.711,-39.062,-26.855,-120.117,0.000
1606140458.391,-75.684,-38.574,-25.879,-200.195,0.000
1606140458.395,-40.527,-27.344,-22.949,-62.988,0.000
1606140458.399,0.488,-23.926,-21.484,111.816,0.000
1606140458.403,-4.883,-30.273,-23.438,99.609,0.000
1606140458.407,-49.805,-41.504,-28.320,-98.145,0.000
1606140458.411,-70.801,-45.898,-32.715,-197.754,0.000
1606140458.415,-44.434,-29.297,-34.668,-82.520,0.000
1606140458.419,0.977,-14.648,-32.227,97.656,0.000
1606140458.423,8.301,-30.762,-27.344,120.117,0.000
1606140458.426,-36.621,-39.062,-30.762,-61.523,0.000
1606140458.430,-59.082,-32.227,-28.320,-178.711,0.000
1606140458.434,-41.504,-31.250,-23.438,-94.727,0.000
1606140458.438,-2.930,-30.273,-24.414,83.496,0.000
1606140458.442,4.395,-29.785,-26.367,119.629,0.000
1606140458.446,-41.504,-33.691,-28.809,-50.293,0.000
1606140458.450,-70.801,-34.180,-28.809,-187.012,0.000
1606140458.454,-57.617,-28.809,-28.809,-127.441,0.000
1606140458.458,-27.344,-25.879,-27.832,64.941,0.000
1606140458.462,-6.348,-24.414,-22.949,145.996,0.000
1606140458.465,-43.457,-30.273,-23.926,-11.230,0.000
1606140458.469,-87.402,-41.992,-29.297,-189.453,0.000
1606140458.473,-75.684,-36.621,-32.227,-158.203,0.000
1606140458.477,-36.621,-16.602,-32.715,44.434,0.000
1606140458.481,-19.531,-27.344,-26.367,138.672,0.000
1606140458.485,-43.945,-43.457,-27.344,8.301,0.000
1606140458.489,-83.008,-46.387,-33.691,-167.969,0.000
1606140458.493,-76.660,-44.922,-29.785,-166.992,0.000
1606140458.497,-20.508,-36.621,-24.414,32.227,0.000
1606140458.501,-2.441,-32.227,-21.484,144.043,0.000
1606140458.505,-28.320,-34.668,-21.973,38.574,0.000
1606140458.508,-64.941,-38.086,-28.320,-141.602,0.000
1606140458.512,-71.289,-35.645,-26.367,-180.176,0.000
1606140458.516,-33.203,-17.578,-20.020,-2.441,0.000
1606140458.520,-10.254,-22.461,-18.555,125.977,0.000
1606140458.524,-29.785,-40.527,-14.648,60.059,0.000
1606140458.528,-58.105,-42.480,-17.578,-113.770,0.000
1606140458.532,-54.199,-29.297,-29.297,-170.898,0.000
1606140458.536,-23.926,-23.438,-37.109,-23.438,0.000
1606140458.540,4.395,-21.484,-37.598,122.559,0.000
1606140458.544,12.695,-8.789,-37.598,76.660,0.000
1606140458.548,-32.715,-5.859,-45.410,-121.094,0.000
1606140458.551,-61.523,-14.648,-57.617,-198.730,0.000
1606140458.555,-13.672,-0.977,-62.012,-51.270,0.000
1606140458.559,17.578,4.883,-65.430,105.469,0.000
1606140458.563,3.906,-1.465,-73.242,69.824,0.000
1606140458.567,-40.527,-1.953,-76.660,-125.977,0.000
1606140458.571,-58.105,-4.395,-78.613,-215.820,0.000
1606140458.575,-10.254,9.766,-80.566,-91.797,0.000
1606140458.579,29.297,4.883,-78.613,82.031,0.000
1606140458.583,10.742,-14.160,-76.660,91.309,0.000
1606140458.587,-31.738,-14.160,-76.172,-83.984,0.000
1606140458.590,-52.734,-18.066,-74.707,-196.777,0.000
1606140458.594,-28.809,-5.859,-72.266,-101.074,0.000
1606140458.598,26.367,2.441,-65.918,96.191,0.000
1606140458.602,31.250,-12.695,-61.035,143.066,0.000
1606140458.606,-24.902,-19.531,-65.430,-37.598,0.000
1606140458.610,-53.223,-21.484,-66.895,-183.594,0.000
1606140458.614,-25.879,-9.277,-62.012,-116.699,0.000
1606140458.618,17.090,-4.395,-56.641,81.543,0.000
1606140458.622,18.066,-15.625,-52.734,144.043,0.000
1606140458.626,-2.930,-17.578,-51.270,-5.859,0.000
1606140458.630,-35.156,-22.461,-48.340,-154.785,0.000
1606140458.633,-36.133,-13.184,-47.363,-118.164,0.000
1606140458.637,2.930,-6.348,-47.852,68.359,0.000
1606140458.641,15.137,-20.020,-44.434,146.973,0.000
1606140458.645,-13.672,-21.484,-42.969,18.555,0.000
1606140458.649,-46.387,-18.555,-42.480,-134.277,0.000
1606140458.653,-48.828,-23.438,-48.340,-137.207,0.000
1606140458.657,-11.230,-9.766,-49.316,33.691,0.000
1606140458.661,16.113,-5.371,-42.969,142.090,0.000
1606140458.665,-2.441,-20.996,-41.504,43.457,0.000
1606140458.669,-37.598,-25.879,-44.434,-133.301,0.000
1606140458.673,-34.668,-25.879,-43.945,-155.762,0.000
1606140458.676,8.789,-26.367,-41.504,21.484,0.000
1606140458.680,37.598,-26.367,-37.109,145.020,0.000
1606140458.684,19.043,-25.391,-36.621,63.477,0.000
1606140458.688,-23.926,-22.461,-37.109,-122.559,0.000
1606140458.692,-27.832,-20.996,-38.574,-166.504,0.000
1606140458.696,5.859,-8.301,-39.551,-5.371,0.000
1606140458.700,14.648,-15.137,-37.109,123.535,0.000
1606140458.704,-0.977,-27.344,-34.668,67.383,0.000
1606140458.708,-42.480,-23.438,-35.156,-114.746,0.000
1606140458.712,-51.758,-22.949,-38.086,-184.082,0.000
1606140458.715,-17.090,-17.578,-34.180,-37.598,0.000
1606140458.719,9.277,-15.137,-33.203,125.000,0.000
1606140458.723,4.395,-16.602,-34.668,96.680,0.000
1606140458.727,-36.621,-21.973,-33.691,-88.379,0.000
1606140458.731,-52.734,-21.484,-36.133,-173.828,0.000
1606140458.735,-22.461,-16.602,-33.691,-54.199,0.000
1606140458.739,19.043,-17.090,-28.809,119.141,0.000
1606140458.743,25.391,-13.672,-25.879,137.207,0.000
1606140458.747,-20.508,-19.043,-28.809,-49.316,0.000
1606140458.751,-55.176,-27.832,-34.668,-178.223,0.000
1606140458.755,-37.598,-21.484,-35.156,-86.914,0.000
1606140458.758,0.000,-20.020,-33.203,98.633,0.000
1606140458.762,1.953,-26.367,-27.832,132.324,0.000
1606140458.766,-38.574,-30.762,-28.809,-48.828,0.000
1606140458.770,-59.570,-36.621,-30.273,-183.594,0.000
1606140458.774,-41.016,-14.648,-30.273,-109.375,0.000
1606140458.778,-0.488,3.418,-32.227,78.125,0.000
1606140458.782,17.578,-18.066,-28.809,127.441,0.000
1606140458.786,-15.137,-24.414,-32.227,-40.039,0.000
1606140458.790,-47.852,-29.785,-34.180,-185.547,0.000
1606140458.794,-37.598,-24.414,-34.180,-142.578,0.000
1606140458.798,-3.418,-13.184,-31.250,41.504,0.000
1606140458.801,16.602,-27.344,-24.902,127.441,0.000
1606140458.805,-8.789,-25.391,-23.926,4.395,0.000
1606140458.809,-40.527,-23.926,-24.414,-160.645,0.000
1606140458.813,-42.969,-26.855,-21.973,-152.832,0.000
1606140458.817,-11.719,-28.320,-23.926,37.598,0.000
1606140458.821,17.578,-33.691,-28.320,143.555,0.000
1606140458.825,-7.812,-30.762,-21.973,29.297,0.000
1606140458.829,-50.293,-34.180,-21.484,-151.367,0.000
1606140458.833,-61.523,-37.109,-26.367,-166.016,0.000
1606140458.837,-28.809,-8.301,-31.738,14.160,0.000
1606140458.840,0.000,-6.348,-27.344,127.930,0.000
1606140458.844,-16.602,-33.691,-22.949,36.133,0.000
1606140458.848,-59.570,-38.086,-26.367,-140.625,0.000
1606140458.852,-66.895,-35.645,-25.879,-181.641,0.000
1606140458.856,-34.180,-32.715,-24.414,-21.484,0.000
1606140458.860,6.836,-26.367,-20.508,131.836,0.000
1606140458.864,12.695,-28.320,-21.484,89.844,0.000
1606140458.868,-40.527,-29.785,-31.738,-110.352,0.000
1606140458.872,-76.660,-26.367,-31.250,-199.219,0.000
1606140458.876,-50.781,-27.832,-21.484,-54.199,0.000
1606140458.880,-8.789,-27.832,-18.555,111.816,0.000
1606140458.883,-14.648,-28.320,-26.367,81.543,0.000
1606140458.887,-53.711,-29.297,-32.227,-120.117,0.000
1606140458.891,-69.336,-35.156,-31.738,-204.590,0.000
1606140458.895,-37.598,-14.160,-30.273,-63.477,0.000
1606140458.899,6.836,-7.812,-27.344,106.934,0.000
1606140458.903,7.812,-28.809,-21.973,101.074,0.000
1606140458.907,-20.508,-30.273,-24.902,-80.078,0.000
1606140458.911,-51.270,-36.133,-32.227,-195.801,0.000
1606140458.915,-42.480,-36.133,-27.832,-94.727,0.000
1606140458.919,1.465,-31.250,-24.414,94.727,0.000
1606140458.923,5.859,-29.785,-25.879,115.234,0.000
1606140458.926,-33.203,-32.227,-27.344,-65.918,0.000
1606140458.930,-60.547,-38.086,-31.250,-187.012,0.000
1606140458.934,-48.828,-11.230,-32.715,-111.816,0.000
1606140458.938,-8.789,26.367,-30.273,77.148,0.000
1606140458.942,6.348,-7.812,-30.273,133.789,0.000
1606140458.946,-28.320,-38.086,-28.809,-28.809,0.000
1606140458.950,-58.105,-39.551,-30.273,-172.852,0.000
1606140458.954,-44.922,-36.133,-33.691,-123.535,0.000
1606140458.958,-7.812,-33.203,-28.809,62.012,0.000
1606140458.962,1.465,-33.691,-25.391,137.207,0.000
1606140458.965,-33.691,-28.320,-26.855,-1.465,0.000
1606140458.969,-63.477,-37.109,-23.438,-164.062,0.000
1606140458.973,-52.246,-28.320,-18.066,-143.066,0.000
1606140458.977,-26.367,-7.324,-20.508,41.016,0.000
1606140458.981,-14.160,-32.227,-20.996,124.512,0.000
1606140458.985,-35.156,-40.039,-23.438,4.883,0.000
1606140458.989,-71.777,-39.551,-27.832,-164.551,0.000
1606140458.993,-67.871,-38.574,-30.273,-167.480,0.000
1606140458.997,-21.973,-32.227,-29.785,23.926,0.000
1606140459.001,1.953,-33.203,-24.902,140.137,0.000
1606140459.005,-20.996,-33.691,-26.855,34.668,0.000
1606140459.008,-61.523,-35.645,-26.367,-146.484,0.000
1606140459.012,-67.871,-33.203,-26.855,-176.270,0.000
1606140459.016,-25.879,-29.785,-24.414,2.441,0.000
1606140459.020,8.789,-26.855,-20.020,144.531,0.000
1606140459.024,-3.418,-25.391,-23.926,73.242,0.000
1606140459.028,-42.480,-27.344,-28.809,-113.281,0.000
1606140459.032,-56.152,-38.086,-29.297,-177.246,0.000
1606140459.036,-30.762,-21.484,-33.203,-43.945,0.000
1606140459.040,-1.953,-6.348,-35.156,106.934,0.000
1606140459.044,-12.695,-32.227,-35.156,71.777,0.000
1606140459.048,-60.547,-44.922,-39.551,-121.582,0.000
1606140459.051,-77.148,-43.457,-36.621,-199.707,0.000
1606140459.055,-45.898,-35.156,-30.273,-56.152,0.000
1606140459.059,-10.742,-31.738,-26.855,111.816,0.000
1606140459.063,-15.137,-36.133,-26.367,94.727,0.000
1606140459.067,-59.082,-37.598,-27.344,-96.191,0.000
1606140459.071,-80.566,-41.016,-30.762,-192.871,0.000
1606140459.075,-53.223,-26.855,-36.133,-88.867,0.000
1606140459.079,-5.371,-20.020,-34.668,81.543,0.000
1606140459.083,2.441,-35.645,-22.461,112.793,0.000
1606140459.087,-36.133,-33.691,-16.113,-46.875,0.000
1606140459.090,-72.266,-37.598,-15.625,-170.898,0.000
1606140459.094,-67.871,-42.480,-15.137,-100.586,0.000
1606140459.098,-24.902,-43.457,-16.113,75.684,0.000
1606140459.102,-18.066,-48.340,-17.090,117.676,0.000
1606140459.106,-58.594,-43.457,-16.602,-51.758,0.000
1606140459.110,-84.473,-42.480,-21.973,-195.312,0.000
1606140459.114,-71.289,-32.715,-26.855,-139.160,0.000
1606140459.118,-25.879,-25.879,-24.902,57.129,0.000
1606140459.122,-9.766,-39.062,-24.902,125.000,0.000
1606140459.126,-39.551,-41.504,-29.297,-30.273,0.000
1606140459.130,-77.637,-46.875,-26.367,-182.129,0.000
1606140459.133,-69.336,-30.762,-20.508,-137.207,0.000
1606140459.137,-17.090,-11.719,-23.926,58.594,0.000
1606140459.141,0.000,-29.785,-22.949,143.555,0.000
1606140459.145,-26.855,-38.086,-20.020,14.160,0.000
1606140459.149,-62.988,-38.086,-23.926,-159.180,0.000
1606140459.153,-62.988,-34.180,-22.949,-158.691,0.000
1606140459.157,-24.414,-29.785,-19.531,29.297,0.000
1606140459.161,2.930,-32.227,-15.137,143.555,0.000
1606140459.165,-15.137,-29.297,-19.043,33.691,0.000
1606140459.169,-60.059,-33.691,-23.926,-159.668,0.000
1606140459.173,-67.871,-34.668,-20.996,-184.082,0.000
1606140459.176,-25.391,-10.254,-17.090,1.465,0.000
1606140459.180,6.836,-12.207,-15.625,138.672,0.000
1606140459.184,-13.672,-35.156,-21.973,59.082,0.000
1606140459.188,-52.734,-37.598,-24.902,-126.953,0.000
1606140459.192,-61.035,-36.621,-22.461,-183.594,0.000
1606140459.196,-22.949,-34.668,-20.996,-21.973,0.000
1606140459.200,12.207,-33.203,-17.578,135.254,0.000
1606140459.204,-2.441,-36.133,-21.484,81.543,0.000
1606140459.208,-47.363,-40.039,-27.344,-115.234,0.000
1606140459.212,-61.035,-36.133,-27.344,-188.965,0.000
1606140459.215,-30.762,-22.949,-27.344,-50.293,0.000
1606140459.219,0.488,-19.531,-24.414,104.004,0.000
1606140459.223,-7.812,-31.738,-20.020,84.473,0.000
1606140459.227,-52.734,-39.551,-23.926,-105.957,0.000
1606140459.231,-74.707,-43.945,-31.738,-208.496,0.000
1606140459.235,-49.316,-34.668,-33.203,-93.262,0.000
1606140459.239,-9.277,-27.832,-28.809,80.566,0.000
1606140459.243,0.977,-31.250,-21.973,100.586,0.000
1606140459.247,-41.504,-35.645,-20.508,-72.266,0.000
1606140459.251,-66.895,-40.039,-23.926,-190.430,0.000
1606140459.255,-44.434,-32.715,-25.391,-90.820,0.000
1606140459.258,5.859,-26.367,-21.973,99.121,0.000
1606140459.262,7.812,-31.738,-17.578,125.977,0.000
1606140459.266,-41.992,-34.668,-19.531,-52.246,0.000
1606140459.270,-72.754,-41.016,-25.391,-194.824,0.000
1606140459.274,-57.129,-32.227,-26.367,-124.512,0.000
1606140459.278,-7.324,-21.973,-23.926,68.848,0.000
1606140459.282,4.395,-30.762,-24.414,126.465,0.000
1606140459.286,-34.180,-30.273,-24.902,-24.414,0.000
1606140459.290,-70.801,-33.203,-25.391,-169.434,0.000
1606140459.294,-69.336,-38.574,-31.250,-134.766,0.000
1606140459.298,-28.809,-37.598,-30.762,55.664,0.000
1606140459.301,-11.230,-38.574,-26.855,139.160,0.000
1606140459.305,-34.668,-32.227,-23.926,16.113,0.000
1606140459.309,-68.848,-34.180,-28.320,-146.484,0.000
1606140459.313,-81.055,-41.016,-31.250,-159.180,0.000
1606140459.317,-37.598,-25.879,-23.926,19.043,0.000
1606140459.321,-9.277,-18.555,-18.066,143.066,0.000
1606140459.325,-35.156,-27.344,-17.090,40.039,0.000
1606140459.329,-68.359,-31.738,-20.508,-148.438,0.000
1606140459.333,-70.312,-31.250,-24.902,-176.758,0.000
1606140459.337,-24.902,-25.391,-23.926,13.184,0.000
1606140459.340,3.418,-20.508,-25.879,135.742,0.000
1606140459.344,-17.090,-23.438,-29.785,41.504,0.000
1606140459.348,-42.969,-25.879,-28.320,-125.977,0.000
1606140459.352,-46.875,-24.902,-27.344,-162.109,0.000
1606140459.356,-21.973,-15.137,-26.855,-9.766,0.000
1606140459.360,3.906,-18.555,-26.855,125.000,0.000
1606140459.364,-9.766,-28.809,-27.832,63.965,0.000
1606140459.368,-45.898,-23.926,-26.367,-119.629,0.000
1606140459.372,-66.406,-30.273,-25.879,-196.289,0.000
1606140459.376,-40.039,-31.250,-27.832,-58.594,0.000
1606140459.380,-0.977,-25.879,-29.297,100.586,0.000
1606140459.383,-11.230,-23.926,-31.250,71.777,0.000
1606140459.387,-59.082,-26.367,-30.273,-116.211,0.000
1606140459.391,-82.031,-33.203,-31.250,-210.449,0.000
1606140459.395,-49.316,-22.461,-29.785,-79.590,0.000
1606140459.399,-1.953,-15.137,-23.438,110.840,0.000
1606140459.403,0.000,-28.320,-22.949,114.746,0.000
1606140459.407,-44.922,-33.203,-26.855,-83.008,0.000
1606140459.411,-79.590,-39.062,-30.273,-204.590,0.000
1606140459.415,-64.941,-15.137,-32.227,-99.121,0.000
1606140459.419,-11.230,0.977,-32.227,79.102,0.000
1606140459.423,-5.371,-29.297,-27.344,106.445,0.000
1606140459.426,-61.523,-40.039,-27.344,-64.453,0.000
1606140459.430,-86.914,-41.992,-33.203,-192.871,0.000
1606140459.434,-63.477,-35.645,-32.715,-110.352,0.000
1606140459.438,-14.648,-33.691,-25.879,86.914,0.000
1606140459.442,-0.488,-38.574,-17.578,146.484,0.000
1606140459.446,-40.527,-38.574,-17.578,-19.531,0.000
1606140459.450,-79.590,-44.434,-24.414,-182.617,0.000
1606140459.454,-70.312,-23.926,-27.832,-155.273,0.000
1606140459.458,-26.367,1.465,-23.926,30.762,0.000
1606140459.462,-7.324,-26.855,-20.020,114.746,0.000
1606140459.465,-36.621,-38.574,-23.438,-20.996,0.000
1606140459.469,-67.383,-35.645,-23.438,-171.387,0.000
1606140459.473,-58.105,-36.621,-23.926,-150.391,0.000
1606140459.477,-14.160,-31.250,-27.832,43.457,0.000
1606140459.481,7.812,-31.738,-28.809,145.996,0.000
1606140459.485,-14.648,-33.691,-26.367,25.879,0.000
1606140459.489,-54.199,-36.133,-29.785,-154.785,0.000
1606140459.493,-56.641,-36.133,-29.297,-167.480,0.000
1606140459.497,-20.020,-17.578,-32.715,4.395,0.000
1606140459.501,8.789,-15.137,-33.691,118.652,0.000
1606140459.505,-6.348,-30.273,-28.809,36.621,0.000
1606140459.508,-53.223,-31.250,-27.344,-140.137,0.000
1606140459.512,-60.059,-33.203,-28.320,-174.805,0.000
1606140459.516,-27.832,-35.156,-30.762,-9.766,0.000
1606140459.520,3.906,-31.250,-26.855,120.605,0.000
1606140459.524,-7.324,-31.738,-26.855,67.383,0.000
1606140459.528,-69.336,-36.621,-30.273,-117.676,0.000
1606140459.532,-82.520,-39.062,-30.273,-188.965,0.000
1606140459.536,-43.945,-31.738,-26.855,-35.156,0.000
1606140459.540,-7.324,-30.762,-21.973,125.977,0.000
1606140459.544,-13.184,-34.668,-19.043,87.891,0.000
1606140459.548,-53.711,-33.203,-18.555,-103.516,0.000
1606140459.551,-72.754,-35.156,-20.508,-188.477,0.000
1606140459.555,-45.898,-25.879,-22.949,-62.012,0.000
1606140459.559,1.465,-20.508,-18.066,105.957,0.000
1606140459.563,-6.836,-31.250,-18.555,87.891,0.000
1606140459.567,-54.688,-36.133,-23.438,-105.957,0.000
1606140459.571,-72.754,-37.109,-26.855,-209.961,0.000
1606140459.575,-47.852,-34.668,-26.367,-105.957,0.000
1606140459.579,-7.324,-28.320,-21.973,72.754,0.000
1606140459.583,2.930,-22.949,-18.066,104.004,0.000
1606140459.587,-28.809,-24.414,-20.996,-57.617,0.000
1606140459.590,-58.594,-28.320,-28.320,-191.406,0.000
1606140459.594,-51.758,-19.531,-31.250,-126.953,0.000
1606140459.598,-13.184,-2.930,-25.391,55.664,0.000
1606140459.602,-0.977,-14.160,-22.949,104.980,0.000
1606140459.606,-37.109,-29.785,-27.344,-50.293,0.000
1606140459.610,-67.871,-30.762,-26.855,-189.941,0.000
1606140459.614,-44.922,-25.391,-22.461,-137.207,0.000
1606140459.618,-11.230,-28.320,-23.438,52.734,0.000
1606140459.622,-11.719,-35.645,-25.879,123.535,0.000
1606140459.626,-39.062,-32.715,-22.949,-21.484,0.000
1606140459.630,-71.289,-28.809,-20.996,-167.969,0.000
1606140459.633,-57.617,-28.320,-22.949,-132.812,0.000
1606140459.637,-20.996,-28.320,-23.926,42.969,0.000
1606140459.641,-7.812,-27.344,-17.578,128.418,0.000
1606140459.645,-28.809,-26.367,-14.648,10.254,0.000
1606140459.649,-61.523,-30.762,-18.555,-151.855,0.000
1606140459.653,-62.012,-35.156,-23.926,-157.227,0.000
1606140459.657,-23.926,-33.691,-24.902,14.160,0.000
1606140459.661,-2.930,-31.738,-23.438,118.652,0.000
1606140459.665,-20.996,-30.762,-23.926,27.832,0.000
1606140459.669,-61.035,-35.645,-21.973,-144.043,0.000
1606140459.673,-74.707,-38.086,-26.367,-175.293,0.000
1606140459.676,-40.039,-36.133,-30.762,-10.254,0.000
1606140459.680,-5.859,-30.273,-25.391,121.582,0.000
1606140459.684,-19.531,-32.227,-26.367,42.480,0.000
1606140459.688,-66.406,-38.574,-26.855,-155.762,0.000
1606140459.692,-74.707,-38.086,-25.879,-212.891,0.000
1606140459.696,-36.621,-32.227,-29.297,-49.316,0.000
1606140459.700,-4.395,-23.926,-25.391,107.910,0.000
1606140459.704,-19.531,-27.832,-21.973,64.453,0.000
1606140459.708,-63.965,-35.645,-23.926,-125.977,0.000
1606140459.712,-75.684,-35.645,-26.855,-205.566,0.000
1606140459.715,-38.574,-31.738,-24.902,-64.941,0.000
1606140459.719,-2.441,-32.715,-20.508,100.098,0.000
1606140459.723,3.906,-34.180,-24.414,89.844,0.000
1606140459.727,-40.039,-35.645,-30.762,-91.797,0.000
1606140459.731,-75.684,-34.180,-28.809,-189.941,0.000
1606140459.735,-56.152,-33.691,-29.297,-87.891,0.000
1606140459.739,-17.578,-34.668,-27.832,79.102,0.000
1606140459.743,-1.465,-28.320,-20.996,118.164,0.000
1606140459.747,-44.922,-32.227,-21.973,-57.617,0.000
1606140459.751,-72.754,-35.645,-22.949,-184.570,0.000
1606140459.755,-54.199,-32.715,-19.531,-99.609,0.000
1606140459.758,-20.020,-31.250,-17.090,79.590,0.000
1606140459.762,-11.719,-29.297,-19.043,127.930,0.000
1606140459.766,-49.805,-29.785,-23.926,-36.133,0.000
1606140459.770,-83.008,-30.762,-26.367,-177.246,0.000
1606140459.774,-58.105,-32.227,-23.926,-108.398,0.000
1606140459.778,-24.902,-36.133,-24.902,70.801,0.000
1606140459.782,-28.320,-38.574,-25.391,119.141,0.000
1606140459.786,-52.246,-34.180,-22.949,-29.785,0.000
1606140459.790,-78.125,-33.203,-28.320,-173.340,0.000
1606140459.794,-64.453,-31.250,-29.297,-143.066,0.000
1606140459.798,-15.137,-28.809,-21.973,37.109,0.000
1606140459.801,8.301,-24.414,-20.996,124.512,0.000
1606140459.805,-15.625,-18.066,-20.996,-4.883,0.000
1606140459.809,-53.711,-23.438,-22.461,-170.898,0.000
1606140459.813,-54.199,-25.391,-23.438,-169.922,0.000
1606140459.817,-8.789,-21.484,-21.484,26.367,0.000
1606140459.821,16.113,-22.461,-19.531,149.414,0.000
1606140459.825,11.719,-24.414,-21.973,53.223,0.000
1606140459.829,-20.996,-16.602,-27.832,-127.441,0.000
1606140459.833,-54.199,-16.113,-33.691,-171.875,0.000
1606140459.837,-17.090,-15.137,-37.109,-8.789,0.000
1606140459.840,24.902,-6.836,-35.645,121.094,0.000
1606140459.844,-12.695,-12.207,-32.227,50.293,0.000
1606140459.848,-71.289,-22.949,-32.715,-136.230,0.000
1606140459.852,-80.566,-19.531,-29.785,-181.641,0.000
1606140459.856,-44.434,-19.531,-25.391,-23.438,0.000
1606140459.860,-2.930,-21.484,-21.973,118.164,0.000
1606140459.864,-11.719,-23.926,-19.531,75.684,0.000
1606140459.868,-55.664,-28.320,-25.879,-104.492,0.000
1606140459.872,-74.219,-32.715,-34.180,-189.941,0.000
1606140459.876,-49.316,-29.785,-41.016,-61.523,0.000
1606140459.880,-10.742,-19.043,-36.133,104.004,0.000
1606140459.883,-9.766,-20.508,-30.273,94.727,0.000
1606140459.887,-42.480,-23.926,-35.645,-92.773,0.000
1606140459.891,-58.594,-27.344,-38.574,-191.895,0.000
1606140459.895,-46.875,-31.250,-40.039,-80.078,0.000
1606140459.899,-6.348,-28.320,-33.203,97.168,0.000
1606140459.903,-1.953,-26.367,-25.879,112.793,0.000
1606140459.907,-47.852,-32.715,-26.855,-76.172,0.000
1606140459.911,-64.941,-33.203,-31.250,-196.289,0.000
1606140459.915,-45.410,-27.344,-31.738,-92.773,0.000
1606140459.919,-15.625,-23.926,-26.855,90.332,0.000
1606140459.923,-6.348,-23.926,-23.926,114.258,0.000
1606140459.926,-48.340,-29.297,-30.762,-62.988,0.000
1606140459.930,-74.219,-33.203,-33.203,-194.824,0.000
1606140459.934,-52.246,-28.809,-30.273,-122.070,0.000
1606140459.938,-9.766,-27.832,-29.297,60.547,0.000
1606140459.942,4.883,-28.320,-27.832,116.699,0.000
1606140459.946,-20.996,-28.809,-27.832,-21.973,0.000
1606140459.950,-55.664,-30.762,-30.273,-168.945,0.000
1606140459.954,-50.293,-33.203,-31.250,-136.230,0.000
1606140459.958,-8.789,-26.855,-22.949,56.641,0.000
1606140459.962,9.766,-20.996,-16.113,147.461,0.000
1606140459.965,-20.996,-22.949,-18.066,9.766,0.000
1606140459.969,-65.430,-31.738,-25.391,-172.852,0.000
1606140459.973,-68.359,-30.762,-31.250,-170.410,0.000
1606140459.977,-27.832,-28.320,-27.832,17.090,0.000
1606140459.981,-3.906,-34.180,-26.367,127.930,0.000
1606140459.985,-31.250,-34.180,-32.715,23.438,0.000
1606140459.989,-65.430,-30.762,-33.203,-150.391,0.000
1606140459.993,-65.918,-28.320,-29.785,-158.203,0.000
1606140459.997,-33.691,-33.203,-30.273,17.578,0.000
1606140460.001,-7.324,-32.227,-26.855,132.324,0.000
1606140460.005,-21.484,-23.438,-24.902,45.410,0.000
1606140460.008,-60.059,-26.367,-26.367,-134.277,0.000
1606140460.012,-82.031,-28.809,-25.391,-178.711,0.000
1606140460.016,-48.828,-23.438,-26.855,-14.648,0.000
1606140460.020,-12.207,-20.996,-26.855,127.441,0.000
1606140460.024,-22.461,-25.391,-28.809,78.125,0.000
1606140460.028,-62.988,-30.273,-29.297,-106.445,0.000
1606140460.032,-68.359,-23.926,-29.297,-180.176,0.000
1606140460.036,-33.691,-23.926,-26.367,-39.551,0.000
1606140460.040,-0.977,-22.461,-21.484,120.605,0.000
1606140460.044,-0.488,-18.555,-20.996,101.074,0.000
1606140460.048,-36.621,-20.996,-25.391,-88.867,0.000
1606140460.051,-52.246,-16.113,-26.855,-173.340,0.000
1606140460.055,-27.344,-20.508,-22.949,-43.457,0.000
1606140460.059,14.160,-28.809,-19.531,118.164,0.000
1606140460.063,17.578,-27.344,-15.625,108.887,0.000
1606140460.067,-26.367,-26.855,-20.996,-81.055,0.000
1606140460.071,-52.246,-27.832,-30.273,-192.383,0.000
1606140460.075,-31.250,-26.367,-28.809,-93.262,0.000
1606140460.079,8.789,-20.508,-20.508,88.867,0.000
1606140460.083,16.113,-20.020,-18.066,122.070,0.000
1606140460.087,-25.391,-23.438,-20.020,-48.828,0.000
1606140460.090,-55.176,-24.414,-21.484,-184.082,0.000
1606140460.094,-29.297,-26.855,-20.020,-121.094,0.000
1606140460.098,7.324,-22.949,-20.020,64.453,0.000
1606140460.102,2.930,-19.531,-23.438,125.977,0.000
1606140460.106,-34.180,-27.832,-27.832,-37.109,0.000
1606140460.110,-70.801,-27.832,-26.855,-189.941,0.000
1606140460.114,-65.918,-32.227,-26.367,-151.855,0.000
1606140460.118,-20.020,-32.715,-26.855,41.992,0.000
1606140460.122,-3.906,-28.320,-26.367,122.559,0.000
1606140460.126,-34.668,-37.109,-25.879,-14.648,0.000
1606140460.130,-64.453,-38.086,-25.391,-168.945,0.000
1606140460.133,-54.688,-29.297,-27.832,-151.367,0.000
1606140460.137,-11.230,-23.926,-30.273,27.832,0.000
1606140460.141,10.742,-22.461,-29.785,130.371,0.000
1606140460.145,-10.742,-22.461,-28.320,36.133,0.000
1606140460.149,-53.223,-27.344,-30.762,-137.695,0.000
1606140460.153,-62.012,-30.273,-29.785,-160.156,0.000
1606140460.157,-26.855,-37.109,-29.785,11.719,0.000
1606140460.161,-4.883,-38.086,-32.227,122.070,0.000
1606140460.165,-29.785,-28.809,-33.691,33.203,0.000
1606140460.169,-66.895,-30.762,-36.133,-146.973,0.000
1606140460.173,-75.195,-33.203,-34.180,-188.477,0.000
1606140460.176,-50.781,-28.809,-32.227,-23.438,0.000
1606140460.180,-14.160,-25.391,-28.809,124.512,0.000
1606140460.184,-22.949,-27.832,-29.785,69.824,0.000
1606140460.188,-58.594,-29.785,-34.180,-118.652,0.000
1606140460.192,-68.359,-30.273,-33.203,-180.664,0.000
1606140460.196,-33.203,-15.625,-30.273,-24.902,0.000
1606140460.200,6.836,-12.207,-25.879,124.512,0.000
1606140460.204,0.488,-22.461,-21.973,90.820,0.000
1606140460.208,-44.434,-29.785,-24.902,-99.121,0.000
1606140460.212,-68.848,-32.715,-28.320,-187.012,0.000
1606140460.215,-38.086,-30.762,-26.855,-65.918,0.000
1606140460.219,-1.953,-29.297,-21.973,104.492,0.000
1606140460.223,-4.883,-25.879,-18.555,107.910,0.000
1606140460.227,-34.668,-27.344,-18.066,-73.242,0.000
1606140460.231,-58.594,-31.738,-22.461,-184.570,0.000
1606140460.235,-37.109,-30.762,-26.855,-79.590,0.000
1606140460.239,12.207,-26.855,-25.879,98.633,0.000
1606140460.243,10.742,-23.926,-25.879,117.188,0.000
1606140460.247,-32.715,-19.043,-27.344,-50.781,0.000
1606140460.251,-59.082,-20.020,-27.344,-184.570,0.000
1606140460.255,-44.434,-27.344,-24.414,-115.723,0.000
1606140460.258,-3.418,-29.785,-22.461,73.242,0.000
1606140460.262,5.371,-20.508,-25.391,130.859,0.000
1606140460.266,-24.902,-20.996,-29.785,-39.062,0.000
1606140460.270,-66.895,-28.809,-29.297,-194.824,0.000
1606140460.274,-62.988,-24.902,-29.297,-135.742,0.000
1606140460.278,-12.695,-19.531,-26.855,60.547,0.000
1606140460.282,7.812,-18.066,-21.484,133.301,0.000
1606140460.286,-18.555,-15.625,-21.973,-9.766,0.000
1606140460.290,-63.477,-19.043,-26.855,-170.898,0.000
1606140460.294,-59.570,-19.531,-30.273,-155.762,0.000
1606140460.298,-14.160,-19.043,-29.785,28.809,0.000
1606140460.301,3.418,-26.855,-30.762,118.652,0.000
1606140460.305,-22.461,-28.809,-33.203,7.324,0.000
1606140460.309,-48.340,-30.762,-33.691,-150.879,0.000
1606140460.313,-49.805,-31.250,-38.574,-165.527,0.000
1606140460.317,-12.207,-25.391,-39.551,5.859,0.000
1606140460.321,20.508,-22.949,-35.645,131.836,0.000
1606140460.325,-5.859,-30.273,-40.039,27.344,0.000
1606140460.329,-53.223,-36.133,-40.039,-159.180,0.000
1606140460.333,-54.199,-31.250,-32.715,-157.715,0.000
1606140460.337,-10.742,-7.812,-30.273,20.996,0.000
1606140460.340,14.648,-8.301,-31.738,138.184,0.000
1606140460.344,-13.672,-28.809,-31.738,59.570,0.000
1606140460.348,-59.082,-32.715,-31.738,-131.348,0.000
1606140460.352,-65.918,-30.762,-31.738,-180.664,0.000
1606140460.356,-30.273,-24.902,-26.367,-13.672,0.000
1606140460.360,1.465,-27.344,-23.926,140.137,0.000
1606140460.364,-8.789,-35.645,-24.414,98.145,0.000
1606140460.368,-49.805,-33.203,-26.367,-90.332,0.000
1606140460.372,-69.824,-33.691,-28.320,-168.457,0.000
1606140460.376,-41.504,-38.086,-25.391,-39.062,0.000
1606140460.380,-1.953,-32.715,-21.973,120.117,0.000
1606140460.383,-1.465,-28.320,-24.902,117.676,0.000
1606140460.387,-49.805,-27.344,-27.344,-73.730,0.000
1606140460.391,-82.031,-37.598,-31.250,-194.336,0.000
1606140460.395,-57.617,-27.832,-36.133,-88.867,0.000
1606140460.399,-14.160,-12.695,-26.367,95.703,0.000
1606140460.403,-10.254,-26.855,-20.020,113.281,0.000
1606140460.407,-49.805,-32.227,-27.344,-68.359,0.000
1606140460.411,-78.125,-32.227,-29.785,-192.383,0.000
1606140460.415,-59.082,-32.227,-27.832,-109.375,0.000
1606140460.419,-13.672,-27.832,-25.391,73.730,0.000
1606140460.423,-6.348,-26.367,-23.926,119.629,0.000
1606140460.426,-44.922,-31.250,-26.367,-36.621,0.000
1606140460.430,-68.359,-34.668,-29.297,-169.434,0.000
1606140460.434,-55.664,-24.414,-27.832,-110.840,0.000
1606140460.438,-16.113,-2.441,-29.785,69.824,0.000
1606140460.442,-6.836,-17.578,-32.715,120.117,0.000
1606140460.446,-49.316,-37.109,-27.832,-34.180,0.000
1606140460.450,-84.961,-35.156,-26.855,-183.594,0.000
1606140460.454,-77.637,-36.621,-32.227,-143.555,0.000
1606140460.458,-31.738,-37.598,-29.297,50.781,0.000
1606140460.462,-14.160,-41.992,-24.902,139.160,0.000
1606140460.465,-40.039,-40.527,-24.902,11.230,0.000
1606140460.469,-74.707,-41.992,-28.320,-160.156,0.000
1606140460.473,-74.707,-34.180,-28.320,-159.180,0.000
1606140460.477,-28.320,-16.602,-22.949,31.738,0.000
1606140460.481,-2.930,-27.344,-26.367,137.207,0.000
1606140460.485,-28.809,-35.645,-29.785,28.809,0.000
1606140460.489,-70.801,-37.598,-29.785,-148.438,0.000
1606140460.493,-79.102,-39.551,-31.250,-176.270,0.000
1606140460.497,-41.992,-39.062,-29.785,-3.418,0.000
1606140460.501,-7.812,-40.527,-22.949,125.000,0.000
1606140460.505,-27.344,-43.945,-18.555,42.969,0.000
1606140460.508,-74.219,-47.363,-19.531,-133.301,0.000
1606140460.512,-83.496,-47.363,-22.949,-183.105,0.000
1606140460.516,-56.152,-44.922,-25.391,-35.156,0.000
1606140460.520,-22.461,-34.180,-19.043,115.723,0.000
1606140460.524,-20.020,-22.949,-7.324,77.637,0.000
1606140460.528,-67.871,-24.414,-8.301,-120.605,0.000
1606140460.532,-92.773,-35.645,-12.695,-208.008,0.000
1606140460.536,-65.918,1.465,-9.277,-74.219,0.000
1606140460.540,-45.410,13.672,-7.812,60.059,0.000
1606140460.544,-69.336,-24.902,-4.883,18.066,0.000
1606140460.548,-127.930,-32.715,0.488,-173.828,0.000
1606140460.551,-165.527,-39.551,1.465,-289.062,0.000
1606140460.555,-147.461,-27.832,0.000,-182.617,0.000
1606140460.559,-117.676,-22.949,4.883,-22.949,0.000
1606140460.563,-143.066,-25.879,0.000,-58.105,0.000
1606140460.567,-190.918,-16.602,-8.301,-254.395,0.000
1606140460.571,-210.938,-12.695,-6.348,-364.746,0.000
1606140460.575,-195.312,11.230,-1.953,-275.879,0.000
1606140460.579,-172.363,17.578,-7.324,-112.305,0.000
1606140460.583,-177.246,-5.859,-15.137,-87.402,0.000
1606140460.587,-214.355,-3.906,-17.578,-254.395,0.000
1606140460.590,-241.211,3.906,-19.531,-387.207,0.000
1606140460.594,-230.957,10.254,-24.902,-322.266,0.000
1606140460.598,-197.754,10.742,-30.762,-153.320,0.000
1606140460.602,-180.664,10.742,-31.250,-86.914,0.000
1606140460.606,-217.285,12.207,-33.691,-219.238,0.000
1606140460.610,-249.512,10.254,-35.645,-375.000,0.000
1606140460.614,-227.051,24.902,-34.180,-338.379,0.000
1606140460.618,-175.781,39.062,-35.156,-135.254,0.000
1606140460.622,-155.273,18.555,-35.156,-42.480,0.000
1606140460.626,-185.059,4.395,-37.598,-170.898,0.000
1606140460.630,-216.797,0.977,-41.992,-344.238,0.000
1606140460.633,-203.613,3.418,-41.992,-341.797,0.000
1606140460.637,-149.414,7.812,-47.363,-132.324,0.000
1606140460.641,-109.863,2.441,-44.434,0.488,0.000
1606140460.645,-127.930,-0.977,-36.133,-94.727,0.000
1606140460.649,-167.969,-4.395,-31.738,-267.578,0.000
1606140460.653,-169.434,-8.301,-36.621,-279.785,0.000
1606140460.657,-121.582,-7.324,-33.691,-84.961,0.000
1606140460.661,-94.238,-6.348,-23.438,29.785,0.000
1606140460.665,-107.910,-8.789,-19.531,-40.527,0.000
1606140460.669,-140.137,-19.531,-27.832,-214.355,0.000
1606140460.673,-140.625,-20.508,-33.691,-250.977,0.000
1606140460.676,-98.145,-6.348,-27.832,-78.125,0.000
1606140460.680,-62.500,-16.602,-20.020,58.594,0.000
1606140460.684,-57.129,-30.762,-16.602,30.273,0.000
1606140460.688,-89.844,-36.133,-17.578,-135.254,0.000
1606140460.692,-97.656,-41.992,-16.113,-195.312,0.000
1606140460.696,-44.434,-41.992,-14.160,-29.785,0.000
1606140460.700,-7.812,-51.270,-6.836,136.230,0.000
1606140460.704,-17.578,-62.988,-2.441,110.352,0.000
1606140460.708,-42.969,-58.105,-10.742,-67.383,0.000
1606140460.712,-48.828,-51.758,-15.137,-142.090,0.000
1606140460.715,-17.090,-51.270,-15.137,-13.184,0.000
1606140460.719,23.926,-49.805,-13.672,156.738,0.000
1606140460.723,29.785,-53.223,-9.766,161.133,0.000
1606140460.727,-5.859,-62.012,-14.160,-18.066,0.000
1606140460.731,-19.531,-66.895,-14.648,-114.258,0.000
1606140460.735,6.836,-63.965,-17.090,-16.602,0.000
1606140460.739,45.898,-61.523,-19.531,156.738,0.000
1606140460.743,54.199,-60.059,-19.043,197.266,0.000
1606140460.747,20.508,-62.500,-23.926,22.949,0.000
1606140460.751,-1.953,-63.477,-27.344,-111.816,0.000
1606140460.755,17.090,-59.082,-27.344,-33.691,0.000
1606140460.758,66.406,-52.246,-25.879,158.691,0.000
1606140460.762,82.520,-50.293,-20.508,215.820,0.000
1606140460.766,44.434,-51.270,-22.461,65.918,0.000
1606140460.770,5.859,-54.688,-27.344,-83.984,0.000
1606140460.774,14.648,-53.711,-26.855,-43.457,0.000
1606140460.778,55.176,-51.758,-21.973,144.043,0.000
1606140460.782,64.453,-53.223,-19.043,216.309,0.000
1606140460.786,32.715,-51.758,-20.508,86.426,0.000
1606140460.790,1.953,-53.223,-23.438,-65.430,0.000
1606140460.794,3.906,-54.199,-24.902,-60.059,0.000
1606140460.798,40.527,-55.176,-26.855,112.305,0.000
1606140460.801,67.871,-44.922,-24.414,214.355,0.000
1606140460.805,49.805,-31.738,-20.508,111.328,0.000
1606140460.809,13.184,-37.109,-26.367,-67.383,0.000
1606140460.813,13.184,-40.527,-35.156,-88.867,0.000
1606140460.817,48.828,-26.855,-36.133,75.195,0.000
1606140460.821,74.707,-22.461,-31.738,198.730,0.000
1606140460.825,63.477,-34.668,-27.344,125.977,0.000
1606140460.829,22.461,-44.434,-31.250,-60.059,0.000
1606140460.833,12.207,-45.410,-36.133,-101.074,0.000
1606140460.837,60.547,-32.715,-32.715,76.660,0.000
1606140460.840,93.262,-28.809,-28.320,219.238,0.000
1606140460.844,65.918,-35.645,-26.855,146.484,0.000
1606140460.848,22.461,-37.598,-28.809,-39.062,0.000
1606140460.852,9.277,-34.180,-29.297,-92.773,0.000
1606140460.856,34.668,-35.645,-34.180,42.480,0.000
1606140460.860,67.871,-35.645,-30.273,186.523,0.000
1606140460.864,63.965,-35.645,-27.832,154.297,0.000
1606140460.868,10.254,-38.574,-35.645,-46.875,0.000
1606140460.872,-19.531,-40.039,-38.574,-137.695,0.000
1606140460.876,5.371,-41.992,-33.203,-5.859,0.000
1606140460.880,37.109,-39.551,-26.855,161.621,0.000
1606140460.883,40.527,-31.250,-25.879,164.551,0.000
1606140460.887,3.418,-34.180,-29.297,-24.414,0.000
1606140460.891,-23.926,-40.039,-31.738,-138.184,0.000
1606140460.895,2.441,-32.715,-32.715,-27.832,0.000
1606140460.899,45.410,-30.762,-30.273,153.809,0.000
1606140460.903,45.898,-34.180,-31.250,162.109,0.000
1606140460.907,4.883,-39.062,-34.668,-22.949,0.000
1606140460.911,-20.020,-46.387,-35.645,-143.555,0.000
1606140460.915,-0.488,-31.250,-34.180,-64.941,0.000
1606140460.919,40.039,-17.090,-30.762,112.305,0.000
1606140460.923,44.434,-31.250,-32.715,152.832,0.000
1606140460.926,5.371,-36.133,-35.156,-17.578,0.000
1606140460.930,-26.855,-35.645,-32.227,-160.645,0.000
1606140460.934,-19.043,-35.156,-34.668,-111.816,0.000
1606140460.938,20.020,-33.691,-34.668,72.754,0.000
1606140460.942,31.738,-29.785,-34.180,151.855,0.000
1606140460.946,10.254,-29.297,-33.691,13.184,0.000
1606140460.950,-31.250,-39.551,-31.738,-150.391,0.000
1606140460.954,-37.598,-39.551,-32.227,-132.324,0.000
1606140460.958,6.348,-26.367,-26.855,54.688,0.000
1606140460.962,24.902,-28.320,-22.461,150.879,0.000
1606140460.965,0.977,-34.180,-26.367,36.133,0.000
1606140460.969,-33.691,-32.227,-28.809,-126.953,0.000
1606140460.973,-33.691,-32.227,-28.320,-140.137,0.000
1606140460.977,3.906,-32.715,-24.902,42.480,0.000
1606140460.981,22.461,-34.668,-23.926,161.621,0.000
1606140460.985,0.000,-34.180,-25.879,61.035,0.000
1606140460.989,-34.180,-33.691,-31.738,-112.793,0.000
1606140460.993,-34.180,-29.297,-36.621,-131.348,0.000
1606140460.997,1.465,-14.160,-36.621,25.879,0.000
1606140461.001,23.926,-21.973,-36.133,145.508,0.000
1606140461.005,5.371,-37.598,-37.109,75.195,0.000
1606140461.008,-35.645,-35.156,-38.086,-104.004,0.000
1606140461.012,-46.875,-33.691,-37.109,-154.785,0.000
1606140461.016,-14.648,-35.645,-32.227,-2.441,0.000
1606140461.020,15.625,-35.645,-31.738,139.160,0.000
1606140461.024,7.324,-36.133,-29.785,94.238,0.000
1606140461.028,-33.203,-40.039,-31.738,-94.727,0.000
1606140461.032,-48.340,-39.062,-32.227,-179.199,0.000
1606140461.036,-14.160,-33.203,-22.461,-38.086,0.000
1606140461.040,22.461,-28.809,-21.973,121.094,0.000
1606140461.044,11.719,-34.180,-26.367,96.680,0.000
1606140461.048,-30.762,-37.598,-27.832,-88.379,0.000
1606140461.051,-48.828,-34.180,-28.320,-183.105,0.000
1606140461.055,-20.996,-27.344,-37.598,-72.754,0.000
1606140461.059,22.949,-23.926,-35.156,99.121,0.000
1606140461.063,10.254,-30.273,-19.043,114.258,0.000
1606140461.067,-38.574,-37.109,-16.602,-63.965,0.000
1606140461.071,-59.082,-39.551,-23.438,-181.641,0.000
1606140461.075,-42.480,-40.039,-27.832,-99.121,0.000
1606140461.079,-3.418,-43.945,-28.809,83.496,0.000
1606140461.083,3.906,-37.109,-21.973,128.906,0.000
1606140461.087,-27.344,-29.785,-21.484,-22.949,0.000
1606140461.090,-49.805,-34.180,-26.367,-151.855,0.000
1606140461.094,-37.109,-30.762,-26.855,-100.098,0.000
1606140461.098,1.953,-22.461,-24.414,75.195,0.000
1606140461.102,16.113,-25.879,-20.996,145.508,0.000
1606140461.106,-16.602,-28.320,-28.320,-3.418,0.000
1606140461.110,-53.223,-28.809,-33.203,-166.016,0.000
1606140461.114,-45.898,-32.227,-32.227,-141.602,0.000
1606140461.118,-1.465,-27.832,-29.785,52.734,0.000
1606140461.122,16.113,-25.391,-28.320,147.461,0.000
1606140461.126,-22.461,-33.203,-31.250,12.695,0.000
1606140461.130,-50.781,-33.691,-32.715,-152.832,0.000
1606140461.133,-44.922,-30.762,-36.133,-148.438,0.000
1606140461.137,-23.438,-26.367,-31.738,31.250,0.000
1606140461.141,3.418,-28.809,-29.785,142.578,0.000
1606140461.145,-10.742,-33.691,-30.762,44.434,0.000
1606140461.149,-48.828,-36.133,-29.297,-136.719,0.000
1606140461.153,-54.199,-36.133,-31.738,-168.945,0.000
1606140461.157,-14.160,-35.645,-30.762,13.672,0.000
1606140461.161,18.555,-29.785,-26.855,144.043,0.000
1606140461.165,5.859,-26.367,-25.391,64.941,0.000
1606140461.169,-40.527,-32.227,-34.668,-119.629,0.000
1606140461.173,-57.129,-34.668,-37.109,-179.199,0.000
1606140461.176,-21.484,-31.250,-31.250,-17.090,0.000
1606140461.180,12.695,-28.320,-28.809,140.625,0.000
1606140461.184,-0.488,-32.227,-25.879,85.938,0.000
1606140461.188,-46.387,-38.086,-28.320,-113.770,0.000
1606140461.192,-63.477,-39.062,-31.738,-195.312,0.000
1606140461.196,-29.297,-23.926,-26.855,-50.293,0.000
1606140461.200,1.465,-18.555,-24.902,114.746,0.000
1606140461.204,-8.301,-33.691,-25.391,92.773,0.000
1606140461.208,-49.805,-42.480,-27.832,-104.980,0.000
1606140461.212,-67.383,-41.016,-27.344,-200.684,0.000
1606140461.215,-31.738,-28.809,-18.066,-68.359,0.000
1606140461.219,10.254,-23.438,-10.742,111.816,0.000
1606140461.223,11.230,-25.391,-11.719,119.629,0.000
1606140461.227,-36.133,-29.785,-14.160,-69.336,0.000
1606140461.231,-68.359,-39.551,-20.508,-186.035,0.000
1606140461.235,-45.898,-32.227,-23.438,-90.820,0.000
1606140461.239,-0.977,-27.344,-22.461,90.820,0.000
1606140461.243,5.859,-32.715,-20.020,133.789,0.000
1606140461.247,-31.250,-34.180,-20.996,-34.180,0.000
1606140461.251,-52.734,-30.762,-25.879,-170.410,0.000
1606140461.255,-40.039,-29.785,-27.832,-106.934,0.000
1606140461.258,-6.348,-34.180,-28.809,76.172,0.000
1606140461.262,9.277,-34.668,-28.320,141.602,0.000
1606140461.266,-30.273,-39.062,-34.180,-22.461,0.000
1606140461.270,-68.359,-46.875,-39.062,-178.223,0.000
1606140461.274,-47.852,-32.227,-31.738,-122.070,0.000
1606140461.278,-6.348,-20.508,-29.297,61.523,0.000
1606140461.282,10.742,-31.738,-29.297,133.301,0.000
1606140461.286,-14.160,-33.691,-24.414,6.836,0.000
1606140461.290,-47.852,-31.738,-24.414,-150.879,0.000
1606140461.294,-44.922,-32.715,-25.879,-139.648,0.000
1606140461.298,-11.230,-32.227,-26.367,39.551,0.000
1606140461.301,5.859,-32.715,-31.738,132.812,0.000
1606140461.305,-14.160,-33.691,-34.180,31.250,0.000
1606140461.309,-54.688,-33.203,-32.715,-138.672,0.000
1606140461.313,-63.477,-33.203,-35.156,-171.875,0.000
1606140461.317,-18.555,-29.785,-28.320,6.836,0.000
1606140461.321,15.625,-24.414,-18.555,145.508,0.000
1606140461.325,-1.953,-26.855,-19.043,51.758,0.000
1606140461.329,-48.340,-35.156,-24.902,-147.949,0.000
1606140461.333,-61.523,-31.738,-24.414,-190.918,0.000
1606140461.337,-22.461,-10.254,-23.438,-15.137,0.000
1606140461.340,5.371,-18.555,-23.438,121.582,0.000
1606140461.344,-12.695,-32.715,-22.461,55.176,0.000
1606140461.348,-56.641,-29.785,-23.926,-126.953,0.000
1606140461.352,-69.824,-25.879,-20.996,-191.406,0.000
1606140461.356,-34.668,-24.902,-20.508,-44.434,0.000
1606140461.360,2.441,-25.879,-20.996,111.816,0.000
1606140461.364,-2.441,-26.367,-21.973,89.844,0.000
1606140461.368,-45.410,-28.809,-28.320,-84.961,0.000
1606140461.372,-69.824,-40.527,-32.715,-183.594,0.000
1606140461.376,-47.852,-17.578,-34.668,-75.684,0.000
1606140461.380,-6.348,4.883,-37.109,96.191,0.000
1606140461.383,4.883,-19.531,-32.227,104.492,0.000
1606140461.387,-50.781,-35.156,-22.461,-84.961,0.000
1606140461.391,-92.773,-42.480,-22.949,-203.613,0.000
1606140461.395,-58.105,-41.504,-21.973,-89.844,0.000
1606140461.399,-1.465,-32.227,-16.602,109.375,0.000
1606140461.403,12.207,-25.391,-16.602,137.695,0.000
1606140461.407,-27.832,-31.250,-24.902,-41.016,0.000
1606140461.411,-53.711,-41.016,-31.250,-154.785,0.000
1606140461.415,-38.086,-42.480,-29.785,-73.730,0.000
1606140461.419,-2.930,-41.992,-23.926,97.656,0.000
1606140461.423,8.301,-41.992,-19.531,143.066,0.000
1606140461.426,-30.762,-43.945,-21.973,-18.066,0.000
1606140461.430,-58.105,-41.992,-23.926,-154.297,0.000
1606140461.434,-41.992,-37.109,-22.949,-103.027,0.000
1606140461.438,-4.395,-36.621,-19.531,81.543,0.000
1606140461.442,12.207,-32.715,-15.625,149.902,0.000
1606140461.446,-11.719,-26.855,-15.625,6.348,0.000
1606140461.450,-41.992,-26.367,-17.578,-150.879,0.000
1606140461.454,-34.668,-36.621,-18.066,-132.324,0.000
1606140461.458,4.395,-40.039,-19.043,51.758,0.000
1606140461.462,23.926,-29.785,-19.531,150.879,0.000
1606140461.465,-0.488,-30.762,-16.113,38.086,0.000
1606140461.469,-37.598,-35.645,-17.090,-139.160,0.000
1606140461.473,-31.250,-38.086,-20.020,-153.320,0.000
1606140461.477,-8.301,-57.617,-24.414,27.344,0.000
1606140461.481,4.395,-50.781,-26.367,142.578,0.000
1606140461.485,-3.906,-29.297,-25.879,56.641,0.000
1606140461.489,-43.945,-31.738,-25.879,-121.582,0.000
1606140461.493,-55.176,-34.668,-21.973,-156.738,0.000
1606140461.497,-19.531,-29.785,-19.043,18.066,0.000
1606140461.501,3.906,-27.344,-19.043,147.461,0.000
1606140461.505,-11.719,-31.738,-23.438,76.660,0.000
1606140461.508,-49.805,-31.738,-25.391,-103.516,0.000
1606140461.512,-58.105,-31.738,-22.949,-167.480,0.000
1606140461.516,-24.902,-42.480,-24.902,-22.949,0.000
1606140461.520,6.836,-35.645,-25.391,127.441,0.000
1606140461.524,-4.883,-27.832,-25.391,90.820,0.000
1606140461.528,-48.340,-27.832,-25.391,-92.773,0.000
1606140461.532,-65.918,-25.879,-24.414,-171.875,0.000
1606140461.536,-41.992,-29.785,-25.391,-48.340,0.000
1606140461.540,-4.395,-25.391,-22.461,106.934,0.000
1606140461.544,-5.859,-26.367,-24.414,93.750,0.000
1606140461.548,-48.828,-32.227,-28.320,-90.820,0.000
1606140461.551,-63.477,-30.273,-26.367,-188.965,0.000
1606140461.555,-32.715,-37.109,-25.391,-77.637,0.000
1606140461.559,8.789,-43.457,-25.879,94.727,0.000
1606140461.563,8.301,-36.621,-26.855,105.469,0.000
1606140461.567,-36.621,-41.504,-30.762,-76.172,0.000
1606140461.571,-61.035,-45.410,-32.227,-188.965,0.000
1606140461.575,-37.598,-40.039,-32.227,-95.703,0.000
1606140461.579,0.977,-38.574,-28.809,83.008,0.000
1606140461.583,9.277,-36.133,-27.344,121.582,0.000
1606140461.587,-27.832,-32.715,-32.227,-40.039,0.000
1606140461.590,-63.477,-37.109,-39.062,-189.941,0.000
1606140461.594,-46.387,-38.574,-39.551,-139.648,0.000
1606140461.598,-1.465,-31.250,-35.645,57.617,0.000
1606140461.602,12.207,-26.367,-31.250,132.812,0.000
1606140461.606,-20.996,-30.762,-28.320,-20.508,0.000
1606140461.610,-56.641,-26.855,-29.297,-184.082,0.000
1606140461.614,-56.152,-36.133,-32.227,-162.109,0.000
1606140461.618,-13.184,-46.387,-31.250,27.344,0.000
1606140461.622,2.930,-31.738,-28.320,121.094,0.000
1606140461.626,-27.344,-30.762,-29.785,1.465,0.000
1606140461.630,-62.988,-30.762,-30.273,-162.109,0.000
1606140461.633,-65.918,-28.320,-30.273,-160.645,0.000
1606140461.637,-23.438,-24.414,-30.273,29.785,0.000
1606140461.641,0.488,-25.879,-23.438,141.602,0.000
1606140461.645,-28.320,-30.762,-22.461,39.551,0.000
1606140461.649,-62.500,-28.320,-24.414,-129.883,0.000
1606140461.653,-62.500,-29.297,-26.367,-162.109,0.000
1606140461.657,-33.691,-42.969,-31.738,-10.254,0.000
1606140461.661,-4.883,-41.016,-26.367,123.535,0.000
1606140461.665,-16.602,-28.320,-26.367,57.617,0.000
1606140461.669,-57.617,-30.273,-31.250,-130.371,0.000
1606140461.673,-69.336,-31.250,-29.785,-180.664,0.000
1606140461.676,-39.062,-31.738,-28.809,-30.273,0.000
1606140461.680,-9.766,-29.785,-27.832,106.445,0.000
1606140461.684,-17.578,-26.367,-22.949,69.336,0.000
1606140461.688,-55.664,-32.227,-22.461,-116.211,0.000
1606140461.692,-70.801,-28.320,-22.949,-187.500,0.000
1606140461.696,-38.574,-30.273,-24.414,-41.504,0.000
1606140461.700,-4.395,-29.297,-24.414,115.723,0.000
1606140461.704,-6.348,-21.973,-18.555,98.145,0.000
1606140461.708,-42.969,-24.902,-20.996,-90.820,0.000
1606140461.712,-68.848,-30.762,-30.762,-200.684,0.000
1606140461.715,-45.410,-33.691,-34.668,-86.914,0.000
1606140461.719,3.418,-29.785,-27.832,100.098,0.000
1606140461.723,0.977,-33.691,-18.066,110.352,0.000
1606140461.727,-55.664,-39.551,-20.020,-83.496,0.000
1606140461.731,-80.566,-39.062,-20.996,-188.965,0.000
1606140461.735,-48.340,-35.156,-17.578,-89.355,0.000
1606140461.739,-8.789,-28.809,-20.996,72.754,0.000
1606140461.743,-8.789,-26.855,-20.996,109.375,0.000
1606140461.747,-51.758,-36.133,-21.484,-56.641,0.000
1606140461.751,-84.473,-39.551,-29.297,-202.637,0.000
1606140461.755,-68.848,-39.062,-30.273,-137.695,0.000
1606140461.758,-24.902,-42.480,-25.879,55.664,0.000
1606140461.762,-15.137,-42.969,-21.973,122.070,0.000
1606140461.766,-47.363,-40.527,-21.973,-22.461,0.000
1606140461.770,-74.219,-36.621,-20.508,-175.293,0.000
1606140461.774,-64.941,-31.250,-22.949,-140.625,0.000
1606140461.778,-17.578,-26.855,-24.414,42.480,0.000
1606140461.782,12.695,-22.461,-15.137,124.023,0.000
1606140461.786,-22.949,-20.020,-15.137,6.836,0.000
1606140461.790,-67.383,-26.367,-23.438,-153.320,0.000
1606140461.794,-63.477,-29.785,-27.344,-158.203,0.000
1606140461.798,-27.832,-29.785,-30.273,11.230,0.000
1606140461.801,-5.371,-32.715,-29.297,116.699,0.000
1606140461.805,-25.879,-30.273,-27.832,25.391,0.000
1606140461.809,-58.105,-34.180,-32.227,-140.625,0.000
1606140461.813,-57.617,-36.621,-31.250,-159.668,0.000
1606140461.817,-19.531,-35.156,-29.297,8.301,0.000
1606140461.821,4.395,-36.133,-29.297,124.512,0.000
1606140461.825,-17.578,-33.691,-27.832,47.852,0.000
1606140461.829,-62.012,-37.598,-33.691,-137.695,0.000
1606140461.833,-73.730,-38.086,-33.691,-187.500,0.000
1606140461.837,-34.668,-20.508,-28.809,-21.973,0.000
1606140461.840,-5.859,-23.926,-31.250,103.516,0.000
1606140461.844,-20.996,-34.668,-35.156,35.645,0.000
1606140461.848,-58.594,-30.762,-30.273,-137.695,0.000
1606140461.852,-68.359,-30.762,-27.344,-190.918,0.000
1606140461.856,-31.250,-34.668,-25.391,-46.387,0.000
1606140461.860,10.742,-35.645,-20.508,116.699,0.000
1606140461.864,8.301,-36.621,-20.508,99.121,0.000
1606140461.868,-31.738,-35.645,-20.996,-83.496,0.000
1606140461.872,-53.711,-36.621,-25.879,-174.805,0.000
1606140461.876,-34.668,-38.086,-27.344,-67.871,0.000
1606140461.880,4.883,-32.715,-23.926,95.215,0.000
1606140461.883,6.836,-30.762,-22.461,105.469,0.000
1606140461.887,-41.016,-33.691,-28.320,-80.078,0.000
1606140461.891,-73.242,-37.109,-31.738,-198.242,0.000
1606140461.895,-54.688,-34.668,-25.391,-101.074,0.000
1606140461.899,-3.906,-31.738,-18.555,88.379,0.000
1606140461.903,1.953,-29.297,-18.555,119.629,0.000
1606140461.907,-34.180,-22.461,-20.020,-47.363,0.000
1606140461.911,-56.152,-23.438,-17.578,-175.781,0.000
1606140461.915,-49.316,-28.320,-21.484,-118.652,0.000
1606140461.919,-7.324,-29.297,-22.461,71.777,0.000
1606140461.923,7.324,-28.320,-18.555,128.418,0.000
1606140461.926,-33.691,-29.785,-20.508,-25.879,0.000
1606140461.930,-62.988,-35.156,-24.414,-157.715,0.000
1606140461.934,-54.199,-33.203,-28.809,-124.512,0.000
1606140461.938,-14.648,-23.926,-31.250,45.898,0.000
1606140461.942,5.371,-23.438,-26.855,129.395,0.000
1606140461.946,-22.949,-23.438,-24.414,-3.418,0.000
1606140461.950,-60.547,-33.691,-27.832,-166.016,0.000
1606140461.954,-53.223,-33.691,-27.832,-145.996,0.000
1606140461.958,-5.371,-21.484,-25.879,38.574,0.000
1606140461.962,19.043,-18.066,-25.879,141.113,0.000
1606140461.965,-7.324,-20.508,-30.273,31.250,0.000
1606140461.969,-48.828,-28.809,-33.203,-148.438,0.000
1606140461.973,-56.641,-26.367,-32.227,-169.434,0.000
1606140461.977,-22.461,-15.137,-34.180,11.230,0.000
1606140461.981,1.953,-24.902,-30.762,120.117,0.000
1606140461.985,-8.789,-30.762,-27.344,29.297,0.000
1606140461.989,-48.828,-28.809,-24.902,-146.484,0.000
1606140461.993,-60.059,-28.320,-22.461,-184.082,0.000
1606140461.997,-10.254,-26.367,-20.996,-5.859,0.000
1606140462.001,16.113,-25.879,-20.996,137.207,0.000
1606140462.005,-7.812,-34.180,-20.996,70.312,0.000
1606140462.008,-50.293,-40.527,-26.367,-123.047,0.000
1606140462.012,-62.988,-35.645,-29.297,-187.012,0.000
1606140462.016,-20.996,-29.785,-25.879,-29.297,0.000
1606140462.020,20.020,-27.344,-21.973,130.859,0.000
1606140462.024,10.742,-26.367,-23.438,96.680,0.000
1606140462.028,-37.109,-31.250,-29.785,-96.191,0.000
1606140462.032,-60.547,-33.691,-31.250,-194.824,0.000
1606140462.036,-35.645,-28.320,-32.227,-75.684,0.000
1606140462.040,3.418,-22.461,-30.273,101.074,0.000
1606140462.044,-3.418,-30.762,-23.926,100.098,0.000
1606140462.048,-43.457,-36.133,-22.461,-84.961,0.000
1606140462.051,-60.059,-32.715,-20.996,-189.453,0.000
1606140462.055,-39.062,-31.738,-21.973,-83.008,0.000
1606140462.059,-3.906,-32.227,-20.996,95.703,0.000
1606140462.063,-1.953,-34.180,-20.508,117.676,0.000
1606140462.067,-38.574,-33.203,-25.879,-60.547,0.000
1606140462.071,-67.383,-42.480,-30.762,-186.035,0.000
1606140462.075,-54.688,-24.414,-31.738,-110.352,0.000
1606140462.079,-17.578,-12.695,-25.391,73.730,0.000
1606140462.083,-4.883,-37.109,-22.949,122.070,0.000
1606140462.087,-35.156,-39.062,-28.809,-45.410,0.000
1606140462.090,-66.406,-39.062,-32.715,-195.801,0.000
1606140462.094,-57.129,-37.598,-31.738,-139.648,0.000
1606140462.098,-14.648,-31.250,-23.926,54.199,0.000
1606140462.102,3.418,-23.926,-22.461,127.930,0.000
1606140462.106,-26.855,-25.391,-24.414,-7.812,0.000
1606140462.110,-63.477,-31.738,-29.297,-167.969,0.000
1606140462.114,-55.664,-17.090,-39.062,-148.926,0.000
1606140462.118,-12.695,-3.418,-32.715,58.594,0.000
1606140462.122,-4.395,-26.367,-22.949,144.043,0.000
1606140462.126,-45.410,-41.992,-20.508,-2.441,0.000
1606140462.130,-84.961,-46.387,-20.508,-174.316,0.000
1606140462.133,-80.078,-34.180,-14.648,-166.504,0.000
1606140462.137,-44.922,-15.137,-13.672,15.137,0.000
1606140462.141,-20.020,-27.832,-16.602,122.070,0.000
1606140462.145,-41.992,-43.457,-17.578,23.438,0.000
1606140462.149,-76.172,-43.945,-20.508,-154.785,0.000
1606140462.153,-72.266,-41.504,-23.438,-185.547,0.000
1606140462.157,-42.969,-38.086,-26.367,-13.184,0.000
1606140462.161,-13.184,-32.715,-24.902,125.000,0.000
1606140462.165,-23.926,-35.156,-21.973,55.176,0.000
1606140462.169,-68.848,-39.551,-22.949,-137.207,0.000
1606140462.173,-83.496,-41.992,-24.902,-197.754,0.000
1606140462.176,-48.828,-29.297,-27.832,-44.434,0.000
1606140462.180,-11.719,-29.297,-26.367,113.770,0.000
1606140462.184,-19.531,-41.016,-22.949,76.172,0.000
1606140462.188,-60.059,-41.992,-24.414,-115.723,0.000
1606140462.192,-73.730,-37.598,-29.785,-197.754,0.000
1606140462.196,-43.457,-38.574,-28.320,-69.336,0.000
1606140462.200,-9.766,-40.039,-26.855,90.820,0.000
1606140462.204,-12.207,-38.086,-24.902,81.055,0.000
1606140462.208,-54.688,-38.086,-26.367,-105.957,0.000
1606140462.212,-76.660,-41.016,-25.879,-196.777,0.000
1606140462.215,-52.246,-27.832,-24.902,-85.938,0.000
1606140462.219,-17.578,-17.090,-26.367,74.707,0.000
1606140462.223,-14.648,-35.645,-19.531,92.285,0.000
1606140462.227,-52.246,-43.457,-17.090,-72.266,0.000
1606140462.231,-76.660,-43.457,-23.438,-186.035,0.000
1606140462.235,-60.547,-42.969,-26.367,-100.586,0.000
1606140462.239,-18.066,-37.109,-21.973,80.078,0.000
1606140462.243,-2.441,-33.691,-21.484,121.582,0.000
1606140462.247,-32.227,-39.062,-30.273,-42.480,0.000
1606140462.251,-60.547,-42.480,-30.273,-192.871,0.000
1606140462.255,-47.363,-26.367,-27.832,-126.953,0.000
1606140462.258,-10.254,-21.973,-26.367,64.941,0.000
1606140462.262,-5.859,-37.598,-23.438,114.746,0.000
1606140462.266,-39.062,-38.574,-24.902,-28.320,0.000
1606140462.270,-72.266,-36.133,-26.855,-179.199,0.000
1606140462.274,-49.316,-29.785,-24.902,-143.555,0.000
1606140462.278,-3.906,-30.762,-22.949,49.805,0.000
1606140462.282,2.930,-37.109,-20.508,134.766,0.000
1606140462.286,-26.367,-37.598,-23.438,0.488,0.000
1606140462.290,-63.965,-41.016,-24.902,-163.086,0.000
1606140462.294,-68.848,-43.457,-25.879,-159.668,0.000
1606140462.298,-31.250,-36.133,-22.949,19.531,0.000
1606140462.301,-1.465,-32.227,-17.578,136.719,0.000
1606140462.305,-20.508,-26.855,-16.113,38.574,0.000
1606140462.309,-62.012,-27.832,-21.973,-145.508,0.000
1606140462.313,-70.801,-37.598,-24.902,-185.059,0.000
1606140462.317,-21.484,-13.184,-23.438,-5.371,0.000
1606140462.321,10.742,-14.648,-25.391,130.859,0.000
1606140462.325,-25.879,-38.574,-23.438,47.363,0.000
1606140462.329,-64.941,-37.598,-23.438,-131.836,0.000
1606140462.333,-68.848,-39.062,-25.391,-182.617,0.000
1606140462.337,-31.738,-33.203,-19.531,-18.555,0.000
1606140462.340,5.371,-33.203,-18.066,129.883,0.000
1606140462.344,-6.348,-32.227,-23.438,78.613,0.000
1606140462.348,-50.293,-31.250,-25.879,-108.398,0.000
1606140462.352,-64.453,-36.621,-28.809,-184.570,0.000
1606140462.356,-28.320,-11.719,-32.715,-41.992,0.000
1606140462.360,2.930,-10.742,-24.414,115.723,0.000
1606140462.364,-10.742,-40.527,-20.996,79.102,0.000
1606140462.368,-53.223,-44.922,-29.785,-107.910,0.000
1606140462.372,-76.172,-45.410,-34.180,-206.055,0.000
1606140462.376,-48.340,-37.598,-30.762,-91.309,0.000
1606140462.380,-9.277,-33.691,-26.855,82.031,0.000
1606140462.383,-6.348,-37.109,-23.926,88.867,0.000
1606140462.387,-43.457,-38.086,-23.438,-84.473,0.000
1606140462.391,-69.336,-41.992,-24.414,-187.012,0.000
1606140462.395,-48.340,-29.785,-25.391,-92.285,0.000
1606140462.399,-8.301,-24.902,-22.949,87.402,0.000
1606140462.403,-4.883,-38.574,-25.879,115.723,0.000
1606140462.407,-44.922,-39.551,-31.738,-62.988,0.000
1606140462.411,-77.148,-40.527,-33.203,-196.289,0.000
1606140462.415,-56.641,-22.949,-34.180,-125.488,0.000
1606140462.419,-10.254,-4.395,-33.203,66.406,0.000
1606140462.423,-9.277,-28.809,-30.273,129.883,0.000
1606140462.426,-36.621,-39.551,-27.832,-18.555,0.000
1606140462.430,-60.059,-38.086,-29.785,-162.109,0.000
1606140462.434,-48.828,-36.133,-27.344,-118.164,0.000
1606140462.438,-7.324,-33.691,-22.949,70.801,0.000
1606140462.442,5.859,-35.156,-24.902,150.879,0.000
1606140462.446,-25.879,-34.180,-24.414,13.672,0.000
1606140462.450,-63.965,-36.621,-24.902,-159.668,0.000
1606140462.454,-59.082,-27.832,-27.832,-150.391,0.000
1606140462.458,-15.625,-13.184,-26.367,33.203,0.000
1606140462.462,6.836,-24.902,-28.320,126.953,0.000
1606140462.465,-18.555,-33.203,-32.227,15.625,0.000
1606140462.469,-60.059,-32.715,-35.156,-157.227,0.000
1606140462.473,-60.547,-33.203,-34.668,-177.734,0.000
1606140462.477,-14.160,-27.344,-31.738,3.418,0.000
1606140462.481,11.230,-23.438,-24.902,132.324,0.000
1606140462.485,-15.625,-24.414,-27.344,41.504,0.000
1606140462.489,-57.617,-30.762,-35.645,-149.414,0.000
1606140462.493,-62.500,-29.297,-33.691,-180.664,0.000
1606140462.497,-34.180,-19.531,-35.156,-18.066,0.000
1606140462.501,-2.441,-26.367,-33.203,115.234,0.000
1606140462.505,-8.301,-40.039,-25.879,58.105,0.000
1606140462.508,-45.898,-34.668,-25.391,-121.094,0.000
1606140462.512,-56.152,-29.297,-25.879,-178.711,0.000
1606140462.516,-26.855,-30.273,-25.879,-36.621,0.000
1606140462.520,2.441,-32.715,-30.273,121.094,0.000
1606140462.524,-7.324,-27.344,-31.250,96.191,0.000
1606140462.528,-51.270,-30.273,-31.250,-98.633,0.000
1606140462.532,-72.266,-34.668,-31.250,-190.918,0.000
1606140462.536,-35.156,-24.902,-27.344,-57.129,0.000
1606140462.540,-6.836,-27.344,-20.996,113.770,0.000
1606140462.544,-22.461,-35.645,-22.461,108.398,0.000
1606140462.548,-61.035,-37.109,-25.391,-80.566,0.000
1606140462.551,-87.891,-35.645,-25.391,-194.824,0.000
1606140462.555,-59.570,-24.902,-26.367,-90.820,0.000
1606140462.559,-12.695,-24.902,-27.832,82.520,0.000
1606140462.563,0.000,-34.180,-30.273,104.004,0.000
1606140462.567,-29.785,-34.668,-29.785,-70.312,0.000
1606140462.571,-49.805,-30.273,-26.855,-188.477,0.000
1606140462.575,-35.645,-29.297,-27.344,-103.027,0.000
1606140462.579,0.977,-26.367,-27.344,81.055,0.000
1606140462.583,10.254,-23.926,-25.879,133.789,0.000
1606140462.587,-28.320,-27.344,-30.762,-30.762,0.000
1606140462.590,-65.430,-37.598,-39.062,-192.871,0.000
1606140462.594,-58.105,-25.879,-38.086,-156.250,0.000
1606140462.598,-16.113,2.930,-38.574,28.809,0.000
1606140462.602,4.395,-4.395,-33.691,108.887,0.000
1606140462.606,-20.996,-22.949,-29.297,-24.414,0.000
1606140462.610,-56.641,-31.250,-31.250,-176.758,0.000
1606140462.614,-54.688,-36.133,-29.785,-152.344,0.000
1606140462.618,-3.418,-28.320,-23.438,38.574,0.000
1606140462.622,14.648,-26.367,-16.602,138.672,0.000
1606140462.626,-24.414,-33.203,-20.020,22.461,0.000
1606140462.630,-61.035,-36.133,-22.949,-145.996,0.000
1606140462.633,-64.453,-23.926,-28.809,-147.949,0.000
1606140462.637,-27.344,-13.672,-34.180,27.344,0.000
1606140462.641,4.883,-25.879,-24.414,138.672,0.000
1606140462.645,-15.625,-35.156,-27.344,40.039,0.000
1606140462.649,-59.082,-37.598,-34.180,-145.508,0.000
1606140462.653,-68.359,-38.574,-33.691,-182.129,0.000
1606140462.657,-33.203,-40.039,-38.086,-13.184,0.000
1606140462.661,-1.953,-38.086,-36.621,116.699,0.000
1606140462.665,-12.207,-34.180,-32.227,51.758,0.000
1606140462.669,-49.316,-37.109,-31.250,-127.930,0.000
1606140462.673,-58.594,-37.109,-27.344,-178.711,0.000
1606140462.676,-23.438,-33.691,-24.414,-25.391,0.000
1606140462.680,11.230,-30.762,-24.414,120.117,0.000
1606140462.684,-3.906,-30.273,-27.344,74.219,0.000
1606140462.688,-53.711,-35.645,-32.227,-128.906,0.000
1606140462.692,-67.871,-39.551,-30.762,-210.449,0.000
1606140462.696,-34.668,-20.996,-25.879,-65.918,0.000
1606140462.700,-3.418,-11.230,-26.367,99.121,0.000
1606140462.704,-5.371,-27.832,-26.367,89.355,0.000
1606140462.708,-39.551,-31.250,-29.785,-85.938,0.000
1606140462.712,-55.664,-28.320,-27.832,-180.664,0.000
1606140462.715,-29.297,-30.762,-27.344,-73.242,0.000
1606140462.719,3.906,-28.809,-25.391,94.727,0.000
1606140462.723,6.836,-25.879,-24.902,115.234,0.000
1606140462.727,-29.785,-29.297,-30.762,-57.129,0.000
1606140462.731,-59.082,-31.738,-31.250,-180.664,0.000
1606140462.735,-44.434,-33.203,-28.809,-99.121,0.000
1606140462.739,-10.254,-34.180,-29.297,73.242,0.000
1606140462.743,-5.859,-35.156,-30.273,108.398,0.000
1606140462.747,-46.875,-34.668,-33.203,-58.594,0.000
1606140462.751,-75.195,-31.738,-41.016,-196.289,0.000
1606140462.755,-47.852,-29.785,-40.039,-127.930,0.000
1606140462.758,-5.859,-27.832,-30.762,61.523,0.000
1606140462.762,-6.348,-28.809,-20.020,121.582,0.000
1606140462.766,-49.805,-38.574,-16.602,-29.785,0.000
1606140462.770,-82.031,-44.434,-17.090,-175.293,0.000
1606140462.774,-66.895,-33.203,-14.160,-128.418,0.000
1606140462.778,-31.738,-15.625,-14.160,42.480,0.000
1606140462.782,-23.926,-30.273,-14.648,102.051,0.000
1606140462.786,-48.340,-44.434,-17.578,-14.160,0.000
1606140462.790,-80.078,-38.086,-15.625,-165.527,0.000
1606140462.794,-79.590,-32.227,-14.160,-165.039,0.000
1606140462.798,-22.461,-28.809,-18.066,17.578,0.000
1606140462.801,1.465,-30.273,-19.531,125.488,0.000
1606140462.805,-29.785,-26.855,-18.555,25.879,0.000
1606140462.809,-66.895,-28.809,-19.043,-153.320,0.000
1606140462.813,-71.777,-32.715,-19.043,-175.781,0.000
1606140462.817,-30.762,-28.320,-16.602,5.859,0.000
1606140462.821,-1.953,-30.273,-16.113,126.953,0.000
1606140462.825,-22.461,-34.180,-18.555,42.969,0.000
1606140462.829,-66.406,-36.133,-25.879,-140.137,0.000
1606140462.833,-76.172,-37.109,-26.855,-192.383,0.000
1606140462.837,-35.156,-13.672,-21.973,-19.531,0.000
1606140462.840,2.441,-13.184,-19.043,138.672,0.000
1606140462.844,-12.207,-33.691,-20.020,83.008,0.000
1606140462.848,-53.711,-37.598,-24.414,-106.934,0.000
1606140462.852,-65.430,-40.039,-26.367,-179.199,0.000
1606140462.856,-35.645,-40.039,-22.949,-40.527,0.000
1606140462.860,-0.488,-37.598,-19.531,116.211,0.000
1606140462.864,-3.906,-36.133,-21.973,95.215,0.000
1606140462.868,-45.898,-31.738,-24.414,-87.402,0.000
1606140462.872,-71.289,-41.504,-27.832,-192.383,0.000
1606140462.876,-48.340,-26.367,-28.809,-87.891,0.000
1606140462.880,-7.812,-4.395,-22.949,79.102,0.000
1606140462.883,-3.418,-23.926,-17.090,97.656,0.000
1606140462.887,-32.715,-33.203,-19.043,-79.102,0.000
1606140462.891,-53.711,-37.109,-22.949,-198.730,0.000
1606140462.895,-41.504,-35.156,-20.508,-104.492,0.000
1606140462.899,2.441,-28.809,-17.090,77.148,0.000
1606140462.903,15.625,-24.902,-14.648,117.676,0.000
1606140462.907,-28.809,-25.879,-19.043,-46.387,0.000
1606140462.911,-57.617,-31.738,-20.996,-178.223,0.000
1606140462.915,-36.133,-26.855,-17.578,-109.375,0.000
1606140462.919,3.906,-20.508,-14.648,79.102,0.000
1606140462.923,8.789,-25.391,-20.508,135.742,0.000
1606140462.926,-33.691,-30.762,-27.344,-26.367,0.000
1606140462.930,-63.965,-32.227,-28.809,-178.711,0.000
1606140462.934,-53.711,-29.785,-30.273,-142.090,0.000
1606140462.938,-13.184,-27.344,-29.785,48.340,0.000
1606140462.942,6.348,-30.273,-27.832,135.742,0.000
1606140462.946,-25.879,-35.156,-26.367,5.859,0.000
1606140462.950,-62.988,-36.621,-31.250,-160.156,0.000
1606140462.954,-55.664,-31.738,-31.738,-151.855,0.000
1606140462.958,-13.184,-29.297,-29.297,37.109,0.000
1606140462.962,11.230,-28.320,-28.809,147.949,0.000
1606140462.965,-8.301,-19.043,-26.367,42.969,0.000
1606140462.969,-47.852,-22.949,-29.785,-142.578,0.000
1606140462.973,-56.641,-19.531,-31.250,-172.852,0.000
1606140462.977,-18.555,-4.883,-30.273,7.324,0.000
1606140462.981,7.324,-18.066,-30.273,129.883,0.000
1606140462.985,-13.184,-30.762,-30.273,41.016,0.000
1606140462.989,-52.734,-31.738,-31.738,-141.602,0.000
1606140462.993,-55.176,-25.391,-30.273,-173.828,0.000
1606140462.997,-19.531,-18.555,-27.832,-2.441,0.000
1606140463.001,3.418,-29.297,-27.832,127.930,0.000
1606140463.005,-18.066,-37.109,-26.855,70.801,0.000
1606140463.008,-61.035,-34.668,-28.809,-110.352,0.000
1606140463.012,-73.730,-35.156,-32.715,-185.547,0.000
1606140463.016,-41.016,-25.879,-30.273,-44.922,0.000
1606140463.020,-4.883,-28.320,-27.832,100.586,0.000
1606140463.024,-3.418,-36.621,-27.832,77.637,0.000
1606140463.028,-39.551,-35.156,-28.809,-104.980,0.000
1606140463.032,-59.570,-40.039,-33.203,-202.148,0.000
1606140463.036,-32.715,-36.621,-31.738,-74.219,0.000
1606140463.040,-1.465,-33.203,-27.832,100.586,0.000
1606140463.044,1.953,-33.203,-29.297,104.004,0.000
1606140463.048,-32.715,-30.762,-35.156,-77.148,0.000
1606140463.051,-60.059,-32.715,-34.180,-181.152,0.000
1606140463.055,-48.340,-20.996,-25.879,-77.637,0.000
1606140463.059,-13.184,-12.207,-25.391,96.191,0.000
1606140463.063,-3.906,-31.738,-24.414,115.234,0.000
1606140463.067,-31.738,-41.992,-21.973,-64.453,0.000
1606140463.071,-66.895,-40.527,-22.949,-188.965,0.000
1606140463.075,-62.500,-39.551,-18.066,-113.281,0.000
1606140463.079,-17.090,-40.039,-16.113,72.754,0.000
1606140463.083,-1.465,-39.062,-15.137,126.953,0.000
1606140463.087,-25.391,-32.715,-14.160,-23.438,0.000
1606140463.090,-63.477,-37.109,-19.531,-175.293,0.000
1606140463.094,-59.570,-41.016,-22.949,-133.789,0.000
1606140463.098,-15.625,-33.203,-19.531,62.988,0.000
1606140463.102,4.395,-30.273,-18.066,141.113,0.000
1606140463.106,-24.902,-32.715,-22.461,-6.836,0.000
1606140463.110,-63.477,-43.457,-22.949,-173.340,0.000
1606140463.114,-62.012,-32.715,-25.391,-153.320,0.000
1606140463.118,-18.555,-8.301,-26.367,36.621,0.000
1606140463.122,2.441,-26.855,-23.926,129.395,0.000
1606140463.126,-27.344,-39.551,-26.855,4.883,0.000
1606140463.130,-70.312,-43.945,-30.762,-169.434,0.000
1606140463.133,-69.824,-40.039,-24.902,-171.387,0.000
1606140463.137,-26.855,-31.250,-17.090,16.602,0.000
1606140463.141,-1.953,-33.203,-20.020,139.648,0.000
1606140463.145,-20.020,-36.621,-20.508,44.922,0.000
1606140463.149,-51.758,-37.109,-25.879,-126.953,0.000
1606140463.153,-55.664,-39.551,-30.762,-164.062,0.000
1606140463.157,-24.902,-15.625,-28.320,-10.742,0.000
1606140463.161,5.859,-9.277,-33.203,120.117,0.000
1606140463.165,-3.418,-33.203,-34.668,58.594,0.000
1606140463.169,-45.410,-36.133,-33.691,-118.164,0.000
1606140463.173,-60.059,-36.133,-35.156,-187.988,0.000
1606140463.176,-33.203,-37.109,-37.598,-41.504,0.000
1606140463.180,3.418,-35.645,-34.180,124.512,0.000
1606140463.184,-0.977,-34.668,-32.227,87.891,0.000
1606140463.188,-51.270,-40.039,-33.691,-105.469,0.000
1606140463.192,-66.895,-38.086,-34.180,-174.316,0.000
1606140463.196,-37.598,-28.809,-37.109,-43.457,0.000
1606140463.200,-0.977,-29.785,-33.203,111.328,0.000
1606140463.204,4.395,-30.762,-29.785,103.027,0.000
1606140463.208,-43.457,-34.180,-36.621,-93.750,0.000
1606140463.212,-70.801,-36.621,-39.062,-200.195,0.000
1606140463.215,-46.387,-34.668,-34.668,-87.891,0.000
1606140463.219,-15.625,-35.645,-35.645,82.031,0.000
1606140463.223,-17.090,-37.109,-36.133,100.098,0.000
1606140463.227,-56.152,-40.527,-34.668,-76.172,0.000
1606140463.231,-82.031,-42.969,-36.621,-200.195,0.000
1606140463.235,-63.965,-44.434,-35.156,-122.559,0.000
1606140463.239,-13.184,-37.109,-29.297,58.105,0.000
1606140463.243,4.883,-30.273,-23.438,116.699,0.000
1606140463.247,-46.875,-39.062,-24.902,-49.805,0.000
1606140463.251,-81.055,-44.434,-26.367,-198.730,0.000
1606140463.255,-65.430,-34.180,-26.367,-137.695,0.000
1606140463.258,-24.902,-19.043,-26.367,60.059,0.000
1606140463.262,-10.254,-30.762,-20.020,135.254,0.000
1606140463.266,-47.363,-46.875,-19.531,-17.090,0.000
1606140463.270,-79.102,-44.434,-22.461,-177.246,0.000
1606140463.274,-64.453,-38.086,-24.902,-143.066,0.000
1606140463.278,-16.602,-33.203,-20.020,44.922,0.000
1606140463.282,-1.953,-30.762,-14.160,125.977,0.000
1606140463.286,-31.738,-25.879,-18.066,7.812,0.000
1606140463.290,-64.941,-31.250,-19.531,-157.227,0.000
1606140463.294,-65.918,-34.180,-18.555,-171.875,0.000
1606140463.298,-19.043,-20.020,-15.625,14.160,0.000
1606140463.301,5.859,-25.879,-15.137,124.512,0.000
1606140463.305,-18.066,-35.156,-18.555,23.438,0.000
1606140463.309,-55.176,-31.738,-16.602,-147.949,0.000
1606140463.313,-57.129,-27.344,-18.555,-164.551,0.000
1606140463.317,-17.090,-25.391,-18.066,16.113,0.000
1606140463.321,10.742,-20.508,-18.555,139.648,0.000
1606140463.325,1.465,-20.996,-22.949,54.688,0.000
1606140463.329,-47.852,-24.414,-27.344,-131.348,0.000
1606140463.333,-62.500,-23.926,-31.250,-174.316,0.000
1606140463.337,-27.832,-18.555,-30.273,-20.020,0.000
1606140463.340,2.930,-22.461,-20.996,120.117,0.000
1606140463.344,-3.906,-31.250,-14.160,72.754,0.000
1606140463.348,-43.945,-32.227,-16.602,-107.422,0.000
1606140463.352,-60.059,-32.715,-20.020,-176.270,0.000
1606140463.356,-33.203,-26.855,-18.066,-34.668,0.000
1606140463.360,-0.977,-29.785,-15.137,123.535,0.000
1606140463.364,-5.371,-33.203,-15.137,101.562,0.000
1606140463.368,-43.945,-33.691,-19.043,-84.961,0.000
1606140463.372,-61.523,-36.621,-24.414,-187.500,0.000
1606140463.376,-27.832,-32.227,-22.949,-66.895,0.000
1606140463.380,15.137,-27.344,-22.949,109.863,0.000
1606140463.383,16.602,-28.320,-22.949,112.793,0.000
1606140463.387,-26.367,-35.645,-27.344,-81.543,0.000
1606140463.391,-60.059,-47.852,-33.203,-206.055,0.000
1606140463.395,-45.410,-36.133,-31.738,-108.398,0.000
1606140463.399,0.000,-18.555,-28.320,79.590,0.000
1606140463.403,9.766,-27.344,-24.902,115.234,0.000
1606140463.407,-21.484,-29.297,-22.949,-45.898,0.000
1606140463.411,-50.293,-31.738,-23.438,-180.664,0.000
1606140463.415,-39.062,-33.203,-24.414,-119.141,0.000
1606140463.419,2.441,-27.832,-24.414,75.195,0.000
1606140463.423,16.602,-27.832,-24.902,127.930,0.000
1606140463.426,-18.066,-27.344,-25.879,-27.344,0.000
1606140463.430,-62.988,-29.297,-27.832,-164.062,0.000
1606140463.434,-56.641,-22.949,-30.762,-123.535,0.000
1606140463.438,-15.625,-5.371,-32.715,49.805,0.000
1606140463.442,-6.348,-21.973,-32.227,113.770,0.000
1606140463.446,-34.180,-38.086,-30.762,-20.020,0.000
1606140463.450,-64.941,-37.598,-27.832,-175.293,0.000
1606140463.454,-65.918,-40.039,-28.320,-166.016,0.000
1606140463.458,-28.320,-40.039,-29.297,16.113,0.000
1606140463.462,-1.465,-34.180,-25.879,124.023,0.000
1606140463.465,-18.555,-29.785,-29.297,19.531,0.000
1606140463.469,-55.176,-35.156,-40.039,-154.785,0.000
1606140463.473,-56.641,-26.367,-40.039,-167.480,0.000
1606140463.477,-10.742,-12.695,-41.992,9.277,0.000
1606140463.481,6.836,-21.973,-41.016,124.023,0.000
1606140463.485,-15.137,-28.809,-36.621,46.387,0.000
1606140463.489,-47.852,-31.738,-41.504,-127.930,0.000
1606140463.493,-52.246,-31.738,-36.621,-167.480,0.000
1606140463.497,-13.672,-29.785,-29.297,-1.465,0.000
1606140463.501,11.230,-33.203,-25.879,126.953,0.000
1606140463.505,-7.324,-34.180,-25.879,61.523,0.000
1606140463.508,-48.340,-34.668,-30.762,-122.559,0.000
1606140463.512,-59.570,-33.691,-37.598,-188.965,0.000
1606140463.516,-26.855,-32.227,-38.086,-45.898,0.000
1606140463.520,7.324,-28.809,-30.273,110.840,0.000
1606140463.524,5.859,-24.902,-25.879,91.309,0.000
1606140463.528,-41.016,-29.785,-29.785,-100.098,0.000
1606140463.532,-66.406,-39.551,-29.785,-194.824,0.000
1606140463.536,-39.062,-18.555,-26.855,-75.195,0.000
1606140463.540,-2.441,-0.977,-30.273,91.309,0.000
1606140463.544,-1.465,-29.297,-27.344,87.891,0.000
1606140463.548,-42.969,-44.434,-27.832,-102.051,0.000
1606140463.551,-71.289,-42.969,-34.180,-214.355,0.000
1606140463.555,-44.434,-34.668,-31.250,-101.562,0.000
1606140463.559,-2.930,-36.133,-31.250,77.637,0.000
1606140463.563,-4.883,-35.645,-32.227,94.727,0.000
1606140463.567,-51.270,-31.738,-34.668,-78.125,0.000
1606140463.571,-82.031,-37.598,-36.133,-198.242,0.000
1606140463.575,-70.312,-38.574,-32.715,-121.582,0.000
1606140463.579,-36.133,-33.203,-28.320,64.941,0.000
1606140463.583,-9.766,-31.738,-21.484,121.582,0.000
1606140463.587,-39.062,-32.715,-26.367,-39.551,0.000
1606140463.590,-90.332,-37.109,-33.203,-184.570,0.000
1606140463.594,-78.125,-34.668,-32.715,-137.695,0.000
1606140463.598,-27.344,-31.738,-30.273,47.363,0.000
1606140463.602,-6.348,-33.203,-30.273,126.953,0.000
1606140463.606,-33.203,-32.715,-28.809,-13.184,0.000
1606140463.610,-61.523,-31.250,-27.832,-172.363,0.000
1606140463.614,-50.293,-25.391,-31.250,-144.043,0.000
1606140463.618,-12.695,-19.531,-29.785,44.922,0.000
1606140463.622,2.930,-26.855,-31.250,131.836,0.000
1606140463.626,-14.648,-33.203,-38.086,10.742,0.000
1606140463.630,-44.434,-32.715,-33.691,-151.855,0.000
1606140463.633,-59.570,-30.273,-23.438,-160.645,0.000
1606140463.637,-31.250,-25.391,-20.020,16.113,0.000
1606140463.641,-2.441,-24.902,-18.555,132.812,0.000
1606140463.645,-13.672,-27.344,-20.508,36.621,0.000
1606140463.649,-56.152,-31.250,-27.832,-151.367,0.000
1606140463.653,-71.777,-33.203,-27.832,-195.801,0.000
1606140463.657,-33.203,-26.855,-25.391,-21.973,0.000
1606140463.661,-3.906,-20.020,-20.996,116.211,0.000
1606140463.665,-21.973,-27.344,-19.531,46.875,0.000
1606140463.669,-67.871,-35.645,-22.949,-142.090,0.000
1606140463.673,-81.543,-35.156,-21.973,-195.801,0.000
1606140463.676,-45.898,-35.645,-17.090,-38.086,0.000
1606140463.680,-7.812,-33.203,-11.719,114.746,0.000
1606140463.684,-18.066,-36.621,-16.113,77.148,0.000
1606140463.688,-49.805,-38.574,-23.438,-107.910,0.000
1606140463.692,-64.453,-40.527,-28.320,-189.941,0.000
1606140463.696,-46.387,-39.062,-25.879,-58.594,0.000
1606140463.700,-4.395,-34.668,-20.996,106.934,0.000
1606140463.704,-7.324,-38.574,-22.461,92.285,0.000
1606140463.708,-46.875,-37.598,-25.391,-88.867,0.000
1606140463.712,-65.918,-40.039,-23.438,-181.152,0.000
1606140463.715,-42.969,-36.133,-25.391,-73.730,0.000
1606140463.719,-5.371,-32.715,-28.809,83.496,0.000
1606140463.723,-11.230,-42.969,-27.832,89.844,0.000
1606140463.727,-52.246,-39.062,-27.832,-74.219,0.000
1606140463.731,-61.035,-29.297,-27.832,-180.664,0.000
1606140463.735,-38.086,-32.227,-28.320,-103.027,0.000
1606140463.739,-13.184,-33.691,-27.344,68.848,0.000
1606140463.743,0.488,-28.809,-21.973,117.676,0.000
1606140463.747,-35.645,-32.715,-23.438,-47.363,0.000
1606140463.751,-70.801,-35.645,-31.250,-193.848,0.000
1606140463.755,-51.758,-33.203,-33.203,-133.789,0.000
1606140463.758,-8.789,-32.715,-27.832,55.664,0.000
1606140463.762,0.488,-31.250,-24.902,120.117,0.000
1606140463.766,-31.250,-30.762,-26.367,-27.344,0.000
1606140463.770,-65.918,-35.645,-29.785,-187.500,0.000
1606140463.774,-58.105,-36.621,-28.809,-144.531,0.000
1606140463.778,-12.695,-29.785,-25.879,52.246,0.000
1606140463.782,0.977,-27.832,-24.414,128.906,0.000
1606140463.786,-27.344,-31.250,-25.879,1.465,0.000
1606140463.790,-62.012,-28.320,-26.367,-154.297,0.000
1606140463.794,-61.523,-29.297,-27.344,-151.855,0.000
1606140463.798,-22.461,-34.180,-27.832,25.879,0.000
1606140463.801,8.301,-27.832,-22.949,138.184,0.000
1606140463.805,-14.648,-24.414,-29.297,50.781,0.000
1606140463.809,-62.012,-35.156,-35.156,-127.441,0.000
1606140463.813,-57.129,-36.621,-32.227,-162.109,0.000
1606140463.817,-11.230,-29.297,-35.156,10.254,0.000
1606140463.821,17.090,-28.320,-34.180,136.230,0.000
1606140463.825,-1.465,-30.762,-27.832,57.129,0.000
1606140463.829,-48.340,-34.180,-24.902,-129.883,0.000
1606140463.833,-54.199,-33.203,-24.414,-181.641,0.000
1606140463.837,-9.766,-23.926,-26.367,-16.113,0.000
1606140463.840,19.531,-19.531,-25.879,124.023,0.000
1606140463.844,-0.488,-22.949,-23.438,65.918,0.000
1606140463.848,-46.387,-28.320,-21.484,-121.094,0.000
1606140463.852,-57.129,-25.879,-21.484,-182.129,0.000
1606140463.856,-23.438,-23.438,-20.996,-35.156,0.000
1606140463.860,6.836,-24.414,-18.555,115.723,0.000
1606140463.864,0.977,-26.855,-24.414,90.332,0.000
1606140463.868,-36.133,-32.227,-29.785,-96.680,0.000
1606140463.872,-45.410,-27.344,-27.344,-191.895,0.000
1606140463.876,-25.391,-32.715,-29.297,-75.684,0.000
1606140463.880,2.441,-36.621,-31.738,101.074,0.000
1606140463.883,3.906,-35.645,-31.250,113.281,0.000
1606140463.887,-41.504,-39.551,-29.785,-69.824,0.000
1606140463.891,-69.336,-38.574,-27.832,-189.453,0.000
1606140463.895,-51.270,-39.062,-27.832,-97.656,0.000
1606140463.899,-6.348,-32.227,-25.879,93.262,0.000
1606140463.903,2.441,-27.344,-25.879,121.094,0.000
1606140463.907,-38.574,-30.762,-31.738,-61.523,0.000
1606140463.911,-69.336,-30.273,-33.691,-198.242,0.000
1606140463.915,-55.176,-28.320,-34.180,-129.395,0.000
1606140463.919,-11.719,-28.320,-32.715,60.059,0.000
1606140463.923,4.883,-27.832,-28.320,119.629,0.000
1606140463.926,-31.738,-31.250,-28.809,-34.180,0.000
1606140463.930,-67.871,-34.180,-34.180,-174.316,0.000
1606140463.934,-52.246,-33.203,-32.227,-129.883,0.000
1606140463.938,-4.883,-26.367,-23.438,61.523,0.000
1606140463.942,19.531,-18.555,-20.020,150.879,0.000
1606140463.946,-12.207,-22.461,-24.902,8.301,0.000
1606140463.950,-59.082,-29.297,-28.320,-165.527,0.000
1606140463.954,-58.594,-27.832,-31.738,-155.762,0.000
1606140463.958,-23.926,-24.902,-30.273,22.949,0.000
1606140463.962,3.906,-27.344,-26.855,123.047,0.000
1606140463.965,-16.113,-32.715,-29.785,18.066,0.000
1606140463.969,-69.824,-38.574,-33.691,-154.297,0.000
1606140463.973,-77.148,-40.527,-37.598,-178.711,0.000
1606140463.977,-33.203,-34.668,-33.203,1.465,0.000
1606140463.981,-2.441,-29.785,-28.320,122.070,0.000
1606140463.985,-20.020,-29.297,-26.855,38.086,0.000
1606140463.989,-63.477,-28.320,-23.438,-137.695,0.000
1606140463.993,-72.754,-26.367,-24.902,-168.945,0.000
1606140463.997,-40.527,-43.945,-28.320,-11.719,0.000
1606140464.001,-18.066,-53.711,-24.414,105.469,0.000
1606140464.005,-29.297,-36.621,-19.531,45.410,0.000
1606140464.008,-65.430,-31.738,-24.902,-131.836,0.000
1606140464.012,-77.637,-35.645,-30.762,-190.918,0.000
1606140464.016,-41.016,-36.621,-26.855,-39.551,0.000
1606140464.020,-5.371,-34.668,-23.438,108.887,0.000
1606140464.024,-8.789,-31.738,-23.438,81.055,0.000
1606140464.028,-51.270,-31.250,-25.879,-101.074,0.000
1606140464.032,-75.195,-29.785,-29.785,-194.824,0.000
1606140464.036,-49.316,-29.297,-31.250,-72.266,0.000
1606140464.040,-10.254,-30.762,-26.855,97.168,0.000
1606140464.044,-8.301,-30.273,-27.832,88.379,0.000
1606140464.048,-42.969,-31.738,-29.785,-96.191,0.000
1606140464.051,-57.129,-28.320,-24.414,-193.848,0.000
1606140464.055,-27.832,-27.832,-21.973,-88.379,0.000
1606140464.059,8.789,-26.367,-21.973,83.984,0.000
1606140464.063,3.418,-25.879,-23.438,106.934,0.000
1606140464.067,-41.016,-32.227,-32.715,-70.312,0.000
1606140464.071,-70.801,-35.645,-35.156,-204.102,0.000
1606140464.075,-51.270,-31.250,-30.273,-127.441,0.000
1606140464.079,-9.277,-28.320,-26.367,61.035,0.000
1606140464.083,4.395,-24.414,-26.367,104.980,0.000
1606140464.087,-25.879,-25.879,-34.180,-46.387,0.000
1606140464.090,-63.477,-31.250,-36.133,-181.641,0.000
1606140464.094,-63.477,-38.086,-29.785,-141.602,0.000
1606140464.098,-31.738,-50.293,-21.484,34.668,0.000
1606140464.102,-11.719,-41.016,-14.648,114.258,0.000
1606140464.106,-28.809,-31.250,-16.113,-17.578,0.000
1606140464.110,-73.242,-28.320,-22.949,-177.246,0.000
1606140464.114,-79.102,-29.297,-22.461,-163.086,0.000
1606140464.118,-35.156,-32.715,-20.996,25.391,0.000
1606140464.122,-14.160,-29.785,-18.555,128.906,0.000
1606140464.126,-32.715,-31.738,-20.020,4.883,0.000
1606140464.130,-73.242,-35.645,-20.020,-163.086,0.000
1606140464.133,-83.008,-35.645,-21.973,-153.320,0.000
1606140464.137,-40.527,-41.504,-26.367,23.438,0.000
1606140464.141,-13.184,-35.645,-23.926,135.742,0.000
1606140464.145,-31.250,-31.250,-24.414,38.086,0.000
1606140464.149,-64.941,-32.715,-28.320,-148.926,0.000
1606140464.153,-67.383,-32.715,-31.738,-177.734,0.000
1606140464.157,-29.785,-36.621,-30.762,-8.789,0.000
1606140464.161,-0.977,-34.668,-23.926,118.652,0.000
1606140464.165,-16.113,-31.250,-22.461,53.223,0.000
1606140464.169,-58.594,-31.738,-27.344,-126.465,0.000
1606140464.173,-73.730,-34.668,-29.297,-182.617,0.000
1606140464.176,-37.598,-34.668,-28.320,-31.250,0.000
1606140464.180,2.441,-25.391,-25.879,126.465,0.000
1606140464.184,-12.207,-28.320,-30.762,75.684,0.000
1606140464.188,-50.293,-37.109,-33.691,-133.789,0.000
1606140464.192,-60.059,-36.621,-32.227,-213.379,0.000
1606140464.196,-44.922,-44.434,-31.250,-74.219,0.000
1606140464.200,-11.719,-44.922,-29.297,86.914,0.000
1606140464.204,-4.395,-28.809,-25.879,86.426,0.000
1606140464.208,-41.016,-28.320,-25.879,-92.773,0.000
1606140464.212,-59.570,-33.203,-26.855,-195.312,0.000
1606140464.215,-29.297,-31.250,-24.902,-78.613,0.000
1606140464.219,11.719,-24.414,-20.996,98.145,0.000
1606140464.223,16.113,-19.531,-23.438,114.746,0.000
1606140464.227,-20.996,-20.020,-25.879,-56.152,0.000
1606140464.231,-50.781,-29.785,-27.832,-186.523,0.000
1606140464.235,-33.203,-24.902,-28.320,-113.770,0.000
1606140464.239,10.254,-16.113,-22.949,70.312,0.000
1606140464.243,15.137,-20.508,-20.508,114.746,0.000
1606140464.247,-23.438,-22.461,-25.391,-48.340,0.000
1606140464.251,-44.922,-23.438,-28.809,-179.199,0.000
1606140464.255,-25.879,-23.438,-25.879,-113.770,0.000
1606140464.258,9.766,-19.043,-23.926,79.590,0.000
1606140464.262,16.113,-18.555,-25.879,145.020,0.000
1606140464.266,-21.484,-23.438,-29.785,-11.230,0.000
1606140464.270,-54.199,-27.344,-33.203,-164.062,0.000
1606140464.274,-46.387,-21.973,-33.691,-129.395,0.000
1606140464.278,-6.836,-17.090,-31.738,48.828,0.000
1606140464.282,17.090,-23.926,-30.762,122.070,0.000
1606140464.286,-19.531,-30.273,-35.156,-7.812,0.000
1606140464.290,-62.012,-32.227,-37.109,-162.109,0.000
1606140464.294,-58.105,-27.344,-32.227,-155.762,0.000
1606140464.298,-18.066,-23.926,-25.879,25.391,0.000
1606140464.301,7.324,-26.855,-25.879,134.766,0.000
1606140464.305,-13.184,-30.762,-28.809,31.250,0.000
1606140464.309,-46.875,-37.109,-31.738,-145.020,0.000
1606140464.313,-49.316,-37.109,-32.715,-166.992,0.000
1606140464.317,-14.648,-27.832,-30.762,6.836,0.000
1606140464.321,16.602,-21.973,-30.273,138.184,0.000
1606140464.325,0.000,-23.926,-29.785,59.570,0.000
1606140464.329,-47.852,-29.785,-34.668,-139.648,0.000
1606140464.333,-53.223,-33.203,-36.621,-191.895,0.000
1606140464.337,-11.230,-37.598,-29.785,-18.066,0.000
1606140464.340,20.020,-32.715,-25.879,129.395,0.000
1606140464.344,6.348,-29.785,-24.902,74.219,0.000
1606140464.348,-42.480,-36.621,-26.855,-118.652,0.000
1606140464.352,-65.918,-40.039,-31.738,-192.871,0.000
1606140464.356,-26.367,-41.504,-30.273,-51.270,0.000
1606140464.360,13.672,-30.273,-24.414,115.723,0.000
1606140464.364,-4.883,-23.438,-23.438,101.074,0.000
1606140464.368,-47.363,-28.320,-28.809,-83.984,0.000
1606140464.372,-72.266,-31.250,-31.738,-180.664,0.000
1606140464.376,-45.410,-40.039,-26.855,-63.965,0.000
1606140464.380,-4.395,-47.363,-25.879,104.004,0.000
1606140464.383,-4.395,-35.156,-25.879,100.098,0.000
1606140464.387,-47.852,-31.738,-26.855,-86.426,0.000
1606140464.391,-70.312,-38.086,-28.809,-194.824,0.000
1606140464.395,-38.574,-37.598,-25.391,-85.938,0.000
1606140464.399,-1.465,-32.715,-21.973,104.004,0.000
1606140464.403,2.441,-28.320,-19.043,134.766,0.000
1606140464.407,-35.645,-30.273,-17.578,-45.410,0.000
1606140464.411,-68.848,-29.297,-25.879,-178.711,0.000
1606140464.415,-48.340,-37.109,-30.273,-99.121,0.000
1606140464.419,-6.348,-42.480,-28.809,76.172,0.000
1606140464.423,7.812,-31.738,-29.785,126.465,0.000
1606140464.426,-22.461,-28.320,-32.227,-25.391,0.000
1606140464.430,-53.223,-27.344,-35.156,-170.898,0.000
1606140464.434,-43.945,-30.762,-35.645,-132.324,0.000
1606140464.438,-1.465,-24.902,-29.297,59.082,0.000
1606140464.442,10.254,-20.020,-24.902,131.348,0.000
1606140464.446,-28.809,-26.367,-28.809,-14.648,0.000
1606140464.450,-53.223,-25.391,-32.227,-167.969,0.000
1606140464.454,-53.223,-26.367,-32.715,-158.691,0.000
1606140464.458,-31.250,-31.250,-33.203,24.902,0.000
1606140464.462,-7.324,-29.297,-32.227,131.836,0.000
1606140464.465,-32.715,-31.250,-35.645,7.812,0.000
1606140464.469,-69.824,-30.762,-36.621,-168.945,0.000
1606140464.473,-66.895,-29.785,-34.668,-175.293,0.000
1606140464.477,-21.484,-26.855,-32.227,11.230,0.000
1606140464.481,-0.488,-21.973,-29.785,132.324,0.000
1606140464.485,-22.949,-26.367,-33.691,39.062,0.000
1606140464.489,-49.316,-26.855,-37.109,-133.789,0.000
1606140464.493,-51.758,-24.902,-30.273,-160.645,0.000
1606140464.497,-24.414,-28.320,-22.461,3.906,0.000
1606140464.501,-7.324,-37.598,-18.555,123.535,0.000
1606140464.505,-21.973,-43.457,-21.973,64.453,0.000
1606140464.508,-53.711,-39.551,-27.344,-105.957,0.000
1606140464.512,-69.336,-36.133,-28.320,-181.152,0.000
1606140464.516,-37.598,-37.109,-22.949,-36.133,0.000
1606140464.520,0.000,-33.203,-20.508,118.652,0.000
1606140464.524,-10.742,-28.809,-20.508,77.637,0.000
1606140464.528,-49.316,-29.297,-20.508,-113.281,0.000
1606140464.532,-65.918,-30.762,-22.949,-200.684,0.000
1606140464.536,-41.016,-30.273,-20.508,-68.359,0.000
1606140464.540,11.230,-23.438,-15.137,104.492,0.000
1606140464.544,14.648,-20.996,-11.719,102.539,0.000
1606140464.548,-41.992,-26.855,-14.160,-80.566,0.000
1606140464.551,-65.918,-31.738,-24.414,-187.500,0.000
1606140464.555,-40.527,-28.320,-27.832,-77.637,0.000
1606140464.559,1.465,-22.949,-27.344,98.145,0.000
1606140464.563,2.930,-29.785,-27.344,105.957,0.000
1606140464.567,-40.039,-34.180,-28.320,-80.078,0.000
1606140464.571,-67.871,-34.180,-28.809,-190.430,0.000
1606140464.575,-50.781,-38.086,-23.926,-101.562,0.000
1606140464.579,-11.719,-36.621,-22.461,75.195,0.000
1606140464.583,-4.395,-32.715,-22.461,118.652,0.000
1606140464.587,-40.039,-33.691,-23.438,-39.551,0.000
1606140464.590,-68.359,-34.668,-26.367,-175.781,0.000
1606140464.594,-52.734,-31.250,-21.484,-113.281,0.000
1606140464.598,-13.184,-33.691,-22.461,70.312,0.000
1606140464.602,3.418,-35.156,-23.926,133.789,0.000
1606140464.606,-26.367,-36.621,-23.438,-16.602,0.000
1606140464.610,-62.500,-41.016,-26.367,-174.805,0.000
1606140464.614,-50.293,-36.133,-21.484,-138.184,0.000
1606140464.618,-11.230,-33.691,-20.996,51.758,0.000
1606140464.622,-0.977,-31.738,-21.973,137.695,0.000
1606140464.626,-26.855,-30.273,-25.391,9.277,0.000
