timestamps,TP9,AF7,AF8,TP10,Right AUX
1606136973.498,0.000,0.000,0.000,0.000,0.000
1606136973.502,0.488,0.000,-0.488,1.953,0.000
1606136973.506,-7.812,-1.465,-0.977,-24.414,0.000
1606136973.510,16.113,2.930,1.953,47.363,0.000
1606136973.514,-68.359,-15.137,-11.719,-192.383,0.000
1606136973.518,-203.613,-38.086,-29.297,-655.273,0.000
1606136973.522,-87.891,-30.273,-20.020,-330.078,0.000
1606136973.526,114.258,-20.508,-10.742,405.762,0.000
1606136973.530,137.207,-12.695,-20.508,556.152,0.000
1606136973.534,-54.199,-27.344,-38.574,-82.031,0.000
1606136973.537,-202.148,-38.086,-38.574,-643.555,0.000
1606136973.541,-117.676,-26.855,-34.668,-410.645,0.000
1606136973.545,94.727,-17.578,-27.344,323.242,0.000
1606136973.549,147.461,-22.461,-19.531,584.473,0.000
1606136973.553,-28.809,-30.762,-37.598,26.367,0.000
1606136973.557,-192.383,-35.645,-47.363,-597.656,0.000
1606136973.561,-147.949,-41.016,-26.855,-481.934,0.000
1606136973.565,59.570,-34.180,-14.160,258.789,0.000
1606136973.569,145.508,-18.555,-19.531,614.258,0.000
1606136973.573,-11.230,-25.391,-32.715,125.488,0.000
1606136973.577,-198.730,-40.527,-41.504,-552.246,0.000
1606136973.580,-176.758,-41.504,-30.762,-554.688,0.000
1606136973.584,31.738,-31.250,-20.996,154.785,0.000
1606136973.588,139.648,-23.438,-21.973,591.797,0.000
1606136973.592,20.508,-27.832,-32.715,212.402,0.000
1606136973.596,-168.457,-40.039,-39.062,-482.422,0.000
1606136973.600,-187.500,-32.227,-37.109,-599.609,0.000
1606136973.604,2.930,-18.066,-31.738,60.059,0.000
1606136973.608,140.137,-16.113,-16.113,591.797,0.000
1606136973.612,41.992,-22.461,-11.230,312.500,0.000
1606136973.616,-159.668,-51.758,-34.180,-400.391,0.000
1606136973.619,-203.613,-58.105,-47.363,-629.395,0.000
1606136973.623,-27.344,-43.945,-37.109,-53.711,0.000
1606136973.627,137.207,-32.227,-20.996,552.734,0.000
1606136973.631,73.242,-24.414,-30.762,391.602,0.000
1606136973.635,-144.531,-37.598,-44.922,-346.191,0.000
1606136973.639,-218.262,-42.969,-36.133,-667.480,0.000
1606136973.643,-54.688,-30.762,-26.367,-148.438,0.000
1606136973.647,122.559,-23.926,-25.391,506.348,0.000
1606136973.651,92.285,-26.367,-25.879,462.891,0.000
1606136973.655,-116.211,-33.203,-44.922,-250.977,0.000
1606136973.659,-211.914,-35.645,-41.504,-667.480,0.000
1606136973.662,-69.336,-24.414,-20.508,-245.117,0.000
1606136973.666,116.211,-14.160,-24.414,435.059,0.000
1606136973.670,115.723,-17.090,-34.668,506.836,0.000
1606136973.674,-83.496,-31.738,-43.457,-155.762,0.000
1606136973.678,-205.566,-31.738,-39.062,-644.531,0.000
1606136973.682,-89.844,-20.508,-25.879,-331.055,0.000
1606136973.686,106.934,-13.672,-23.926,386.230,0.000
1606136973.690,140.137,-15.137,-28.809,565.430,0.000
1606136973.694,-41.992,-21.484,-30.273,-58.105,0.000
1606136973.698,-196.777,-34.668,-25.879,-634.277,0.000
1606136973.702,-122.070,-42.480,-23.926,-436.035,0.000
1606136973.705,75.195,-28.320,-21.973,294.434,0.000
1606136973.709,129.395,-19.531,-20.020,575.684,0.000
1606136973.713,-40.039,-34.180,-30.273,30.762,0.000
1606136973.717,-208.008,-48.828,-38.086,-605.957,0.000
1606136973.721,-161.133,-41.992,-38.086,-521.484,0.000
1606136973.725,46.387,-24.902,-31.738,202.148,0.000
1606136973.729,136.230,-19.043,-29.785,575.684,0.000
1606136973.733,-6.836,-32.715,-35.156,116.699,0.000
1606136973.737,-186.523,-46.875,-38.574,-539.551,0.000
1606136973.741,-173.828,-42.480,-33.203,-556.152,0.000
1606136973.744,24.902,-25.879,-19.043,137.695,0.000
1606136973.748,146.484,-20.508,-6.836,612.305,0.000
1606136973.752,27.832,-28.320,-19.043,255.859,0.000
1606136973.756,-175.781,-37.109,-34.180,-451.172,0.000
1606136973.760,-194.336,-37.598,-29.785,-602.539,0.000
1606136973.764,-6.836,-39.062,-27.832,18.555,0.000
1606136973.768,133.789,-27.344,-26.367,556.641,0.000
1606136973.772,49.316,-20.020,-26.855,320.312,0.000
1606136973.776,-152.832,-40.039,-28.809,-389.160,0.000
1606136973.780,-205.566,-45.410,-31.738,-636.719,0.000
1606136973.784,-28.320,-32.227,-31.738,-64.453,0.000
1606136973.787,136.230,-19.531,-20.020,543.457,0.000
1606136973.791,69.336,-22.949,-21.484,402.832,0.000
1606136973.795,-140.137,-38.574,-43.457,-320.801,0.000
1606136973.799,-214.844,-42.969,-41.992,-656.738,0.000
1606136973.803,-58.105,-38.086,-26.367,-154.297,0.000
1606136973.807,125.488,-25.879,-27.344,505.371,0.000
1606136973.811,98.633,-27.832,-29.785,476.562,0.000
1606136973.815,-112.305,-47.852,-29.297,-234.863,0.000
1606136973.819,-215.332,-44.922,-30.762,-671.387,0.000
1606136973.823,-83.008,-28.320,-35.156,-269.531,0.000
1606136973.827,113.770,-20.508,-18.066,433.594,0.000
1606136973.830,121.094,-23.438,-10.742,517.090,0.000
1606136973.834,-68.359,-33.691,-22.949,-136.230,0.000
1606136973.838,-200.684,-41.504,-34.180,-647.461,0.000
1606136973.842,-104.492,-32.227,-23.926,-362.305,0.000
1606136973.846,101.562,-17.578,-10.254,366.211,0.000
1606136973.850,133.301,-23.926,-23.926,556.641,0.000
1606136973.854,-53.711,-35.645,-34.180,-55.176,0.000
1606136973.858,-213.379,-36.621,-45.898,-639.648,0.000
1606136973.862,-139.648,-35.156,-41.504,-460.449,0.000
1606136973.866,74.707,-24.902,-33.203,274.902,0.000
1606136973.869,138.184,-13.184,-26.367,574.219,0.000
1606136973.873,-23.438,-22.461,-14.648,58.594,0.000
1606136973.877,-201.660,-36.621,-25.879,-581.543,0.000
1606136973.881,-165.527,-37.109,-23.438,-515.625,0.000
1606136973.885,48.828,-21.973,-6.836,205.078,0.000
1606136973.889,145.508,-13.672,-8.789,584.961,0.000
1606136973.893,2.441,-21.484,-20.996,152.832,0.000
1606136973.897,-180.664,-23.926,-31.738,-504.883,0.000
1606136973.901,-181.152,-33.203,-32.715,-560.059,0.000
1606136973.905,11.230,-37.109,-31.250,104.980,0.000
1606136973.909,142.578,-25.879,-25.879,582.031,0.000
1606136973.912,41.016,-40.039,-25.391,263.184,0.000
1606136973.916,-160.645,-71.289,-41.504,-434.082,0.000
1606136973.920,-188.477,-51.270,-34.180,-601.562,0.000
1606136973.924,-0.977,-24.902,-15.137,24.902,0.000
1606136973.928,143.555,-21.973,-16.113,579.590,0.000
1606136973.932,62.500,-17.090,-19.531,354.492,0.000
1606136973.936,-142.090,-22.461,-21.973,-368.164,0.000
1606136973.940,-199.707,-29.785,-32.715,-635.254,0.000
1606136973.944,-31.738,-19.043,-31.250,-77.637,0.000
1606136973.948,140.625,-4.395,-15.137,538.086,0.000
1606136973.952,95.215,-16.113,-24.902,418.457,0.000
1606136973.955,-113.770,-49.316,-39.551,-303.223,0.000
1606136973.959,-192.871,-38.086,-38.086,-655.273,0.000
1606136973.963,-41.016,-16.602,-27.832,-174.316,0.000
1606136973.967,136.719,-14.648,-19.043,481.445,0.000
1606136973.971,116.211,-18.066,-7.812,486.816,0.000
1606136973.975,-88.867,-31.250,-1.953,-203.125,0.000
1606136973.979,-210.449,-38.574,-27.344,-662.109,0.000
1606136973.983,-93.262,-30.273,-35.645,-290.527,0.000
1606136973.987,100.586,-16.113,-23.926,403.809,0.000
1606136973.991,116.699,-12.695,-19.531,527.344,0.000
1606136973.994,-76.660,-29.785,-24.902,-113.281,0.000
1606136973.998,-217.285,-41.504,-39.062,-647.461,0.000
1606136974.002,-125.488,-32.227,-41.504,-385.254,0.000
1606136974.006,77.148,-25.391,-30.273,335.449,0.000
1606136974.010,125.488,-18.555,-20.020,563.965,0.000
1606136974.014,-50.293,-31.738,-11.230,-13.184,0.000
1606136974.018,-211.914,-46.387,-24.902,-616.211,0.000
1606136974.022,-132.812,-35.645,-35.645,-456.055,0.000
1606136974.026,77.148,-18.555,-21.973,284.180,0.000
1606136974.030,134.766,-12.207,-1.953,595.215,0.000
1606136974.034,-23.438,-33.203,-10.254,89.355,0.000
1606136974.037,-199.707,-50.293,-37.598,-556.641,0.000
1606136974.041,-168.945,-36.133,-34.180,-527.344,0.000
1606136974.045,38.086,-23.438,-21.484,168.945,0.000
1606136974.049,141.113,-20.508,-16.602,566.406,0.000
1606136974.053,6.836,-30.762,-21.973,153.320,0.000
1606136974.057,-186.035,-42.480,-35.156,-520.996,0.000
1606136974.061,-178.223,-32.227,-33.691,-579.102,0.000
1606136974.065,17.090,-22.461,-30.273,86.914,0.000
1606136974.069,137.207,-19.531,-18.066,574.707,0.000
1606136974.073,33.203,-25.879,-11.230,263.184,0.000
1606136974.077,-170.410,-45.410,-43.457,-452.148,0.000
1606136974.080,-196.777,-46.387,-49.805,-621.094,0.000
1606136974.084,-10.254,-31.250,-25.391,2.930,0.000
1606136974.088,135.742,-18.066,-13.184,561.035,0.000
1606136974.092,50.781,-30.273,-28.809,344.238,0.000
1606136974.096,-166.016,-75.684,-41.016,-376.465,0.000
1606136974.100,-218.750,-61.035,-32.715,-647.461,0.000
1606136974.104,-43.945,-21.973,-14.160,-112.793,0.000
1606136974.108,125.488,-14.160,0.000,506.836,0.000
1606136974.112,74.707,-20.508,-23.438,409.668,0.000
1606136974.116,-129.883,-37.109,-43.945,-296.875,0.000
1606136974.119,-210.449,-41.016,-39.551,-652.344,0.000
1606136974.123,-67.871,-32.227,-29.297,-193.848,0.000
1606136974.127,113.281,-14.160,-20.996,478.027,0.000
1606136974.131,102.539,-19.531,-20.020,494.141,0.000
1606136974.135,-99.121,-51.270,-29.785,-201.172,0.000
1606136974.139,-217.773,-46.875,-44.922,-666.016,0.000
1606136974.143,-94.727,-23.438,-34.180,-310.059,0.000
1606136974.147,107.422,-10.742,-6.348,403.809,0.000
1606136974.151,123.047,-8.301,-20.508,535.156,0.000
1606136974.155,-68.359,-19.531,-42.480,-104.980,0.000
1606136974.159,-206.543,-33.203,-45.898,-634.766,0.000
1606136974.162,-116.211,-25.391,-43.457,-385.742,0.000
1606136974.166,94.238,-6.836,-31.250,327.148,0.000
1606136974.170,150.391,-8.301,-25.879,568.359,0.000
1606136974.174,-23.438,-28.809,-34.180,4.883,0.000
1606136974.178,-181.641,-36.621,-44.922,-593.750,0.000
1606136974.182,-129.395,-32.227,-35.156,-462.891,0.000
1606136974.186,69.824,-29.785,-22.949,244.629,0.000
1606136974.190,145.020,-20.996,-22.461,574.219,0.000
1606136974.194,-9.277,-46.387,-22.949,101.074,0.000
1606136974.198,-187.500,-70.312,-33.203,-541.016,0.000
1606136974.202,-157.715,-46.387,-43.457,-525.879,0.000
1606136974.205,48.828,-24.902,-32.715,177.734,0.000
1606136974.209,153.320,-11.719,-20.020,604.980,0.000
1606136974.213,21.973,-20.020,-25.391,205.566,0.000
1606136974.217,-168.945,-35.156,-34.668,-470.703,0.000
1606136974.221,-173.340,-38.086,-41.016,-558.594,0.000
1606136974.225,18.555,-28.320,-29.785,88.867,0.000
1606136974.229,149.414,-15.625,-14.160,586.914,0.000
1606136974.233,58.594,-35.156,-11.719,291.992,0.000
1606136974.237,-142.090,-60.547,-26.855,-419.434,0.000
1606136974.241,-184.570,-42.480,-38.574,-616.699,0.000
1606136974.244,-1.953,-20.996,-19.043,-18.555,0.000
1606136974.248,150.391,-14.648,-1.953,551.758,0.000
1606136974.252,73.242,-15.625,-19.043,365.723,0.000
1606136974.256,-135.254,-28.320,-36.133,-352.539,0.000
1606136974.260,-203.125,-41.504,-38.574,-649.414,0.000
1606136974.264,-50.781,-36.621,-32.227,-136.719,0.000
1606136974.268,119.141,-19.531,-31.738,492.676,0.000
1606136974.272,86.914,-21.484,-31.250,438.477,0.000
1606136974.276,-117.676,-54.199,-33.691,-271.484,0.000
1606136974.280,-211.426,-58.594,-37.109,-675.293,0.000
1606136974.284,-76.660,-24.902,-32.715,-248.535,0.000
1606136974.287,110.352,-10.742,-8.301,432.129,0.000
1606136974.291,110.840,-20.020,-2.930,477.051,0.000
1606136974.295,-89.355,-34.180,-27.832,-199.219,0.000
1606136974.299,-210.449,-39.551,-39.551,-672.852,0.000
1606136974.303,-96.680,-29.297,-28.809,-340.820,0.000
1606136974.307,108.398,-6.836,-12.695,376.953,0.000
1606136974.311,132.324,-10.742,-16.113,541.992,0.000
1606136974.315,-63.965,-32.715,-28.320,-82.031,0.000
1606136974.319,-208.496,-39.062,-36.133,-630.859,0.000
1606136974.323,-128.418,-33.691,-21.973,-412.109,0.000
1606136974.327,86.914,-17.090,-0.977,314.941,0.000
1606136974.330,150.879,-17.578,-8.301,583.008,0.000
1606136974.334,-20.508,-36.133,-26.367,37.109,0.000
1606136974.338,-191.406,-37.598,-31.738,-581.543,0.000
1606136974.342,-145.508,-30.762,-26.367,-493.164,0.000
1606136974.346,67.871,-23.438,-19.043,222.656,0.000
1606136974.350,156.738,-13.672,-20.020,586.426,0.000
1606136974.354,11.230,-15.625,-34.180,112.793,0.000
1606136974.358,-170.898,-25.391,-51.270,-556.641,0.000
1606136974.362,-150.879,-28.809,-45.410,-551.270,0.000
1606136974.366,65.430,-10.742,-25.391,160.645,0.000
1606136974.369,186.523,9.277,-3.418,602.051,0.000
1606136974.373,58.105,-15.625,-7.812,218.262,0.000
1606136974.377,-147.461,-47.852,-35.156,-482.910,0.000
1606136974.381,-168.457,-39.062,-43.945,-595.703,0.000
1606136974.385,16.113,-24.902,-31.250,56.641,0.000
1606136974.389,145.508,-17.090,-18.555,569.824,0.000
1606136974.393,51.758,-26.367,-26.367,294.922,0.000
1606136974.397,-145.020,-34.668,-35.156,-407.227,0.000
1606136974.401,-189.453,-34.668,-36.621,-633.301,0.000
1606136974.405,-18.555,-27.832,-39.551,-59.570,0.000
1606136974.409,135.254,-8.301,-32.715,537.598,0.000
1606136974.412,70.801,-20.508,-32.227,382.812,0.000
1606136974.416,-142.090,-42.480,-43.457,-348.633,0.000
1606136974.420,-208.984,-30.273,-33.691,-659.668,0.000
1606136974.424,-46.875,-23.926,-17.578,-141.602,0.000
1606136974.428,127.930,-21.484,-11.719,504.883,0.000
1606136974.432,93.750,-25.391,-32.227,452.148,0.000
1606136974.436,-119.629,-35.645,-44.434,-262.207,0.000
1606136974.440,-217.773,-34.180,-30.762,-665.039,0.000
1606136974.444,-85.938,-30.273,-32.715,-245.605,0.000
1606136974.448,101.074,-18.555,-32.227,438.477,0.000
1606136974.452,113.281,-10.254,-20.020,515.625,0.000
1606136974.455,-79.590,-26.367,-34.668,-146.973,0.000
1606136974.459,-207.031,-44.434,-49.805,-642.578,0.000
1606136974.463,-99.609,-30.762,-27.344,-332.031,0.000
1606136974.467,99.121,-20.020,-19.531,367.676,0.000
1606136974.471,126.953,-21.484,-21.973,531.738,0.000
1606136974.475,-54.688,-39.551,-32.227,-69.336,0.000
1606136974.479,-203.613,-52.734,-43.945,-627.930,0.000
1606136974.483,-125.488,-29.297,-32.715,-424.805,0.000
1606136974.487,83.496,-15.137,-14.648,303.711,0.000
1606136974.491,144.043,-9.766,-9.277,574.219,0.000
1606136974.494,-21.484,-17.090,-16.602,29.785,0.000
1606136974.498,-194.824,-31.738,-29.297,-594.727,0.000
1606136974.502,-153.320,-30.273,-36.133,-501.953,0.000
1606136974.506,57.617,-20.020,-32.227,217.773,0.000
1606136974.510,148.438,-27.344,-24.902,583.496,0.000
1606136974.514,3.906,-35.645,-20.996,128.906,0.000
1606136974.518,-179.199,-34.180,-27.832,-535.156,0.000
1606136974.522,-169.434,-33.203,-31.738,-553.223,0.000
1606136974.526,29.785,-27.344,-22.949,133.789,0.000
1606136974.530,149.414,-17.090,-13.184,583.496,0.000
1606136974.534,30.762,-22.949,-20.996,225.098,0.000
1606136974.537,-161.133,-38.086,-32.227,-467.285,0.000
1606136974.541,-177.246,-45.410,-29.785,-599.121,0.000
1606136974.545,18.555,-37.598,-25.391,31.250,0.000
1606136974.549,160.156,-25.879,-17.090,562.988,0.000
1606136974.553,65.918,-28.320,-16.602,335.938,0.000
1606136974.557,-147.949,-48.828,-35.645,-384.766,0.000
1606136974.561,-194.824,-53.711,-34.668,-627.930,0.000
1606136974.565,-12.207,-37.109,-29.785,-56.641,0.000
1606136974.569,143.555,-19.531,-27.344,527.344,0.000
1606136974.573,79.102,-25.879,-28.320,383.789,0.000
1606136974.577,-125.977,-45.898,-33.691,-330.566,0.000
1606136974.580,-208.008,-53.223,-36.133,-660.156,0.000
1606136974.584,-50.781,-43.945,-34.668,-161.133,0.000
1606136974.588,133.301,-23.926,-17.578,494.629,0.000
1606136974.592,101.074,-21.973,-14.160,467.285,0.000
1606136974.596,-102.051,-37.598,-28.320,-226.074,0.000
1606136974.600,-208.984,-45.898,-24.414,-648.926,0.000
1606136974.604,-89.355,-33.691,-27.832,-258.789,0.000
1606136974.608,98.145,-21.484,-34.668,418.945,0.000
1606136974.612,103.516,-24.902,-26.855,496.094,0.000
1606136974.616,-82.520,-41.992,-28.809,-152.344,0.000
1606136974.619,-199.707,-45.898,-31.738,-639.648,0.000
1606136974.623,-107.422,-31.738,-31.738,-349.121,0.000
1606136974.627,93.262,-24.414,-27.832,363.281,0.000
1606136974.631,137.695,-26.367,-25.879,563.477,0.000
1606136974.635,-53.223,-38.574,-31.250,-48.828,0.000
1606136974.639,-213.379,-43.457,-32.715,-632.812,0.000
1606136974.643,-134.277,-36.621,-32.227,-447.754,0.000
1606136974.647,73.730,-26.367,-35.645,280.762,0.000
1606136974.651,136.230,-22.461,-25.391,579.590,0.000
1606136974.655,-27.344,-41.504,-22.461,55.176,0.000
1606136974.659,-199.707,-53.711,-32.227,-578.125,0.000
1606136974.662,-158.691,-45.410,-32.227,-509.766,0.000
1606136974.666,43.457,-27.832,-16.113,199.707,0.000
1606136974.670,136.230,-14.160,-13.672,587.402,0.000
1606136974.674,-2.441,-27.832,-29.297,154.297,0.000
1606136974.678,-191.895,-46.387,-41.016,-520.996,0.000
1606136974.682,-184.082,-55.664,-40.527,-570.801,0.000
1606136974.686,18.066,-37.109,-33.691,103.516,0.000
1606136974.690,133.301,-14.160,-27.344,576.660,0.000
1606136974.694,21.484,-20.020,-26.855,239.746,0.000
1606136974.698,-174.316,-32.715,-27.832,-466.797,0.000
1606136974.702,-200.195,-38.574,-37.109,-614.746,0.000
1606136974.705,-4.395,-29.297,-34.668,23.926,0.000
1606136974.709,147.949,-17.090,-12.695,579.102,0.000
1606136974.713,59.082,-16.113,-23.926,343.750,0.000
1606136974.717,-145.020,-27.344,-39.062,-370.117,0.000
1606136974.721,-197.754,-38.574,-40.527,-627.441,0.000
1606136974.725,-25.879,-21.484,-24.902,-75.195,0.000
1606136974.729,135.742,-9.766,-20.508,530.762,0.000
1606136974.733,82.520,-27.832,-35.156,409.180,0.000
1606136974.737,-112.305,-40.039,-27.832,-282.227,0.000
1606136974.741,-198.730,-39.062,-27.344,-624.512,0.000
1606136974.744,-57.617,-23.438,-29.785,-167.969,0.000
1606136974.748,121.582,-16.602,-22.461,476.562,0.000
1606136974.752,96.680,-24.902,-27.832,458.984,0.000
1606136974.756,-99.609,-16.113,-33.203,-223.633,0.000
1606136974.760,-209.473,-25.879,-34.180,-650.879,0.000
1606136974.764,-95.703,-39.062,-32.715,-287.598,0.000
1606136974.768,96.191,-37.109,-34.668,398.438,0.000
1606136974.772,118.164,-35.156,-30.273,520.508,0.000
1606136974.776,-71.289,-41.504,-33.203,-126.465,0.000
1606136974.780,-207.520,-50.781,-43.945,-660.156,0.000
1606136974.784,-112.305,-38.574,-37.109,-395.996,0.000
1606136974.787,91.309,-24.902,-23.926,329.590,0.000
1606136974.791,130.371,-19.043,-8.789,548.828,0.000
1606136974.795,-56.641,-23.438,-13.184,-34.180,0.000
1606136974.799,-216.797,-30.762,-39.551,-613.770,0.000
1606136974.803,-151.855,-22.461,-35.156,-445.801,0.000
1606136974.807,65.430,-8.301,-8.789,293.457,0.000
1606136974.811,142.578,-10.254,-13.184,603.516,0.000
1606136974.815,-17.090,-30.273,-27.344,73.242,0.000
1606136974.819,-194.824,-39.062,-31.250,-557.129,0.000
1606136974.823,-160.156,-33.691,-34.180,-495.117,0.000
1606136974.827,44.922,-26.855,-36.621,203.613,0.000
1606136974.830,147.461,-15.137,-27.344,593.750,0.000
1606136974.834,13.184,-13.184,-27.832,169.922,0.000
1606136974.838,-177.246,-30.273,-32.227,-510.742,0.000
1606136974.842,-170.410,-37.598,-36.133,-581.055,0.000
1606136974.846,28.320,-30.762,-32.227,92.773,0.000
1606136974.850,146.484,-26.367,-13.184,581.055,0.000
1606136974.854,29.785,-37.109,-17.578,251.465,0.000
1606136974.858,-172.852,-54.688,-31.250,-459.473,0.000
1606136974.862,-208.984,-49.805,-44.434,-631.836,0.000
1606136974.866,-18.555,-30.762,-37.109,-9.766,0.000
1606136974.869,143.066,-24.902,-27.344,553.711,0.000
1606136974.873,62.500,-32.227,-32.227,334.961,0.000
1606136974.877,-142.578,-39.062,-36.621,-385.254,0.000
1606136974.881,-194.336,-36.621,-36.133,-648.438,0.000
1606136974.885,-22.949,-27.832,-25.391,-101.074,0.000
1606136974.889,146.973,-18.555,-18.066,520.020,0.000
1606136974.893,89.355,-31.738,-9.277,425.293,0.000
1606136974.897,-125.488,-51.758,-20.020,-286.621,0.000
1606136974.901,-208.984,-44.922,-31.738,-659.180,0.000
1606136974.905,-63.965,-29.297,-22.461,-209.473,0.000
1606136974.909,116.699,-16.113,-30.762,452.637,0.000
1606136974.912,96.191,-17.578,-38.086,465.820,0.000
1606136974.916,-105.957,-34.668,-28.809,-215.332,0.000
1606136974.920,-206.543,-43.457,-17.578,-659.668,0.000
1606136974.924,-83.984,-33.691,-17.578,-300.293,0.000
1606136974.928,112.793,-16.602,-9.766,405.273,0.000
1606136974.932,135.742,-21.973,-8.301,544.922,0.000
1606136974.936,-62.500,-48.340,-27.344,-99.609,0.000
1606136974.940,-204.102,-50.781,-33.691,-641.602,0.000
1606136974.944,-112.305,-38.574,-28.320,-386.230,0.000
1606136974.948,94.238,-20.020,-23.926,336.426,0.000
1606136974.952,145.996,-11.719,-17.578,569.336,0.000
1606136974.955,-35.156,-28.809,-24.414,-8.789,0.000
1606136974.959,-204.590,-41.016,-43.945,-606.934,0.000
1606136974.963,-139.648,-32.227,-45.898,-455.566,0.000
1606136974.967,74.219,-19.531,-19.531,266.602,0.000
1606136974.971,162.598,-15.625,0.977,603.516,0.000
1606136974.975,5.371,-35.156,-12.207,109.375,0.000
1606136974.979,-188.965,-41.016,-23.926,-553.711,0.000
1606136974.983,-164.062,-29.297,-29.297,-528.320,0.000
1606136974.987,35.156,-21.973,-25.391,166.016,0.000
1606136974.991,132.324,-11.230,-17.578,578.125,0.000
1606136974.994,6.348,-20.996,-30.273,170.410,0.000
1606136974.998,-180.176,-36.133,-40.527,-513.672,0.000
1606136975.002,-184.570,-35.156,-34.668,-598.145,0.000
1606136975.006,19.531,-25.391,-19.043,59.570,0.000
1606136975.010,152.832,-19.531,-20.996,573.242,0.000
1606136975.014,33.691,-27.832,-20.508,225.586,0.000
1606136975.018,-166.504,-32.715,-23.438,-499.512,0.000
1606136975.022,-186.035,-29.297,-31.738,-616.211,0.000
1606136975.026,-5.371,-22.949,-27.344,-16.113,0.000
1606136975.030,140.625,-27.832,-26.855,530.762,0.000
1606136975.034,63.477,-52.734,-28.809,330.566,0.000
1606136975.037,-130.371,-61.035,-25.391,-369.629,0.000
1606136975.041,-193.359,-37.109,-25.879,-649.414,0.000
1606136975.045,-30.762,-21.973,-25.391,-126.953,0.000
1606136975.049,142.578,-13.184,-15.137,496.094,0.000
1606136975.053,105.469,-12.695,-12.695,429.688,0.000
1606136975.057,-100.586,-20.996,-23.926,-262.207,0.000
1606136975.061,-188.965,-32.227,-31.250,-644.043,0.000
1606136975.065,-55.176,-35.645,-24.902,-210.938,0.000
1606136975.069,120.117,-20.996,-20.020,450.684,0.000
1606136975.073,117.676,-25.879,-14.648,482.422,0.000
1606136975.077,-79.590,-42.480,-21.484,-185.059,0.000
1606136975.080,-197.266,-36.133,-36.621,-642.090,0.000
1606136975.084,-83.984,-22.949,-32.715,-304.688,0.000
1606136975.088,109.375,-21.973,-23.926,386.230,0.000
1606136975.092,132.324,-24.414,-13.184,531.738,0.000
1606136975.096,-54.199,-24.902,-20.020,-87.891,0.000
1606136975.100,-194.336,-25.391,-35.156,-613.281,0.000
1606136975.104,-109.863,-21.484,-30.273,-375.488,0.000
1606136975.108,92.773,-20.996,-19.043,326.660,0.000
1606136975.112,147.949,-19.531,-11.719,581.543,0.000
1606136975.116,-20.020,-34.180,-2.441,37.598,0.000
1606136975.119,-187.988,-43.457,-26.367,-574.707,0.000
1606136975.123,-140.625,-35.156,-50.293,-471.680,0.000
1606136975.127,64.453,-23.438,-35.156,235.840,0.000
1606136975.131,145.020,-14.648,-28.320,579.102,0.000
1606136975.135,-6.836,-25.391,-30.762,107.422,0.000
1606136975.139,-186.035,-37.598,-32.227,-538.574,0.000
1606136975.143,-161.621,-34.180,-29.785,-530.762,0.000
1606136975.147,45.898,-20.508,-20.508,153.809,0.000
1606136975.151,155.762,-14.160,-17.578,576.172,0.000
1606136975.155,27.832,-25.391,-23.438,193.359,0.000
1606136975.159,-163.086,-32.715,-26.855,-476.562,0.000
1606136975.162,-173.828,-34.180,-35.645,-566.406,0.000
1606136975.166,12.695,-32.715,-31.738,59.082,0.000
1606136975.170,146.484,-24.414,-21.973,562.012,0.000
1606136975.174,51.758,-42.969,-23.926,291.016,0.000
1606136975.178,-142.090,-44.922,-27.344,-404.297,0.000
1606136975.182,-184.082,-25.879,-29.785,-604.980,0.000
1606136975.186,-13.184,-23.438,-23.926,-32.715,0.000
1606136975.190,146.973,-21.484,-18.555,542.969,0.000
1606136975.194,79.102,-24.902,-18.555,371.582,0.000
1606136975.198,-133.301,-37.109,-23.926,-349.121,0.000
1606136975.202,-203.125,-40.527,-25.879,-651.855,0.000
1606136975.205,-38.086,-20.020,-26.855,-126.953,0.000
1606136975.209,141.113,-0.488,-22.461,522.949,0.000
1606136975.213,94.727,-20.996,-8.301,451.660,0.000
1606136975.217,-126.953,-54.199,-20.996,-266.602,0.000
1606136975.221,-215.820,-46.875,-33.203,-660.156,0.000
1606136975.225,-75.684,-28.320,-22.461,-241.699,0.000
1606136975.229,106.934,-19.043,-19.043,426.758,0.000
1606136975.233,107.910,-19.531,-20.020,479.492,0.000
1606136975.237,-86.914,-28.320,-16.113,-178.223,0.000
1606136975.241,-210.449,-36.133,-26.367,-647.461,0.000
1606136975.244,-97.168,-32.715,-20.996,-322.754,0.000
1606136975.248,107.910,-18.555,-5.371,386.230,0.000
1606136975.252,134.766,-13.184,-17.090,547.852,0.000
1606136975.256,-55.664,-26.855,-29.297,-56.641,0.000
1606136975.260,-212.891,-36.133,-37.598,-614.258,0.000
1606136975.264,-136.230,-31.250,-28.809,-405.762,0.000
1606136975.268,79.102,-14.160,-16.113,312.500,0.000
1606136975.272,137.207,-11.719,-20.020,572.754,0.000
1606136975.276,-30.273,-25.391,-22.461,31.250,0.000
1606136975.280,-187.988,-29.297,-29.297,-578.125,0.000
1606136975.284,-134.766,-18.555,-21.484,-468.262,0.000
1606136975.287,74.707,-4.395,-1.465,250.488,0.000
1606136975.291,147.949,-17.090,-15.137,594.238,0.000
1606136975.295,-6.836,-29.297,-37.598,120.605,0.000
1606136975.299,-185.547,-30.762,-36.621,-537.598,0.000
1606136975.303,-164.062,-29.297,-22.949,-539.062,0.000
1606136975.307,33.691,-19.043,-17.578,146.973,0.000
1606136975.311,140.625,-18.555,-16.113,576.660,0.000
1606136975.315,21.973,-30.273,-17.090,205.566,0.000
1606136975.319,-166.992,-40.039,-29.297,-471.191,0.000
1606136975.323,-181.152,-34.180,-30.762,-589.844,0.000
1606136975.327,12.207,-23.438,-15.625,46.387,0.000
1606136975.330,144.531,-19.531,-15.137,554.199,0.000
1606136975.334,50.781,-19.531,-25.391,291.016,0.000
1606136975.338,-148.438,-27.832,-33.203,-413.086,0.000
1606136975.342,-197.754,-33.691,-35.645,-647.461,0.000
1606136975.346,-16.602,-21.973,-24.414,-57.617,0.000
1606136975.350,145.996,-14.648,-20.508,535.645,0.000
1606136975.354,76.660,-21.484,-28.809,374.512,0.000
1606136975.358,-126.953,-33.203,-37.109,-329.590,0.000
1606136975.362,-199.707,-40.039,-37.109,-645.996,0.000
1606136975.366,-43.457,-31.738,-27.344,-145.996,0.000
1606136975.369,140.625,-16.113,-15.137,494.629,0.000
1606136975.373,110.840,-15.625,-4.883,449.707,0.000
1606136975.377,-100.586,-28.320,-25.391,-247.070,0.000
1606136975.381,-205.566,-41.016,-39.551,-650.391,0.000
1606136975.385,-72.754,-39.551,-31.250,-246.582,0.000
1606136975.389,125.000,-15.625,-16.113,439.453,0.000
1606136975.393,132.812,-13.672,-5.859,518.555,0.000
1606136975.397,-66.895,-28.809,-23.926,-133.789,0.000
1606136975.401,-198.730,-34.668,-40.039,-623.535,0.000
1606136975.405,-93.262,-41.504,-29.297,-327.148,0.000
1606136975.409,108.398,-30.273,-8.789,381.348,0.000
1606136975.412,136.230,-32.227,-9.277,556.641,0.000
1606136975.416,-53.711,-44.434,-27.344,-51.270,0.000
1606136975.420,-205.078,-43.945,-33.203,-615.234,0.000
1606136975.424,-127.441,-40.039,-29.297,-417.480,0.000
1606136975.428,83.008,-22.949,-24.902,306.641,0.000
1606136975.432,149.902,-18.066,-22.949,592.773,0.000
1606136975.436,-17.090,-25.391,-30.273,56.641,0.000
1606136975.440,-186.523,-37.598,-30.273,-562.012,0.000
1606136975.444,-144.043,-36.621,-29.785,-470.703,0.000
1606136975.448,61.523,-20.996,-28.320,230.957,0.000
1606136975.452,150.879,-17.090,-25.391,607.910,0.000
1606136975.455,8.301,-29.785,-39.551,157.715,0.000
1606136975.459,-178.223,-46.875,-51.270,-520.996,0.000
1606136975.463,-165.527,-39.551,-33.203,-550.293,0.000
1606136975.467,43.945,-21.973,-13.184,132.324,0.000
1606136975.471,162.109,-14.648,-5.371,590.820,0.000
1606136975.475,44.922,-20.020,-14.648,240.234,0.000
1606136975.479,-151.855,-26.855,-34.180,-458.008,0.000
1606136975.483,-173.340,-28.320,-39.551,-596.191,0.000
1606136975.487,15.625,-22.461,-31.738,37.109,0.000
1606136975.491,154.297,-12.207,-25.391,575.195,0.000
1606136975.494,62.500,-16.602,-35.156,327.637,0.000
1606136975.498,-138.672,-29.297,-44.922,-394.043,0.000
1606136975.502,-190.918,-33.691,-35.645,-635.742,0.000
1606136975.506,-30.273,-24.902,-31.738,-81.055,0.000
1606136975.510,140.137,-7.812,-17.090,524.414,0.000
1606136975.514,87.891,-12.695,-16.602,400.879,0.000
1606136975.518,-124.023,-28.320,-33.203,-319.824,0.000
1606136975.522,-202.148,-33.691,-37.598,-657.227,0.000
1606136975.526,-48.340,-26.367,-28.320,-178.711,0.000
1606136975.530,122.559,-16.602,-22.461,474.121,0.000
1606136975.534,98.145,-18.555,-23.926,464.355,0.000
1606136975.537,-97.656,-25.879,-29.297,-222.168,0.000
1606136975.541,-208.008,-32.715,-38.086,-655.273,0.000
1606136975.545,-84.473,-33.203,-28.320,-267.578,0.000
1606136975.549,109.375,-17.578,-25.391,410.645,0.000
1606136975.553,128.906,-17.090,-19.531,503.418,0.000
1606136975.557,-65.430,-39.062,-28.320,-149.902,0.000
1606136975.561,-195.801,-40.527,-29.785,-648.438,0.000
1606136975.565,-90.820,-28.320,-26.855,-355.957,0.000
1606136975.569,104.980,-15.625,-30.762,345.703,0.000
1606136975.573,144.043,-18.555,-23.438,549.805,0.000
1606136975.577,-34.180,-26.367,-28.320,-43.945,0.000
1606136975.580,-188.965,-30.273,-33.691,-618.164,0.000
1606136975.584,-111.328,-27.832,-33.203,-436.523,0.000
1606136975.588,92.285,-16.113,-28.320,274.902,0.000
1606136975.592,149.414,-15.137,-19.531,559.082,0.000
1606136975.596,-26.367,-53.711,-26.855,38.086,0.000
1606136975.600,-201.172,-55.176,-34.180,-576.660,0.000
1606136975.604,-158.203,-25.879,-26.855,-496.582,0.000
1606136975.608,41.504,-13.672,-24.414,202.148,0.000
1606136975.612,137.695,-10.254,-17.578,586.914,0.000
1606136975.616,10.254,-21.973,-14.160,171.387,0.000
1606136975.619,-170.410,-33.691,-28.809,-494.629,0.000
1606136975.623,-164.551,-35.645,-33.691,-537.109,0.000
1606136975.627,36.621,-20.996,-22.461,142.090,0.000
1606136975.631,155.273,-9.277,-21.973,610.352,0.000
1606136975.635,41.016,-24.414,-26.367,267.090,0.000
1606136975.639,-158.691,-42.480,-33.203,-438.477,0.000
1606136975.643,-185.059,-37.109,-26.367,-594.727,0.000
1606136975.647,0.977,-22.949,-20.020,21.973,0.000
1606136975.651,141.602,-13.184,-18.555,558.105,0.000
1606136975.655,57.129,-24.414,-17.090,321.777,0.000
1606136975.659,-154.785,-37.109,-33.203,-397.461,0.000
1606136975.662,-212.402,-31.738,-35.645,-640.137,0.000
1606136975.666,-36.621,-23.438,-16.602,-78.613,0.000
1606136975.670,135.742,-14.648,-2.930,522.949,0.000
1606136975.674,84.961,-17.090,-6.836,409.180,0.000
1606136975.678,-122.070,-30.273,-28.320,-296.875,0.000
1606136975.682,-208.984,-33.691,-39.062,-642.578,0.000
1606136975.686,-63.477,-24.902,-23.926,-172.363,0.000
1606136975.690,123.047,-7.324,-11.230,479.492,0.000
1606136975.694,104.004,-19.043,-20.020,469.238,0.000
1606136975.698,-109.375,-46.875,-25.879,-225.098,0.000
1606136975.702,-212.402,-35.645,-24.902,-655.762,0.000
1606136975.705,-85.938,-25.879,-35.645,-278.809,0.000
1606136975.709,99.121,-22.461,-27.832,399.902,0.000
1606136975.713,113.281,-18.066,-20.508,502.930,0.000
1606136975.717,-78.613,-28.809,-28.320,-137.207,0.000
1606136975.721,-216.797,-32.227,-27.344,-644.531,0.000
1606136975.725,-117.188,-26.855,-23.438,-373.047,0.000
1606136975.729,85.938,-14.160,-18.066,336.426,0.000
1606136975.733,127.930,-13.184,-16.113,557.617,0.000
1606136975.737,-54.688,-34.668,-26.367,-26.367,0.000
1606136975.741,-215.332,-38.574,-34.180,-618.164,0.000
1606136975.744,-138.672,-29.785,-30.762,-460.449,0.000
1606136975.748,76.172,-15.137,-26.367,256.348,0.000
1606136975.752,140.625,-16.113,-22.461,565.430,0.000
1606136975.756,-20.508,-25.391,-24.902,62.012,0.000
1606136975.760,-189.941,-30.762,-37.109,-570.312,0.000
1606136975.764,-161.621,-27.832,-29.785,-508.789,0.000
1606136975.768,43.457,-12.207,-10.742,201.172,0.000
1606136975.772,145.508,-12.695,-25.391,589.844,0.000
1606136975.776,2.930,-45.898,-50.293,161.133,0.000
1606136975.780,-189.941,-55.664,-47.363,-523.926,0.000
1606136975.784,-184.570,-37.109,-29.785,-583.496,0.000
1606136975.787,17.090,-21.484,-23.438,98.145,0.000
1606136975.791,145.996,-14.160,-18.555,583.008,0.000
1606136975.795,37.598,-23.438,-13.184,260.254,0.000
1606136975.799,-167.969,-28.320,-25.391,-446.289,0.000
1606136975.803,-199.707,-29.297,-30.273,-618.164,0.000
1606136975.807,-5.859,-17.090,-20.508,3.906,0.000
1606136975.811,145.996,-5.859,-24.902,561.035,0.000
1606136975.815,65.918,-11.719,-28.320,343.750,0.000
1606136975.819,-145.020,-25.391,-35.156,-371.582,0.000
1606136975.823,-216.309,-38.086,-42.480,-652.832,0.000
1606136975.827,-45.898,-25.391,-28.320,-110.352,0.000
1606136975.830,133.301,-10.254,-14.648,517.090,0.000
1606136975.834,94.238,-18.066,-19.531,415.039,0.000
1606136975.838,-122.559,-38.574,-36.133,-306.152,0.000
1606136975.842,-215.820,-41.992,-39.062,-666.016,0.000
1606136975.846,-64.941,-36.133,-21.484,-203.613,0.000
1606136975.850,117.676,-25.391,-7.812,459.473,0.000
1606136975.854,99.609,-20.020,-6.836,469.238,0.000
1606136975.858,-108.887,-27.832,-27.832,-224.121,0.000
1606136975.862,-217.285,-30.762,-44.434,-665.039,0.000
1606136975.866,-91.309,-30.762,-41.504,-295.898,0.000
1606136975.869,99.609,-16.602,-33.203,400.391,0.000
1606136975.873,115.234,-29.785,-24.902,523.926,0.000
1606136975.877,-78.125,-61.523,-24.902,-123.535,0.000
1606136975.881,-216.797,-43.945,-30.273,-646.484,0.000
1606136975.885,-120.117,-23.926,-22.949,-382.812,0.000
1606136975.889,87.891,-15.625,-17.090,325.684,0.000
1606136975.893,134.277,-15.137,-22.949,546.387,0.000
1606136975.897,-39.062,-26.855,-22.949,-24.902,0.000
1606136975.901,-196.777,-36.621,-19.531,-610.352,0.000
1606136975.905,-136.719,-34.668,-22.461,-461.426,0.000
1606136975.909,75.684,-16.113,-25.391,261.230,0.000
1606136975.912,157.227,-18.066,-21.973,586.914,0.000
1606136975.916,-0.488,-37.598,-35.645,77.637,0.000
1606136975.920,-179.199,-30.273,-37.598,-555.176,0.000
1606136975.924,-151.367,-27.344,-29.785,-508.789,0.000
1606136975.928,45.898,-23.438,-21.484,180.176,0.000
1606136975.932,145.508,-12.207,-12.695,592.285,0.000
1606136975.936,14.648,-15.625,-26.367,179.688,0.000
1606136975.940,-178.711,-32.227,-46.875,-513.184,0.000
1606136975.944,-183.594,-37.109,-42.480,-581.543,0.000
1606136975.948,11.719,-23.926,-20.508,67.871,0.000
1606136975.952,141.602,-15.137,-20.020,564.453,0.000
1606136975.955,33.203,-18.555,-29.297,227.051,0.000
1606136975.959,-166.992,-33.691,-40.527,-491.211,0.000
1606136975.963,-192.383,-42.480,-49.805,-614.746,0.000
1606136975.967,-5.859,-20.996,-40.039,-24.902,0.000
1606136975.971,142.578,-6.348,-31.250,526.855,0.000
1606136975.975,61.035,-32.227,-35.645,331.055,0.000
1606136975.979,-143.555,-50.293,-41.504,-372.070,0.000
1606136975.983,-199.219,-37.598,-36.133,-645.508,0.000
1606136975.987,-32.227,-21.973,-22.461,-124.512,0.000
1606136975.991,136.719,-9.277,-22.461,493.652,0.000
1606136975.994,93.750,-16.602,-37.109,415.039,0.000
1606136975.998,-110.352,-27.832,-45.410,-281.738,0.000
1606136976.002,-198.242,-34.668,-34.668,-650.391,0.000
1606136976.006,-55.664,-27.832,-22.949,-205.078,0.000
1606136976.010,125.977,-12.207,-17.578,453.125,0.000
1606136976.014,115.723,-35.156,-19.043,476.562,0.000
1606136976.018,-81.543,-48.828,-28.320,-188.477,0.000
1606136976.022,-189.453,-28.320,-26.855,-625.000,0.000
1606136976.026,-76.660,-20.508,-12.695,-287.109,0.000
1606136976.030,108.398,-14.160,-13.672,396.973,0.000
1606136976.034,126.465,-17.578,-25.879,529.785,0.000
1606136976.037,-63.477,-27.344,-41.992,-91.797,0.000
1606136976.041,-207.031,-36.133,-53.223,-611.816,0.000
1606136976.045,-118.164,-34.668,-38.574,-374.512,0.000
1606136976.049,86.914,-16.602,-24.902,336.914,0.000
1606136976.053,144.043,-30.762,-22.949,581.543,0.000
1606136976.057,-27.344,-69.336,-26.855,17.090,0.000
1606136976.061,-202.637,-53.223,-41.992,-583.984,0.000
1606136976.065,-145.508,-28.320,-39.062,-449.219,0.000
1606136976.069,64.453,-17.578,-24.414,263.184,0.000
1606136976.073,135.742,-24.902,-23.926,586.914,0.000
1606136976.077,-18.555,-32.715,-40.039,109.863,0.000
1606136976.080,-191.895,-31.250,-48.340,-523.438,0.000
1606136976.084,-166.504,-30.273,-38.574,-502.930,0.000
1606136976.088,41.992,-18.066,-24.902,190.430,0.000
1606136976.092,149.902,-15.625,-18.555,610.352,0.000
1606136976.096,19.043,-24.414,-25.879,219.238,0.000
1606136976.100,-170.898,-28.809,-39.551,-457.520,0.000
1606136976.104,-181.641,-35.156,-32.715,-561.035,0.000
1606136976.108,13.672,-23.438,-24.902,76.172,0.000
1606136976.112,150.879,-20.508,-29.297,571.289,0.000
1606136976.116,48.340,-43.945,-31.738,287.109,0.000
1606136976.119,-150.391,-39.062,-36.621,-404.785,0.000
1606136976.123,-182.129,-36.133,-34.180,-604.980,0.000
1606136976.127,-1.465,-26.367,-28.320,-21.484,0.000
1606136976.131,150.879,-3.906,-24.902,543.457,0.000
1606136976.135,83.008,-8.789,-24.902,370.117,0.000
1606136976.139,-124.023,-23.438,-36.133,-339.355,0.000
1606136976.143,-199.707,-26.367,-32.227,-635.254,0.000
1606136976.147,-35.156,-15.625,-14.648,-97.168,0.000
1606136976.151,130.859,-11.719,-7.812,503.418,0.000
1606136976.155,86.914,-36.133,-15.137,408.691,0.000
1606136976.159,-111.816,-49.805,-32.227,-265.137,0.000
1606136976.162,-207.520,-37.598,-37.109,-642.090,0.000
1606136976.166,-75.195,-29.297,-26.855,-218.262,0.000
1606136976.170,109.375,-18.066,-13.672,447.266,0.000
1606136976.174,102.051,-20.020,-17.090,489.746,0.000
1606136976.178,-91.797,-32.715,-26.367,-179.688,0.000
1606136976.182,-209.473,-32.715,-35.156,-650.391,0.000
1606136976.186,-103.516,-22.949,-37.598,-323.242,0.000
1606136976.190,99.121,-12.695,-23.438,379.883,0.000
1606136976.194,125.977,-18.555,-15.137,542.969,0.000
1606136976.198,-62.988,-37.109,-20.020,-68.359,0.000
1606136976.202,-200.195,-41.016,-28.320,-604.980,0.000
1606136976.205,-115.234,-29.297,-42.480,-381.348,0.000
1606136976.209,92.773,-9.766,-25.879,344.727,0.000
1606136976.213,152.832,-10.742,-12.207,598.633,0.000
1606136976.217,-19.531,-32.715,-26.855,38.086,0.000
1606136976.221,-186.523,-48.828,-34.668,-563.965,0.000
1606136976.225,-136.719,-41.016,-28.809,-449.219,0.000
1606136976.229,68.848,-22.949,-16.113,257.324,0.000
1606136976.233,156.738,-16.113,-9.766,603.027,0.000
1606136976.237,4.395,-27.344,-20.508,134.277,0.000
1606136976.241,-173.340,-34.668,-32.227,-523.926,0.000
1606136976.244,-150.391,-36.133,-38.086,-532.715,0.000
1606136976.248,41.992,-28.320,-37.598,147.461,0.000
1606136976.252,156.250,-24.414,-27.832,576.660,0.000
1606136976.256,37.598,-37.109,-19.043,204.590,0.000
1606136976.260,-161.621,-36.621,-28.320,-471.680,0.000
1606136976.264,-174.316,-27.344,-39.062,-583.008,0.000
1606136976.268,26.367,-17.578,-20.020,60.547,0.000
1606136976.272,155.273,-12.207,-9.766,577.637,0.000
1606136976.276,55.664,-20.996,-11.719,305.664,0.000
1606136976.280,-146.973,-34.180,-24.902,-397.949,0.000
1606136976.284,-193.359,-30.762,-31.250,-607.422,0.000
1606136976.287,-11.230,-17.578,-17.090,-20.508,0.000
1606136976.291,135.742,-20.508,-16.602,546.387,0.000
1606136976.295,58.594,-37.598,-14.648,374.512,0.000
1606136976.299,-134.277,-40.039,-8.789,-325.684,0.000
1606136976.303,-204.590,-42.480,-20.020,-639.648,0.000
1606136976.307,-56.641,-34.668,-17.090,-142.578,0.000
1606136976.311,128.418,-17.090,-14.160,503.418,0.000
1606136976.315,91.309,-22.949,-30.762,451.172,0.000
1606136976.319,-122.559,-35.645,-37.109,-250.488,0.000
1606136976.323,-214.844,-39.551,-33.691,-634.766,0.000
1606136976.327,-79.590,-29.297,-19.531,-213.867,0.000
1606136976.330,107.422,-21.484,-12.695,453.125,0.000
1606136976.334,108.887,-43.945,-18.066,515.137,0.000
1606136976.338,-84.961,-66.895,-32.227,-142.090,0.000
1606136976.342,-207.520,-46.387,-31.738,-626.953,0.000
1606136976.346,-97.656,-23.926,-15.625,-315.430,0.000
1606136976.350,105.469,-11.719,-19.531,392.090,0.000
1606136976.354,137.207,-9.766,-24.414,555.664,0.000
1606136976.358,-48.340,-23.926,-34.180,-56.152,0.000
1606136976.362,-197.754,-43.945,-40.527,-608.398,0.000
1606136976.366,-117.676,-37.109,-32.227,-400.879,0.000
1606136976.369,86.426,-17.090,-24.902,315.430,0.000
1606136976.373,138.672,-20.996,-14.648,581.055,0.000
1606136976.377,-27.832,-28.809,-20.020,50.293,0.000
1606136976.381,-186.523,-26.367,-29.297,-545.898,0.000
1606136976.385,-144.531,-30.762,-28.320,-458.984,0.000
1606136976.389,56.152,-23.926,-23.438,235.840,0.000
1606136976.393,150.879,-37.109,-20.996,595.215,0.000
1606136976.397,20.996,-55.176,-16.113,148.438,0.000
1606136976.401,-155.762,-34.668,-23.926,-503.418,0.000
1606136976.405,-146.484,-27.344,-31.738,-526.367,0.000
1606136976.409,51.758,-22.949,-18.555,146.484,0.000
1606136976.412,158.203,-15.625,-15.137,594.238,0.000
1606136976.416,32.715,-12.207,-25.879,236.816,0.000
1606136976.420,-170.410,-24.414,-31.738,-455.078,0.000
1606136976.424,-190.430,-34.668,-28.809,-576.660,0.000
1606136976.428,6.348,-20.508,-21.973,70.801,0.000
1606136976.432,141.113,-13.672,-20.508,582.031,0.000
1606136976.436,48.828,-49.805,-26.367,309.082,0.000
1606136976.440,-148.926,-61.523,-31.250,-395.508,0.000
1606136976.444,-196.289,-32.227,-31.738,-618.652,0.000
1606136976.448,-23.438,-17.090,-28.809,-51.758,0.000
1606136976.452,134.766,-14.648,-21.484,535.645,0.000
1606136976.455,73.242,-12.207,-28.320,377.930,0.000
1606136976.459,-132.812,-20.020,-41.504,-333.984,0.000
1606136976.463,-205.566,-34.180,-34.180,-646.973,0.000
1606136976.467,-52.246,-21.484,-17.578,-158.691,0.000
1606136976.471,120.117,-11.230,-30.762,477.051,0.000
1606136976.475,93.750,-22.949,-33.691,446.777,0.000
1606136976.479,-108.887,-36.621,-26.855,-254.395,0.000
1606136976.483,-211.914,-43.945,-38.574,-673.340,0.000
1606136976.487,-77.637,-29.785,-31.738,-270.508,0.000
1606136976.491,120.605,-5.859,-16.602,417.480,0.000
1606136976.494,121.582,-4.883,-25.391,502.441,0.000
1606136976.498,-80.566,-22.949,-30.273,-152.832,0.000
1606136976.502,-201.660,-32.715,-23.926,-635.254,0.000
1606136976.506,-94.238,-25.879,-29.297,-334.961,0.000
1606136976.510,104.980,-12.695,-27.832,369.629,0.000
1606136976.514,139.160,-10.254,-19.531,556.152,0.000
1606136976.518,-44.922,-24.414,-28.320,-51.270,0.000
1606136976.522,-196.777,-36.133,-38.574,-597.656,0.000
1606136976.526,-126.465,-41.016,-30.273,-405.273,0.000
1606136976.530,82.031,-19.531,-14.160,298.828,0.000
1606136976.534,144.531,-25.391,-12.207,569.824,0.000
1606136976.537,-26.367,-56.641,-29.785,37.598,0.000
1606136976.541,-195.312,-45.410,-43.457,-576.172,0.000
1606136976.545,-145.508,-32.227,-27.832,-493.652,0.000
1606136976.549,58.594,-26.367,-22.949,213.867,0.000
1606136976.553,148.926,-17.090,-32.715,593.262,0.000
1606136976.557,11.230,-21.484,-27.344,161.133,0.000
1606136976.561,-168.945,-36.133,-31.738,-509.277,0.000
1606136976.565,-164.062,-33.691,-41.016,-552.246,0.000
1606136976.569,37.109,-9.766,-27.832,130.371,0.000
1606136976.573,150.391,-23.438,-18.555,578.613,0.000
1606136976.577,24.414,-52.246,-28.320,212.891,0.000
1606136976.580,-169.922,-43.457,-39.062,-477.539,0.000
1606136976.584,-186.523,-34.180,-41.016,-599.121,0.000
1606136976.588,3.906,-23.438,-32.715,33.203,0.000
1606136976.592,141.602,-19.531,-27.832,552.246,0.000
1606136976.596,55.664,-25.391,-33.691,309.570,0.000
1606136976.600,-145.996,-30.273,-43.457,-392.090,0.000
1606136976.604,-189.453,-31.738,-42.969,-620.117,0.000
1606136976.608,-12.695,-22.461,-45.410,-57.617,0.000
1606136976.612,143.555,-13.184,-39.551,537.598,0.000
1606136976.616,83.008,-22.949,-25.391,410.645,0.000
1606136976.619,-122.559,-39.551,-22.949,-308.594,0.000
1606136976.623,-205.078,-38.574,-30.273,-652.344,0.000
1606136976.627,-53.711,-23.926,-35.156,-173.828,0.000
1606136976.631,131.348,-17.090,-23.926,479.492,0.000
1606136976.635,98.633,-28.809,-26.367,460.938,0.000
1606136976.639,-106.934,-38.086,-39.062,-233.398,0.000
1606136976.643,-206.055,-36.621,-37.109,-653.320,0.000
1606136976.647,-73.730,-26.367,-29.785,-256.836,0.000
1606136976.651,119.141,-8.789,-30.762,422.852,0.000
1606136976.655,125.488,-5.859,-26.367,506.348,0.000
1606136976.659,-73.242,-18.555,-21.484,-143.555,0.000
1606136976.662,-209.473,-33.203,-29.785,-643.066,0.000
1606136976.666,-114.746,-35.645,-30.273,-358.398,0.000
1606136976.670,78.613,-31.738,-23.438,339.844,0.000
1606136976.674,113.770,-37.109,-27.344,527.344,0.000
1606136976.678,-67.383,-37.109,-32.715,-56.152,0.000
1606136976.682,-215.332,-38.574,-39.062,-617.676,0.000
1606136976.686,-146.484,-38.086,-46.387,-429.688,0.000
1606136976.690,57.617,-19.531,-29.785,290.039,0.000
1606136976.694,129.883,-17.578,-12.695,563.965,0.000
1606136976.698,-26.855,-32.227,-27.344,43.457,0.000
1606136976.702,-203.125,-41.016,-39.062,-575.195,0.000
1606136976.705,-164.062,-38.574,-26.367,-500.000,0.000
1606136976.709,48.340,-19.043,-11.230,226.562,0.000
1606136976.713,139.648,-24.414,-21.484,605.469,0.000
1606136976.717,-5.859,-57.129,-40.039,150.879,0.000
1606136976.721,-188.965,-55.176,-43.945,-515.137,0.000
1606136976.725,-179.199,-39.062,-37.598,-551.758,0.000
1606136976.729,23.438,-20.508,-23.438,118.652,0.000
1606136976.733,142.578,-11.230,-23.438,576.172,0.000
1606136976.737,27.344,-18.066,-31.250,231.445,0.000
1606136976.741,-164.551,-27.832,-27.832,-450.684,0.000
1606136976.744,-180.176,-33.203,-22.461,-581.055,0.000
1606136976.748,5.859,-23.926,-16.113,37.598,0.000
1606136976.752,140.137,-25.391,-23.926,561.523,0.000
1606136976.756,57.129,-36.621,-36.133,333.008,0.000
1606136976.760,-144.043,-31.250,-38.574,-373.047,0.000
1606136976.764,-201.172,-29.297,-29.785,-628.418,0.000
1606136976.768,-35.645,-33.203,-20.996,-84.961,0.000
1606136976.772,129.395,-24.902,-19.531,508.301,0.000
1606136976.776,83.008,-22.949,-19.043,402.344,0.000
1606136976.780,-122.559,-25.391,-29.297,-297.363,0.000
1606136976.784,-208.008,-32.715,-37.598,-646.973,0.000
1606136976.787,-56.641,-30.273,-18.555,-167.480,0.000
1606136976.791,122.559,-18.555,-10.254,482.910,0.000
1606136976.795,99.121,-18.066,-21.973,470.215,0.000
1606136976.799,-94.727,-29.297,-29.297,-208.008,0.000
1606136976.803,-193.848,-30.273,-24.414,-627.930,0.000
1606136976.807,-78.125,-27.344,-22.949,-255.859,0.000
1606136976.811,110.352,-22.461,-23.438,418.945,0.000
1606136976.815,121.582,-30.762,-25.391,513.672,0.000
1606136976.819,-72.754,-49.316,-39.062,-135.742,0.000
1606136976.823,-204.590,-42.969,-39.551,-636.230,0.000
1606136976.827,-111.816,-30.273,-33.203,-354.004,0.000
1606136976.830,86.426,-17.090,-29.297,351.562,0.000
1606136976.834,138.184,-11.719,-10.742,564.941,0.000
1606136976.838,-31.738,-21.973,-14.648,-20.020,0.000
1606136976.842,-187.500,-29.297,-42.969,-604.492,0.000
1606136976.846,-120.605,-26.367,-41.992,-428.223,0.000
1606136976.850,89.844,-17.090,-25.879,292.969,0.000
1606136976.854,158.203,-24.414,-24.414,582.031,0.000
1606136976.858,-1.465,-39.062,-31.738,70.801,0.000
1606136976.862,-174.805,-36.133,-43.457,-556.152,0.000
1606136976.866,-148.438,-24.414,-39.062,-500.977,0.000
1606136976.869,57.129,-15.137,-18.066,191.406,0.000
1606136976.873,153.320,-18.066,-10.742,574.219,0.000
1606136976.877,16.113,-22.949,-17.578,152.344,0.000
1606136976.881,-176.270,-35.645,-36.133,-511.719,0.000
1606136976.885,-176.758,-38.086,-41.016,-563.477,0.000
1606136976.889,23.438,-23.438,-19.043,106.445,0.000
1606136976.893,143.066,-12.207,-14.160,587.891,0.000
1606136976.897,27.832,-17.090,-20.508,268.555,0.000
1606136976.901,-172.363,-32.715,-21.973,-433.105,0.000
1606136976.905,-198.242,-36.133,-23.438,-603.516,0.000
1606136976.909,-11.230,-24.902,-10.742,9.766,0.000
1606136976.912,134.277,-19.531,-14.160,557.129,0.000
1606136976.916,57.617,-31.738,-31.738,339.355,0.000
1606136976.920,-146.973,-38.574,-31.738,-360.840,0.000
1606136976.924,-208.984,-37.598,-28.809,-625.977,0.000
1606136976.928,-32.715,-21.973,-11.719,-91.309,0.000
1606136976.932,136.719,-16.602,-3.418,520.020,0.000
1606136976.936,91.797,-23.926,-19.043,413.086,0.000
1606136976.940,-110.352,-32.227,-33.203,-291.016,0.000
1606136976.944,-203.125,-38.574,-32.227,-636.719,0.000
1606136976.948,-58.105,-30.762,-21.973,-178.711,0.000
1606136976.952,125.488,-20.996,-22.461,471.191,0.000
1606136976.955,108.887,-31.738,-28.809,466.797,0.000
1606136976.959,-93.750,-30.762,-45.410,-216.309,0.000
1606136976.963,-198.242,-27.832,-51.758,-644.531,0.000
1606136976.967,-74.219,-27.832,-34.180,-274.902,0.000
1606136976.971,116.211,-22.949,-23.438,408.203,0.000
1606136976.975,127.441,-22.949,-24.414,523.438,0.000
1606136976.979,-67.871,-33.203,-31.250,-106.445,0.000
1606136976.983,-203.125,-45.410,-40.527,-616.699,0.000
1606136976.987,-119.141,-41.016,-35.645,-359.375,0.000
1606136976.991,80.566,-21.973,-29.297,346.191,0.000
1606136976.994,128.418,-41.504,-32.227,560.059,0.000
1606136976.998,-56.152,-71.777,-40.039,-24.414,0.000
1606136977.002,-214.355,-53.223,-42.969,-608.398,0.000
1606136977.006,-140.625,-34.668,-48.340,-445.312,0.000
1606136977.010,64.453,-23.926,-46.875,270.508,0.000
1606136977.014,143.555,-18.555,-27.344,591.797,0.000
1606136977.018,-9.277,-25.391,-23.438,99.609,0.000
1606136977.022,-197.266,-45.410,-47.363,-553.223,0.000
1606136977.026,-166.504,-38.574,-48.828,-523.438,0.000
1606136977.030,52.734,-16.113,-28.809,190.918,0.000
1606136977.034,148.438,-16.113,-32.715,574.219,0.000
1606136977.037,7.812,-21.484,-34.180,160.645,0.000
1606136977.041,-181.641,-33.691,-33.691,-494.141,0.000
1606136977.045,-186.035,-45.410,-39.062,-580.078,0.000
1606136977.049,16.113,-25.879,-29.297,85.938,0.000
1606136977.053,145.996,-20.996,-25.879,585.449,0.000
1606136977.057,40.039,-36.621,-25.879,270.508,0.000
1606136977.061,-173.340,-50.293,-42.480,-451.660,0.000
1606136977.065,-205.078,-52.734,-50.781,-627.441,0.000
1606136977.069,-7.324,-31.250,-26.855,-4.395,0.000
1606136977.073,145.020,-11.230,-20.020,561.035,0.000
1606136977.077,62.988,-18.555,-23.926,351.074,0.000
1606136977.080,-137.695,-32.227,-18.066,-359.863,0.000
1606136977.084,-198.730,-33.691,-19.531,-624.023,0.000
1606136977.088,-40.039,-27.344,-30.762,-93.262,0.000
1606136977.092,129.883,-19.043,-27.344,514.160,0.000
1606136977.096,88.867,-44.434,-22.949,420.410,0.000
1606136977.100,-116.699,-50.781,-34.668,-286.133,0.000
1606136977.104,-207.520,-32.227,-38.574,-663.086,0.000
1606136977.108,-55.176,-20.996,-25.879,-207.520,0.000
1606136977.112,129.883,-14.648,-20.508,464.355,0.000
1606136977.116,112.793,-17.578,-22.461,477.051,0.000
1606136977.119,-90.332,-29.785,-21.484,-208.984,0.000
1606136977.123,-211.426,-49.805,-26.855,-658.691,0.000
1606136977.127,-86.426,-39.551,-30.273,-285.645,0.000
1606136977.131,112.793,-12.695,-21.484,410.156,0.000
1606136977.135,125.000,-18.066,-17.090,533.691,0.000
1606136977.139,-60.547,-29.785,-21.973,-104.004,0.000
1606136977.143,-197.754,-30.762,-36.621,-639.648,0.000
1606136977.147,-107.422,-31.250,-29.785,-385.742,0.000
1606136977.151,93.750,-18.066,-13.672,331.543,0.000
1606136977.155,134.766,-12.695,-12.207,563.477,0.000
1606136977.159,-37.109,-28.320,-15.137,-7.324,0.000
1606136977.162,-202.148,-44.922,-38.086,-602.051,0.000
1606136977.166,-152.832,-42.480,-40.527,-462.402,0.000
1606136977.170,64.453,-25.391,-20.996,249.023,0.000
1606136977.174,141.602,-17.090,-20.508,567.383,0.000
1606136977.178,-19.531,-19.043,-29.785,78.613,0.000
1606136977.182,-200.684,-34.668,-38.574,-569.336,0.000
1606136977.186,-180.664,-39.551,-37.598,-551.270,0.000
1606136977.190,28.320,-30.273,-21.484,150.879,0.000
1606136977.194,138.672,-20.020,-14.648,576.172,0.000
1606136977.198,12.695,-22.949,-13.184,178.223,0.000
1606136977.202,-176.758,-37.109,-27.344,-501.465,0.000
1606136977.205,-183.594,-31.250,-40.039,-589.844,0.000
1606136977.209,18.066,-17.578,-17.090,73.730,0.000
1606136977.213,146.484,-17.578,-14.160,573.730,0.000
1606136977.217,41.016,-23.926,-32.227,274.414,0.000
1606136977.221,-159.668,-33.203,-34.668,-435.059,0.000
1606136977.225,-195.312,-34.180,-28.809,-614.746,0.000
1606136977.229,-5.859,-23.926,-12.695,-4.883,0.000
1606136977.233,145.996,-27.832,-9.277,539.062,0.000
1606136977.237,65.918,-45.410,-24.902,338.379,0.000
1606136977.241,-137.207,-45.898,-28.809,-357.910,0.000
1606136977.244,-199.707,-38.086,-32.715,-631.348,0.000
1606136977.248,-38.574,-23.926,-22.949,-117.188,0.000
1606136977.252,132.324,-17.090,-8.301,508.789,0.000
1606136977.256,98.145,-22.461,-21.484,436.523,0.000
1606136977.260,-104.004,-38.574,-40.527,-277.832,0.000
1606136977.264,-195.312,-47.852,-37.109,-649.414,0.000
1606136977.268,-69.336,-40.527,-24.414,-208.008,0.000
1606136977.272,107.422,-24.414,-27.832,453.125,0.000
1606136977.276,104.980,-27.344,-32.715,478.027,0.000
1606136977.280,-91.309,-39.062,-38.574,-204.102,0.000
1606136977.284,-202.148,-35.156,-33.203,-650.879,0.000
1606136977.287,-85.938,-23.438,-19.531,-291.992,0.000
1606136977.291,112.305,-17.090,-12.695,401.855,0.000
1606136977.295,136.230,-16.113,-18.555,542.969,0.000
1606136977.299,-57.617,-21.973,-11.719,-74.707,0.000
1606136977.303,-204.102,-35.645,-20.996,-604.980,0.000
1606136977.307,-118.652,-37.598,-35.645,-366.699,0.000
1606136977.311,85.449,-25.879,-21.484,340.820,0.000
1606136977.315,133.301,-20.508,-25.391,571.777,0.000
1606136977.319,-39.062,-30.273,-32.715,19.043,0.000
1606136977.323,-202.637,-44.434,-31.250,-585.449,0.000
1606136977.327,-152.344,-46.387,-27.344,-467.773,0.000
1606136977.330,57.617,-37.598,-13.184,242.188,0.000
1606136977.334,144.531,-28.320,-10.742,582.520,0.000
1606136977.338,-3.906,-23.926,-25.391,109.375,0.000
1606136977.342,-183.594,-26.367,-37.598,-541.504,0.000
1606136977.346,-165.039,-29.785,-29.785,-525.879,0.000
1606136977.350,33.691,-22.949,-23.926,155.762,0.000
1606136977.354,145.020,-9.766,-15.625,577.637,0.000
1606136977.358,29.297,-15.137,-17.578,202.148,0.000
1606136977.362,-163.086,-30.273,-33.203,-470.703,0.000
1606136977.366,-172.363,-24.414,-27.344,-556.152,0.000
1606136977.369,25.879,-15.625,-20.020,87.402,0.000
1606136977.373,151.367,-18.555,-22.461,573.730,0.000
1606136977.377,54.199,-23.926,-20.020,285.156,0.000
1606136977.381,-141.113,-31.738,-27.344,-409.668,0.000
1606136977.385,-189.453,-38.574,-49.805,-608.398,0.000
1606136977.389,-12.695,-29.297,-32.227,-21.973,0.000
1606136977.393,150.391,-26.367,-16.113,545.410,0.000
1606136977.397,83.008,-21.484,-19.531,368.652,0.000
1606136977.401,-134.277,-24.414,-30.762,-351.562,0.000
1606136977.405,-203.613,-38.086,-45.410,-640.137,0.000
1606136977.409,-30.273,-22.949,-29.297,-98.145,0.000
1606136977.412,143.066,-8.789,-12.207,537.598,0.000
1606136977.416,103.516,-22.949,-19.531,451.172,0.000
1606136977.420,-106.934,-32.715,-33.203,-255.859,0.000
1606136977.424,-212.891,-41.016,-42.969,-641.602,0.000
1606136977.428,-74.219,-36.133,-33.203,-213.379,0.000
1606136977.432,118.652,-26.855,-20.020,454.102,0.000
1606136977.436,121.582,-24.902,-13.672,495.117,0.000
1606136977.440,-83.008,-27.344,-29.785,-188.477,0.000
1606136977.444,-217.285,-37.598,-53.223,-663.574,0.000
1606136977.448,-97.168,-31.250,-41.992,-317.383,0.000
1606136977.452,109.375,-23.926,-12.207,399.902,0.000
1606136977.455,127.441,-25.879,-8.301,561.035,0.000
1606136977.459,-66.895,-31.250,-41.016,-74.219,0.000
1606136977.463,-217.773,-42.480,-52.246,-629.395,0.000
1606136977.467,-133.301,-41.016,-40.039,-410.156,0.000
1606136977.471,78.125,-27.344,-23.438,309.082,0.000
1606136977.475,137.207,-34.668,-21.484,570.312,0.000
1606136977.479,-39.551,-54.199,-32.715,5.371,0.000
1606136977.483,-201.172,-42.480,-28.809,-596.680,0.000
1606136977.487,-138.184,-29.785,-16.113,-473.633,0.000
1606136977.491,68.359,-21.484,-11.230,241.699,0.000
1606136977.494,146.484,-20.508,-19.043,590.820,0.000
1606136977.498,-3.418,-23.926,-38.574,108.887,0.000
1606136977.502,-187.988,-29.785,-41.504,-547.363,0.000
1606136977.506,-169.922,-29.785,-25.879,-541.992,0.000
1606136977.510,36.621,-20.996,-19.531,144.531,0.000
1606136977.514,148.926,-36.133,-15.137,569.336,0.000
1606136977.518,18.555,-41.992,-22.949,177.246,0.000
1606136977.522,-174.316,-27.832,-39.062,-511.719,0.000
1606136977.526,-178.711,-30.762,-40.039,-599.121,0.000
1606136977.530,19.531,-21.973,-25.391,62.500,0.000
1606136977.534,160.156,-8.301,-14.648,580.566,0.000
1606136977.537,54.688,-17.578,-23.926,298.828,0.000
1606136977.541,-157.227,-35.645,-34.668,-423.340,0.000
1606136977.545,-191.895,-32.227,-33.203,-612.793,0.000
1606136977.549,-7.324,-11.230,-24.414,-7.324,0.000
1606136977.553,147.949,-17.090,-18.066,574.219,0.000
1606136977.557,77.148,-48.340,-21.484,396.484,0.000
1606136977.561,-143.555,-47.363,-32.227,-332.031,0.000
1606136977.565,-213.867,-39.062,-25.391,-634.766,0.000
1606136977.569,-45.898,-21.484,-12.695,-107.910,0.000
1606136977.573,120.117,-13.672,-21.484,518.066,0.000
1606136977.577,75.195,-22.461,-44.922,434.082,0.000
1606136977.580,-120.117,-27.344,-46.875,-275.391,0.000
1606136977.584,-205.078,-27.832,-34.668,-656.250,0.000
1606136977.588,-73.242,-27.344,-36.621,-232.910,0.000
1606136977.592,108.398,-19.043,-22.461,444.824,0.000
1606136977.596,112.305,-7.812,-8.789,522.949,0.000
1606136977.600,-88.379,-18.555,-28.809,-156.250,0.000
1606136977.604,-214.355,-35.156,-42.480,-655.273,0.000
1606136977.608,-98.145,-30.762,-34.180,-325.684,0.000
1606136977.612,98.633,-15.625,-11.230,385.254,0.000
1606136977.616,121.582,-18.555,-8.789,541.016,0.000
1606136977.619,-64.453,-25.391,-28.809,-80.078,0.000
1606136977.623,-206.055,-33.691,-39.062,-632.324,0.000
1606136977.627,-124.512,-35.156,-40.039,-414.062,0.000
1606136977.631,81.543,-24.414,-17.090,319.336,0.000
1606136977.635,139.160,-24.902,-4.395,581.543,0.000
1606136977.639,-31.250,-40.527,-20.020,15.625,0.000
1606136977.643,-195.801,-49.805,-35.156,-602.051,0.000
1606136977.647,-144.043,-32.227,-30.273,-490.723,0.000
1606136977.651,62.012,-17.090,-24.414,226.074,0.000
1606136977.655,140.137,-19.043,-20.996,577.148,0.000
1606136977.659,-15.137,-29.297,-25.391,94.238,0.000
1606136977.662,-197.266,-37.109,-34.180,-572.266,0.000
1606136977.666,-175.781,-31.738,-22.949,-573.242,0.000
1606136977.670,29.297,-20.020,-10.742,125.977,0.000
1606136977.674,136.230,-23.926,-17.090,572.266,0.000
1606136977.678,10.254,-34.668,-25.391,192.383,0.000
1606136977.682,-184.082,-37.598,-25.879,-514.160,0.000
1606136977.686,-199.219,-36.621,-27.832,-626.465,0.000
1606136977.690,-6.836,-22.461,-21.973,45.898,0.000
1606136977.694,129.395,-21.973,-12.207,581.055,0.000
1606136977.698,36.621,-44.434,-24.414,301.758,0.000
1606136977.702,-156.738,-41.504,-31.738,-418.945,0.000
1606136977.705,-195.312,-31.738,-24.414,-643.555,0.000
1606136977.709,-23.438,-21.484,-22.949,-51.270,0.000
1606136977.713,133.789,-14.648,-6.836,558.105,0.000
1606136977.717,67.871,-25.879,-9.766,388.672,0.000
1606136977.721,-149.902,-37.598,-32.715,-364.258,0.000
1606136977.725,-222.168,-39.551,-36.621,-694.824,0.000
1606136977.729,-63.965,-36.133,-34.668,-182.617,0.000
1606136977.733,117.188,-17.578,-27.344,483.887,0.000
1606136977.737,98.633,-15.137,-19.043,456.055,0.000
1606136977.741,-102.051,-35.156,-27.832,-258.789,0.000
1606136977.744,-202.637,-41.504,-34.668,-680.176,0.000
1606136977.748,-71.289,-32.227,-21.484,-269.043,0.000
1606136977.752,118.164,-21.973,-20.996,428.711,0.000
1606136977.756,125.488,-44.922,-17.090,517.090,0.000
1606136977.760,-81.543,-53.711,-22.949,-167.480,0.000
1606136977.764,-218.262,-42.969,-47.363,-688.477,0.000
1606136977.768,-111.328,-42.480,-39.551,-374.023,0.000
1606136977.772,94.727,-24.902,-28.320,381.836,0.000
1606136977.776,131.836,-18.066,-21.973,596.191,0.000
1606136977.780,-54.199,-29.785,-24.414,-27.832,0.000
1606136977.784,-206.055,-30.762,-25.391,-613.281,0.000
1606136977.787,-131.348,-23.926,-24.902,-405.273,0.000
1606136977.791,80.566,-18.555,-29.785,338.379,0.000
1606136977.795,148.438,-28.809,-30.762,643.555,0.000
1606136977.799,-17.090,-33.691,-39.062,90.332,0.000
1606136977.803,-190.430,-30.762,-36.621,-565.430,0.000
1606136977.807,-151.367,-36.133,-33.691,-476.562,0.000
1606136977.811,58.594,-28.809,-26.855,284.668,0.000
1606136977.815,156.738,-20.508,-16.602,693.359,0.000
1606136977.819,14.160,-30.273,-26.855,215.820,0.000
1606136977.823,-182.129,-40.039,-37.109,-499.512,0.000
1606136977.827,-174.805,-30.762,-24.902,-528.320,0.000
1606136977.830,33.203,-15.137,-20.996,201.172,0.000
1606136977.834,155.273,-19.043,-37.598,691.406,0.000
1606136977.838,33.691,-38.086,-37.598,317.383,0.000
1606136977.842,-177.734,-41.504,-42.480,-436.523,0.000
1606136977.846,-205.078,-41.504,-47.852,-598.145,0.000
1606136977.850,-9.766,-27.832,-34.180,77.148,0.000
1606136977.854,143.066,-12.207,-22.949,642.578,0.000
1606136977.858,52.734,-20.020,-20.508,371.094,0.000
1606136977.862,-159.180,-33.203,-30.273,-390.137,0.000
1606136977.866,-212.891,-37.598,-44.434,-667.480,0.000
1606136977.869,-30.762,-26.367,-32.715,-88.379,0.000
1606136977.873,138.184,-12.207,-16.113,539.062,0.000
1606136977.877,69.824,-16.602,-21.484,396.484,0.000
1606136977.881,-150.391,-25.879,-32.227,-359.863,0.000
1606136977.885,-242.188,-36.621,-29.785,-730.957,0.000
1606136977.889,-85.449,-34.180,-23.438,-226.562,0.000
1606136977.893,103.027,-18.555,-19.043,462.891,0.000
1606136977.897,73.242,-15.625,-21.973,444.824,0.000
1606136977.901,-145.508,-17.090,-31.738,-295.410,0.000
1606136977.905,-253.906,-19.043,-33.203,-746.582,0.000
1606136977.909,-125.000,-17.090,-33.203,-341.797,0.000
1606136977.912,66.895,-10.742,-16.113,398.926,0.000
1606136977.916,75.195,-11.230,6.348,492.188,0.000
1606136977.920,-123.535,-14.648,-15.137,-217.773,0.000
1606136977.924,-255.371,-20.996,-28.809,-722.168,0.000
1606136977.928,-158.203,-26.367,-11.230,-415.527,0.000
1606136977.932,52.734,-19.043,-6.836,343.262,0.000
1606136977.936,100.098,-23.438,-13.672,553.223,0.000
1606136977.940,-85.449,-35.156,-25.391,-85.938,0.000
1606136977.944,-241.699,-29.785,-24.902,-687.988,0.000
1606136977.948,-165.527,-26.855,-17.090,-496.094,0.000
1606136977.952,56.641,-23.438,-18.555,271.484,0.000
1606136977.955,138.184,-18.555,-15.137,587.891,0.000
1606136977.959,-20.996,-20.508,-15.137,37.598,0.000
1606136977.963,-193.359,-34.668,-33.203,-618.164,0.000
1606136977.967,-140.625,-39.551,-41.504,-547.363,0.000
1606136977.971,78.613,-22.949,-26.367,207.031,0.000
1606136977.975,178.223,-19.043,-14.648,632.812,0.000
1606136977.979,34.180,-33.691,-23.926,181.152,0.000
1606136977.983,-167.969,-42.969,-37.598,-533.691,0.000
1606136977.987,-169.434,-43.945,-36.621,-588.379,0.000
1606136977.991,43.945,-31.738,-23.926,137.695,0.000
1606136977.994,174.316,-20.996,-24.902,639.648,0.000
1606136977.998,51.758,-25.879,-34.668,286.621,0.000
1606136978.002,-157.715,-39.551,-44.922,-445.312,0.000
1606136978.006,-179.199,-37.109,-48.828,-598.633,0.000
1606136978.010,22.949,-25.391,-36.133,75.195,0.000
1606136978.014,171.875,-19.531,-24.414,649.414,0.000
1606136978.018,81.543,-18.066,-24.414,400.879,0.000
1606136978.022,-135.254,-29.297,-34.668,-362.793,0.000
1606136978.026,-194.336,-37.598,-32.715,-638.672,0.000
1606136978.030,-11.719,-29.785,-22.461,-52.734,0.000
1606136978.034,154.785,-25.391,-24.414,571.289,0.000
1606136978.037,101.562,-27.344,-31.250,439.941,0.000
1606136978.041,-101.562,-28.809,-42.969,-306.152,0.000
1606136978.045,-184.570,-34.180,-48.340,-682.617,0.000
1606136978.049,-32.715,-30.273,-39.062,-195.801,0.000
1606136978.053,160.645,-12.207,-24.902,488.281,0.000
1606136978.057,146.484,-3.418,-29.297,482.422,0.000
1606136978.061,-80.566,-27.344,-47.363,-233.398,0.000
1606136978.065,-199.219,-40.527,-40.527,-674.316,0.000
1606136978.069,-64.941,-33.691,-34.668,-273.926,0.000
1606136978.073,128.906,-37.598,-39.062,429.199,0.000
1606136978.077,138.184,-41.016,-34.668,528.320,0.000
1606136978.080,-62.012,-31.738,-35.156,-148.438,0.000
1606136978.084,-199.219,-41.504,-29.785,-671.875,0.000
1606136978.088,-103.027,-49.316,-27.832,-366.699,0.000
1606136978.092,93.262,-31.250,-26.367,347.656,0.000
1606136978.096,129.883,-25.391,-22.949,541.016,0.000
1606136978.100,-47.363,-35.156,-22.461,-43.945,0.000
1606136978.104,-205.078,-38.086,-31.738,-626.465,0.000
1606136978.108,-146.973,-37.109,-38.086,-463.867,0.000
1606136978.112,62.500,-25.879,-19.531,258.301,0.000
1606136978.116,136.719,-7.324,-16.113,560.059,0.000
1606136978.119,-41.992,-27.832,-32.715,17.578,0.000
1606136978.123,-220.215,-44.922,-37.598,-619.141,0.000
1606136978.127,-185.059,-43.945,-34.180,-545.410,0.000
1606136978.131,13.184,-40.039,-33.691,168.945,0.000
1606136978.135,105.469,-32.227,-26.855,540.039,0.000
1606136978.139,-34.668,-34.668,-22.949,86.914,0.000
1606136978.143,-214.355,-46.875,-30.762,-569.824,0.000
1606136978.147,-195.312,-43.457,-44.922,-612.305,0.000
1606136978.151,20.020,-24.902,-46.387,72.266,0.000
1606136978.155,145.508,-11.719,-37.598,551.270,0.000
1606136978.159,34.180,-18.555,-29.785,222.168,0.000
1606136978.162,-151.367,-32.227,-35.156,-453.613,0.000
1606136978.166,-166.016,-31.738,-39.551,-601.074,0.000
1606136978.170,28.809,-20.996,-31.250,18.555,0.000
1606136978.174,175.293,-9.766,-17.578,558.594,0.000
1606136978.178,90.332,-11.719,-15.625,338.379,0.000
1606136978.182,-117.676,-33.203,-28.809,-354.980,0.000
1606136978.186,-181.152,-47.363,-34.668,-606.934,0.000
1606136978.190,-5.371,-34.180,-27.832,-54.688,0.000
1606136978.194,165.039,-23.926,-15.625,563.477,0.000
1606136978.198,110.352,-28.809,-11.719,445.312,0.000
1606136978.202,-102.051,-43.945,-20.020,-277.344,0.000
1606136978.205,-188.965,-51.270,-31.250,-616.699,0.000
1606136978.209,-34.180,-36.621,-20.508,-123.535,0.000
1606136978.213,145.020,-25.391,-3.418,528.809,0.000
1606136978.217,113.770,-33.691,-7.324,504.883,0.000
1606136978.221,-106.445,-41.016,-17.578,-197.754,0.000
1606136978.225,-223.633,-41.504,-24.902,-628.418,0.000
1606136978.229,-93.262,-35.156,-27.832,-243.164,0.000
1606136978.233,104.980,-24.902,-26.367,442.383,0.000
1606136978.237,119.141,-15.137,-25.879,531.738,0.000
1606136978.241,-79.102,-25.879,-31.250,-123.047,0.000
1606136978.244,-214.355,-40.039,-30.762,-626.953,0.000
1606136978.248,-107.422,-33.203,-34.180,-353.027,0.000
1606136978.252,98.633,-25.391,-40.527,349.609,0.000
1606136978.256,141.602,-28.320,-33.203,560.059,0.000
1606136978.260,-47.852,-33.203,-30.273,-39.062,0.000
1606136978.264,-205.566,-39.062,-42.969,-612.305,0.000
1606136978.268,-133.301,-39.062,-45.410,-430.176,0.000
1606136978.272,79.590,-26.855,-30.762,273.926,0.000
1606136978.276,160.156,-13.184,-20.996,569.824,0.000
1606136978.280,-6.348,-13.672,-35.156,55.664,0.000
1606136978.284,-183.594,-29.785,-38.086,-558.594,0.000
1606136978.287,-138.672,-29.297,-29.297,-498.047,0.000
1606136978.291,71.777,-16.113,-23.438,195.801,0.000
1606136978.295,158.691,-21.973,-25.391,577.148,0.000
1606136978.299,13.184,-35.645,-31.250,156.250,0.000
1606136978.303,-166.992,-38.574,-37.109,-483.398,0.000
1606136978.307,-164.062,-35.645,-51.270,-545.410,0.000
1606136978.311,29.297,-22.461,-43.945,99.121,0.000
1606136978.315,137.695,-34.180,-31.738,562.012,0.000
1606136978.319,11.719,-53.223,-39.551,225.586,0.000
1606136978.323,-178.711,-41.992,-44.434,-443.359,0.000
1606136978.327,-199.219,-40.527,-41.016,-571.777,0.000
1606136978.330,-10.254,-34.180,-29.297,37.598,0.000
1606136978.334,140.137,-17.090,-12.695,572.266,0.000
1606136978.338,55.176,-20.508,-8.789,348.633,0.000
1606136978.342,-157.227,-40.039,-27.832,-341.309,0.000
1606136978.346,-212.402,-44.434,-37.598,-576.172,0.000
1606136978.350,-41.016,-32.227,-27.832,-31.738,0.000
1606136978.354,118.652,-25.879,-20.996,540.039,0.000
1606136978.358,62.988,-24.902,-32.227,405.273,0.000
1606136978.362,-135.742,-30.762,-32.715,-275.391,0.000
1606136978.366,-206.543,-28.809,-27.832,-587.891,0.000
1606136978.369,-58.594,-24.414,-22.949,-125.000,0.000
1606136978.373,117.188,-23.438,-16.113,492.676,0.000
1606136978.377,106.934,-17.578,-20.996,476.074,0.000
1606136978.381,-92.773,-25.879,-25.391,-183.105,0.000
1606136978.385,-205.078,-35.156,-29.785,-599.609,0.000
1606136978.389,-82.031,-31.250,-35.156,-236.816,0.000
1606136978.393,110.352,-25.391,-26.367,426.270,0.000
1606136978.397,118.652,-24.902,-25.879,518.555,0.000
1606136978.401,-77.148,-28.320,-33.691,-119.141,0.000
1606136978.405,-207.520,-38.574,-41.504,-620.605,0.000
1606136978.409,-114.746,-36.621,-43.457,-353.027,0.000
1606136978.412,88.379,-32.227,-34.668,332.031,0.000
1606136978.416,134.766,-40.527,-35.156,524.902,0.000
1606136978.420,-37.109,-37.598,-34.668,-32.227,0.000
1606136978.424,-191.895,-44.922,-41.016,-578.125,0.000
1606136978.428,-128.906,-44.434,-42.969,-407.227,0.000
1606136978.432,79.102,-28.809,-30.273,279.785,0.000
1606136978.436,150.391,-27.344,-16.602,565.430,0.000
1606136978.440,-7.812,-37.598,-20.508,81.055,0.000
1606136978.444,-184.570,-46.875,-23.926,-508.301,0.000
1606136978.448,-159.668,-50.781,-37.598,-459.473,0.000
1606136978.452,43.457,-37.598,-33.203,198.242,0.000
1606136978.455,137.207,-41.504,-20.996,555.664,0.000
1606136978.459,3.418,-43.457,-36.621,142.090,0.000
1606136978.463,-175.293,-38.086,-32.227,-480.469,0.000
1606136978.467,-169.922,-41.504,-25.879,-519.043,0.000
1606136978.471,28.809,-29.297,-23.438,114.746,0.000
1606136978.475,156.738,-18.555,-18.066,556.641,0.000
1606136978.479,54.199,-20.020,-20.508,251.953,0.000
1606136978.483,-143.555,-30.273,-33.691,-407.715,0.000
1606136978.487,-170.410,-32.715,-35.156,-564.941,0.000
1606136978.491,20.996,-10.254,-21.484,28.809,0.000
1606136978.494,165.527,-29.785,-24.414,537.109,0.000
1606136978.498,79.590,-57.129,-25.879,296.387,0.000
1606136978.502,-123.047,-31.738,-24.902,-373.047,0.000
1606136978.506,-174.805,-23.926,-35.156,-599.121,0.000
1606136978.510,-11.719,-21.973,-37.109,-73.242,0.000
1606136978.514,152.344,-20.020,-38.086,494.141,0.000
1606136978.518,110.840,-22.949,-31.738,375.977,0.000
1606136978.522,-91.797,-27.344,-34.180,-285.645,0.000
1606136978.526,-179.688,-30.762,-39.551,-607.910,0.000
1606136978.530,-38.086,-14.648,-21.973,-171.875,0.000
1606136978.534,139.648,-17.578,-13.672,446.777,0.000
1606136978.537,112.793,-34.180,-28.809,435.547,0.000
1606136978.541,-90.332,-37.598,-34.668,-228.516,0.000
1606136978.545,-192.871,-37.109,-36.621,-627.441,0.000
1606136978.549,-70.801,-24.902,-38.086,-263.184,0.000
1606136978.553,117.676,-13.672,-30.762,390.625,0.000
1606136978.557,118.164,-17.090,-28.320,491.211,0.000
1606136978.561,-79.102,-28.809,-31.250,-121.582,0.000
1606136978.565,-213.379,-32.715,-33.203,-601.562,0.000
1606136978.569,-119.141,-30.273,-18.066,-337.402,0.000
1606136978.573,76.172,-24.902,-15.625,340.332,0.000
1606136978.577,110.840,-29.297,-32.227,538.086,0.000
1606136978.580,-58.105,-31.738,-32.715,-17.090,0.000
1606136978.584,-210.938,-36.133,-34.668,-562.500,0.000
1606136978.588,-151.855,-38.574,-31.738,-411.621,0.000
1606136978.592,59.082,-31.250,-21.973,260.742,0.000
1606136978.596,136.719,-37.598,-33.691,550.293,0.000
1606136978.600,-11.719,-40.039,-39.551,71.289,0.000
1606136978.604,-173.828,-32.715,-25.391,-532.227,0.000
1606136978.608,-138.672,-28.320,-41.504,-499.023,0.000
1606136978.612,71.777,-20.508,-43.945,176.270,0.000
1606136978.616,174.805,-12.695,-21.484,567.383,0.000
1606136978.619,25.391,-18.066,-20.508,146.484,0.000
1606136978.623,-174.805,-32.227,-29.785,-507.812,0.000
1606136978.627,-177.734,-36.133,-38.574,-561.035,0.000
1606136978.631,17.578,-26.855,-28.809,87.402,0.000
1606136978.635,141.113,-34.180,-20.508,544.922,0.000
1606136978.639,33.203,-35.156,-16.602,236.816,0.000
1606136978.643,-158.203,-31.738,-16.602,-423.828,0.000
1606136978.647,-194.336,-36.621,-39.551,-590.820,0.000
1606136978.651,-14.648,-26.855,-34.668,0.977,0.000
1606136978.655,133.789,-23.438,-22.461,541.504,0.000
1606136978.659,48.340,-25.391,-24.414,330.566,0.000
1606136978.662,-154.785,-29.297,-29.297,-347.656,0.000
1606136978.666,-219.238,-35.645,-33.203,-599.121,0.000
1606136978.670,-57.617,-29.785,-23.438,-81.055,0.000
1606136978.674,112.793,-21.484,-14.160,511.719,0.000
1606136978.678,69.336,-23.926,-28.809,413.086,0.000
1606136978.682,-138.672,-33.691,-34.668,-273.926,0.000
1606136978.686,-228.027,-43.945,-30.762,-619.141,0.000
1606136978.690,-88.379,-32.715,-29.785,-185.059,0.000
1606136978.694,82.031,-26.367,-15.625,437.500,0.000
1606136978.698,68.359,-26.367,-11.719,445.312,0.000
1606136978.702,-133.301,-34.668,-36.133,-211.914,0.000
1606136978.705,-243.164,-42.480,-45.410,-636.719,0.000
1606136978.709,-113.281,-34.668,-38.574,-281.250,0.000
1606136978.713,79.102,-26.367,-30.762,396.484,0.000
1606136978.717,98.633,-25.391,-24.414,515.137,0.000
1606136978.721,-86.914,-37.598,-34.668,-104.004,0.000
1606136978.725,-216.797,-47.363,-39.062,-599.121,0.000
1606136978.729,-116.211,-37.109,-23.926,-340.332,0.000
1606136978.733,76.172,-28.809,-14.160,344.727,0.000
1606136978.737,124.023,-27.344,-11.719,547.363,0.000
1606136978.741,-28.809,-27.344,-6.348,2.930,0.000
1606136978.744,-176.758,-33.691,-18.555,-551.758,0.000
1606136978.748,-132.324,-36.621,-29.785,-416.504,0.000
1606136978.752,62.988,-28.320,-24.414,260.742,0.000
1606136978.756,144.043,-15.625,-23.438,566.406,0.000
1606136978.760,-7.812,-21.973,-22.949,88.867,0.000
1606136978.764,-180.176,-41.016,-24.414,-525.879,0.000
1606136978.768,-145.996,-35.156,-25.879,-481.934,0.000
1606136978.772,55.176,-19.531,-23.438,204.102,0.000
1606136978.776,145.508,-31.738,-28.320,586.914,0.000
1606136978.780,8.789,-38.574,-26.855,180.176,0.000
1606136978.784,-180.176,-28.809,-19.043,-477.051,0.000
1606136978.787,-182.617,-24.902,-12.207,-546.387,0.000
1606136978.791,15.625,-24.902,-17.090,97.168,0.000
1606136978.795,137.207,-20.996,-29.297,568.359,0.000
1606136978.799,40.039,-16.113,-31.250,269.043,0.000
1606136978.803,-146.973,-20.996,-30.273,-411.133,0.000
1606136978.807,-187.012,-29.785,-29.297,-581.543,0.000
1606136978.811,-6.348,-28.320,-24.414,-3.418,0.000
1606136978.815,144.531,-20.020,-23.438,538.574,0.000
1606136978.819,77.148,-26.855,-26.855,341.797,0.000
1606136978.823,-125.000,-40.039,-29.297,-361.328,0.000
1606136978.827,-185.547,-38.086,-26.855,-633.301,0.000
1606136978.830,-17.578,-32.227,-14.160,-107.422,0.000
1606136978.834,154.297,-34.180,-2.441,499.023,0.000
1606136978.838,103.516,-35.156,-18.066,400.879,0.000
1606136978.842,-109.375,-40.527,-30.762,-294.922,0.000
1606136978.846,-200.684,-44.922,-42.969,-660.156,0.000
1606136978.850,-59.082,-28.320,-49.805,-219.727,0.000
1606136978.854,129.883,-11.230,-32.715,443.359,0.000
1606136978.858,125.000,-8.301,-27.832,468.262,0.000
1606136978.862,-72.266,-22.949,-30.762,-199.707,0.000
1606136978.866,-194.336,-34.668,-28.320,-647.461,0.000
1606136978.869,-80.078,-21.973,-25.391,-298.340,0.000
1606136978.873,112.793,-37.109,-23.926,390.137,0.000
1606136978.877,122.559,-65.918,-25.391,511.719,0.000
1606136978.881,-69.824,-40.527,-24.902,-108.887,0.000
1606136978.885,-205.078,-29.297,-16.602,-641.113,0.000
1606136978.889,-116.211,-31.250,-20.020,-406.250,0.000
1606136978.893,81.543,-21.484,-25.879,305.176,0.000
1606136978.897,133.301,-16.602,-24.902,554.199,0.000
1606136978.901,-39.551,-25.391,-30.762,0.977,0.000
1606136978.905,-206.543,-36.133,-36.133,-602.051,0.000
1606136978.909,-145.020,-28.809,-30.762,-468.750,0.000
1606136978.912,75.195,-27.832,-19.043,262.207,0.000
1606136978.916,155.273,-36.621,-13.184,604.492,0.000
1606136978.920,8.301,-31.250,-20.020,117.676,0.000
1606136978.924,-170.410,-38.086,-34.180,-541.504,0.000
1606136978.928,-160.645,-34.668,-26.367,-530.762,0.000
1606136978.932,52.246,-28.809,-12.207,180.176,0.000
1606136978.936,169.922,-31.250,-14.648,623.535,0.000
1606136978.940,46.875,-23.926,-28.809,230.469,0.000
1606136978.944,-139.648,-19.531,-35.156,-470.215,0.000
1606136978.948,-156.738,-18.066,-41.016,-574.219,0.000
1606136978.952,30.273,-10.254,-42.969,87.402,0.000
1606136978.955,171.875,-5.859,-34.668,582.031,0.000
1606136978.959,80.566,-11.230,-39.062,298.340,0.000
1606136978.963,-139.160,-22.949,-52.734,-404.297,0.000
1606136978.967,-194.824,-27.344,-48.828,-629.883,0.000
1606136978.971,0.977,-15.625,-24.902,-6.348,0.000
1606136978.975,158.691,-10.742,-25.879,596.680,0.000
1606136978.979,83.984,-14.648,-40.039,397.461,0.000
1606136978.983,-130.371,-24.902,-38.574,-350.586,0.000
1606136978.987,-209.473,-36.621,-49.316,-666.016,0.000
1606136978.991,-35.156,-31.250,-53.223,-116.211,0.000
1606136978.994,145.996,-24.902,-32.227,557.129,0.000
1606136978.998,104.492,-25.391,-29.785,486.328,0.000
1606136979.002,-115.234,-30.273,-41.504,-251.465,0.000
1606136979.006,-223.633,-32.227,-46.875,-659.180,0.000
1606136979.010,-72.754,-21.973,-34.180,-202.148,0.000
1606136979.014,133.301,-15.625,-24.414,513.672,0.000
1606136979.018,119.629,-27.832,-28.320,539.062,0.000
1606136979.022,-103.027,-37.109,-33.691,-176.758,0.000
1606136979.026,-234.375,-34.180,-37.109,-667.969,0.000
1606136979.030,-116.699,-29.785,-35.645,-336.426,0.000
1606136979.034,104.980,-25.879,-35.156,401.855,0.000
1606136979.037,138.184,-21.484,-36.133,580.078,0.000
1606136979.041,-67.383,-31.738,-43.457,-81.055,0.000
1606136979.045,-224.121,-42.480,-44.434,-663.574,0.000
1606136979.049,-135.254,-36.133,-37.598,-418.945,0.000
1606136979.053,100.098,-25.391,-25.391,361.816,0.000
1606136979.057,162.109,-24.902,-27.344,635.742,0.000
1606136979.061,-31.250,-26.855,-45.410,22.461,0.000
1606136979.065,-196.777,-34.180,-39.551,-624.512,0.000
1606136979.069,-135.742,-31.250,-33.203,-487.793,0.000
1606136979.073,83.008,-19.043,-33.691,269.531,0.000
1606136979.077,174.805,-18.066,-28.320,626.953,0.000
1606136979.080,7.324,-29.297,-36.133,112.305,0.000
1606136979.084,-184.082,-35.645,-44.434,-584.961,0.000
1606136979.088,-164.062,-31.738,-41.504,-579.102,0.000
1606136979.092,55.176,-21.973,-24.414,171.387,0.000
1606136979.096,182.617,-16.113,-13.184,651.855,0.000
1606136979.100,41.992,-25.391,-33.691,230.957,0.000
1606136979.104,-168.945,-37.109,-40.039,-527.344,0.000
1606136979.108,-184.570,-39.551,-34.180,-645.020,0.000
1606136979.112,17.578,-31.250,-29.297,57.617,0.000
1606136979.116,165.527,-24.414,-13.184,618.164,0.000
1606136979.119,62.988,-29.297,-18.066,318.359,0.000
1606136979.123,-156.738,-41.504,-31.250,-445.312,0.000
1606136979.127,-196.289,-46.875,-26.367,-666.992,0.000
1606136979.131,-0.977,-40.039,-20.508,-36.621,0.000
1606136979.135,162.109,-22.461,-16.113,583.496,0.000
1606136979.139,85.938,-21.484,-15.625,393.555,0.000
1606136979.143,-144.043,-32.715,-16.113,-377.441,0.000
1606136979.147,-220.703,-28.809,-27.344,-696.289,0.000
1606136979.151,-44.434,-22.461,-30.762,-148.438,0.000
1606136979.155,138.184,-29.297,-25.391,521.973,0.000
1606136979.159,94.238,-36.621,-38.086,461.426,0.000
1606136979.162,-140.137,-42.969,-54.688,-311.035,0.000
1606136979.166,-243.164,-53.223,-53.711,-747.070,0.000
1606136979.170,-92.285,-41.992,-39.062,-281.738,0.000
1606136979.174,110.352,-21.484,-13.184,441.406,0.000
1606136979.178,121.094,-17.090,-7.812,508.789,0.000
1606136979.182,-90.820,-20.996,-35.156,-210.449,0.000
1606136979.186,-222.656,-28.320,-43.457,-727.539,0.000
1606136979.190,-101.562,-29.297,-41.504,-367.676,0.000
1606136979.194,102.539,-26.367,-38.574,373.047,0.000
1606136979.198,126.465,-21.973,-35.156,522.949,0.000
1606136979.202,-66.406,-25.879,-31.250,-120.117,0.000
1606136979.205,-209.473,-44.434,-44.434,-684.082,0.000
1606136979.209,-111.816,-37.598,-43.945,-446.777,0.000
1606136979.213,98.145,-14.648,-18.066,294.922,0.000
1606136979.217,138.672,-15.137,-12.695,541.992,0.000
1606136979.221,-36.133,-30.762,-31.250,-39.062,0.000
1606136979.225,-197.266,-30.273,-39.551,-651.855,0.000
1606136979.229,-143.066,-25.391,-32.715,-512.695,0.000
1606136979.233,60.059,-23.926,-27.344,221.191,0.000
1606136979.237,136.230,-21.484,-17.090,565.430,0.000
1606136979.241,-13.672,-23.926,-18.066,91.797,0.000
1606136979.244,-198.242,-39.062,-23.438,-580.078,0.000
1606136979.248,-181.152,-46.875,-20.508,-586.426,0.000
1606136979.252,29.297,-30.273,-17.578,137.207,0.000
1606136979.256,143.555,-23.926,-18.066,602.051,0.000
1606136979.260,17.578,-34.180,-25.391,214.355,0.000
1606136979.264,-179.199,-41.992,-24.414,-504.395,0.000
1606136979.268,-195.801,-38.574,-18.555,-626.465,0.000
1606136979.272,0.977,-29.785,-13.184,79.102,0.000
1606136979.276,143.066,-26.855,-4.883,663.574,0.000
1606136979.280,49.316,-27.344,-6.836,382.324,0.000
1606136979.284,-158.203,-32.715,-30.762,-383.789,0.000
1606136979.287,-203.613,-30.762,-32.227,-608.887,0.000
1606136979.291,-10.742,-26.367,-15.625,37.598,0.000
1606136979.295,153.320,-35.645,-13.184,674.805,0.000
1606136979.299,81.055,-40.039,-17.578,484.863,0.000
1606136979.303,-136.230,-42.480,-23.926,-319.824,0.000
1606136979.307,-220.215,-42.969,-30.273,-680.176,0.000
1606136979.311,-47.363,-26.367,-12.207,-120.117,0.000
1606136979.315,140.137,-13.672,-2.441,577.637,0.000
1606136979.319,97.168,-14.160,-16.113,496.582,0.000
1606136979.323,-125.977,-23.926,-27.344,-301.270,0.000
1606136979.327,-237.793,-30.273,-38.574,-764.160,0.000
1606136979.330,-88.867,-19.043,-27.832,-290.527,0.000
1606136979.334,122.070,-18.555,-16.602,482.422,0.000
1606136979.338,115.234,-34.668,-22.949,542.480,0.000
1606136979.342,-104.492,-38.574,-32.715,-222.168,0.000
1606136979.346,-241.699,-40.527,-38.086,-774.414,0.000
1606136979.350,-123.535,-27.832,-28.320,-406.738,0.000
1606136979.354,101.562,-10.254,-18.555,402.344,0.000
1606136979.358,134.277,-18.555,-20.996,588.867,0.000
1606136979.362,-74.707,-37.598,-33.203,-111.328,0.000
1606136979.366,-232.910,-39.062,-40.039,-733.887,0.000
1606136979.369,-142.578,-30.762,-20.508,-478.516,0.000
1606136979.373,81.543,-20.020,-6.836,335.449,0.000
1606136979.377,145.508,-21.484,-13.184,627.441,0.000
1606136979.381,-41.992,-38.574,-30.273,8.301,0.000
1606136979.385,-229.004,-46.387,-41.016,-692.383,0.000
1606136979.389,-170.410,-26.367,-39.062,-572.266,0.000
1606136979.393,62.012,-24.902,-25.879,242.188,0.000
1606136979.397,156.738,-33.691,-16.602,654.297,0.000
1606136979.401,-7.812,-29.785,-25.879,126.465,0.000
1606136979.405,-206.055,-34.668,-31.738,-624.512,0.000
1606136979.409,-180.176,-33.691,-31.738,-633.301,0.000
1606136979.412,46.875,-25.391,-27.832,149.414,0.000
1606136979.416,176.758,-20.508,-29.297,651.855,0.000
1606136979.420,54.688,-24.414,-30.273,239.746,0.000
1606136979.424,-152.832,-36.133,-27.832,-532.715,0.000
1606136979.428,-162.598,-32.227,-30.273,-658.203,0.000
1606136979.432,47.852,-17.578,-28.809,62.012,0.000
1606136979.436,180.664,-47.852,-33.203,626.465,0.000
1606136979.440,78.125,-47.852,-38.574,328.613,0.000
1606136979.444,-128.418,-18.555,-33.203,-439.453,0.000
1606136979.448,-180.664,-29.785,-29.297,-680.664,0.000
1606136979.452,-2.441,-33.203,-18.555,-37.109,0.000
1606136979.455,163.086,-18.555,-10.254,597.168,0.000
1606136979.459,92.773,-13.184,-27.344,399.902,0.000
1606136979.463,-129.395,-26.367,-50.293,-367.676,0.000
1606136979.467,-192.383,-26.367,-54.688,-679.688,0.000
1606136979.471,-21.484,-4.883,-40.527,-125.977,0.000
1606136979.475,139.160,-17.090,-23.926,525.879,0.000
1606136979.479,85.938,-25.391,-30.762,437.988,0.000
1606136979.483,-121.094,-21.484,-32.227,-293.945,0.000
1606136979.487,-208.496,-30.273,-25.391,-680.176,0.000
1606136979.491,-63.965,-16.113,-36.621,-224.609,0.000
1606136979.494,124.512,-6.348,-32.227,461.426,0.000
1606136979.498,118.164,-16.113,-28.320,496.582,0.000
1606136979.502,-77.148,-24.902,-51.270,-195.312,0.000
1606136979.506,-196.777,-27.344,-58.594,-669.922,0.000
1606136979.510,-88.379,-31.738,-42.480,-313.477,0.000
1606136979.514,108.887,-24.902,-27.344,411.621,0.000
1606136979.518,136.719,-14.648,-22.461,560.547,0.000
1606136979.522,-43.945,-20.508,-20.508,-67.383,0.000
1606136979.526,-184.570,-31.738,-30.273,-617.676,0.000
1606136979.530,-104.980,-26.367,-37.598,-396.973,0.000
1606136979.534,94.727,-28.320,-32.227,342.285,0.000
1606136979.537,149.902,-38.574,-22.461,619.629,0.000
1606136979.541,-20.996,-34.180,-32.227,56.152,0.000
1606136979.545,-191.895,-30.762,-39.551,-578.125,0.000
1606136979.549,-138.672,-22.461,-24.902,-462.402,0.000
1606136979.553,86.426,-9.277,-17.090,308.594,0.000
1606136979.557,180.176,-8.789,-21.484,688.965,0.000
1606136979.561,22.949,-21.973,-29.785,181.641,0.000
1606136979.565,-176.270,-37.109,-39.062,-540.039,0.000
1606136979.569,-164.551,-29.297,-41.504,-554.199,0.000
1606136979.573,50.781,-9.766,-27.344,202.148,0.000
1606136979.577,180.176,-8.789,-20.020,686.035,0.000
1606136979.580,53.711,-21.973,-25.391,273.926,0.000
1606136979.584,-166.504,-30.762,-40.039,-503.906,0.000
1606136979.588,-185.547,-29.785,-41.504,-646.973,0.000
1606136979.592,23.926,-17.090,-26.855,67.871,0.000
1606136979.596,170.898,-11.230,-20.020,645.996,0.000
1606136979.600,67.871,-22.461,-24.414,349.609,0.000
1606136979.604,-161.133,-33.203,-37.109,-443.359,0.000
1606136979.608,-222.656,-38.574,-38.574,-703.125,0.000
1606136979.612,-23.926,-26.855,-33.203,-49.316,0.000
1606136979.616,160.645,-28.809,-26.367,624.023,0.000
1606136979.619,86.914,-44.434,-22.461,440.430,0.000
1606136979.623,-145.020,-47.363,-33.203,-363.281,0.000
1606136979.627,-219.727,-36.621,-27.344,-702.148,0.000
1606136979.631,-41.504,-26.367,-23.926,-141.602,0.000
1606136979.635,146.973,-21.484,-22.949,568.848,0.000
1606136979.639,114.746,-19.043,-19.043,522.949,0.000
1606136979.643,-110.352,-38.086,-41.504,-281.250,0.000
1606136979.647,-224.121,-48.340,-49.316,-742.676,0.000
1606136979.651,-73.242,-36.621,-35.645,-277.832,0.000
1606136979.655,139.648,-21.484,-28.809,475.098,0.000
1606136979.659,140.625,-13.672,-24.414,562.012,0.000
1606136979.662,-79.102,-28.809,-28.809,-167.969,0.000
1606136979.666,-228.516,-42.969,-36.621,-724.121,0.000
1606136979.670,-111.328,-44.434,-39.551,-373.047,0.000
1606136979.674,119.141,-39.551,-35.645,429.199,0.000
1606136979.678,156.250,-26.367,-27.832,620.605,0.000
1606136979.682,-59.082,-34.180,-34.668,-76.660,0.000
1606136979.686,-224.609,-44.922,-47.852,-700.684,0.000
1606136979.690,-136.719,-34.668,-44.434,-460.449,0.000
1606136979.694,85.938,-25.879,-20.508,334.473,0.000
1606136979.698,159.668,-20.996,-6.836,635.742,0.000
1606136979.702,-27.344,-25.879,-27.832,31.250,0.000
1606136979.705,-222.168,-35.156,-49.805,-658.691,0.000
1606136979.709,-162.109,-29.297,-35.645,-529.297,0.000
1606136979.713,72.754,-21.973,-27.832,264.648,0.000
1606136979.717,168.457,-21.973,-27.344,649.414,0.000
1606136979.721,11.230,-30.273,-24.902,136.230,0.000
1606136979.725,-192.871,-41.016,-41.016,-606.934,0.000
1606136979.729,-176.270,-32.227,-38.086,-629.395,0.000
1606136979.733,54.688,-15.625,-19.531,150.391,0.000
1606136979.737,183.105,-14.160,-21.484,657.227,0.000
1606136979.741,46.875,-22.949,-23.438,245.605,0.000
1606136979.744,-169.434,-28.809,-32.715,-527.344,0.000
1606136979.748,-186.035,-31.738,-37.598,-666.504,0.000
1606136979.752,28.320,-31.250,-27.832,56.641,0.000
1606136979.756,180.176,-22.461,-18.066,648.926,0.000
1606136979.760,70.312,-24.414,-22.461,343.262,0.000
1606136979.764,-155.273,-31.738,-37.109,-457.031,0.000
1606136979.768,-200.684,-28.320,-28.809,-691.895,0.000
1606136979.772,-6.348,-23.926,-13.672,-28.809,0.000
1606136979.776,168.945,-22.461,-26.855,627.930,0.000
1606136979.780,99.609,-22.461,-31.738,451.660,0.000
1606136979.784,-142.090,-28.320,-39.062,-366.699,0.000
1606136979.787,-229.980,-31.738,-45.410,-734.863,0.000
1606136979.791,-45.898,-28.809,-27.832,-156.738,0.000
1606136979.795,156.250,-25.879,-4.395,564.941,0.000
1606136979.799,125.000,-20.020,-2.441,514.648,0.000
1606136979.803,-116.211,-27.344,-29.297,-286.133,0.000
1606136979.807,-237.305,-35.645,-35.156,-759.277,0.000
1606136979.811,-77.148,-27.344,-18.066,-287.598,0.000
1606136979.815,128.906,-20.508,-20.020,484.375,0.000
1606136979.819,125.977,-20.508,-23.926,572.266,0.000
1606136979.823,-99.121,-30.273,-26.855,-184.082,0.000
1606136979.827,-243.652,-37.109,-35.645,-753.418,0.000
1606136979.830,-121.094,-31.738,-28.809,-390.137,0.000
1606136979.834,102.051,-22.949,-15.137,427.734,0.000
1606136979.838,147.949,-18.555,-3.418,628.418,0.000
1606136979.842,-65.430,-33.203,-20.020,-80.566,0.000
1606136979.846,-239.746,-40.039,-36.621,-713.379,0.000
1606136979.850,-153.320,-29.785,-40.527,-473.633,0.000
1606136979.854,73.730,-34.180,-28.809,338.867,0.000
1606136979.858,143.066,-35.645,-12.695,655.273,0.000
1606136979.862,-46.875,-30.762,-15.137,36.133,0.000
1606136979.866,-239.258,-36.133,-31.250,-662.109,0.000
1606136979.869,-190.430,-37.109,-32.227,-551.270,0.000
1606136979.873,41.992,-24.902,-10.742,258.301,0.000
1606136979.877,146.484,-18.555,-12.207,676.758,0.000
1606136979.881,-8.789,-29.297,-20.020,153.809,0.000
1606136979.885,-213.379,-38.574,-32.227,-611.328,0.000
1606136979.889,-197.754,-38.086,-41.016,-647.461,0.000
1606136979.893,38.086,-23.926,-28.809,145.020,0.000
1606136979.897,176.270,-9.766,-20.996,680.176,0.000
1606136979.901,35.645,-24.902,-28.320,255.371,0.000
1606136979.905,-191.895,-45.410,-48.828,-554.688,0.000
1606136979.909,-208.008,-35.156,-50.781,-695.312,0.000
1606136979.912,21.973,-23.438,-25.391,58.105,0.000
1606136979.916,182.129,-25.879,-16.113,664.551,0.000
1606136979.920,70.312,-23.926,-27.344,354.980,0.000
1606136979.924,-169.922,-31.738,-38.086,-463.867,0.000
1606136979.928,-224.121,-38.086,-36.621,-726.562,0.000
1606136979.932,-25.879,-29.297,-31.738,-62.012,0.000
1606136979.936,147.949,-20.996,-13.672,618.164,0.000
1606136979.940,83.008,-20.020,-0.977,455.566,0.000
1606136979.944,-151.367,-26.855,-23.438,-365.234,0.000
1606136979.948,-237.793,-35.645,-33.691,-749.023,0.000
1606136979.952,-52.734,-26.855,-16.113,-165.527,0.000
1606136979.955,148.926,-16.113,-5.859,580.078,0.000
1606136979.959,114.746,-15.137,-15.625,535.156,0.000
1606136979.963,-120.605,-36.133,-29.297,-270.996,0.000
1606136979.967,-244.141,-56.641,-41.504,-745.117,0.000
1606136979.971,-86.426,-37.598,-34.180,-263.184,0.000
1606136979.975,139.648,-22.461,-16.113,525.879,0.000
1606136979.979,137.695,-25.879,-14.160,608.887,0.000
1606136979.983,-94.238,-38.086,-33.691,-151.855,0.000
1606136979.987,-243.652,-44.434,-38.086,-727.539,0.000
1606136979.991,-117.676,-35.156,-21.973,-368.164,0.000
1606136979.994,114.258,-13.184,-6.348,449.219,0.000
1606136979.998,146.484,3.906,-3.418,641.113,0.000
1606136980.002,-63.965,-23.926,-24.414,-73.242,0.000
1606136980.006,-237.793,-44.922,-42.480,-720.215,0.000
1606136980.010,-148.438,-37.109,-36.133,-479.004,0.000
1606136980.014,105.469,-20.020,-12.695,362.793,0.000
1606136980.018,176.270,-19.043,-6.348,678.711,0.000
1606136980.022,-26.367,-32.715,-31.738,35.156,0.000
1606136980.026,-221.191,-42.480,-45.898,-676.758,0.000
1606136980.030,-163.574,-34.668,-41.504,-560.547,0.000
1606136980.034,82.520,-11.719,-21.973,265.625,0.000
1606136980.037,184.570,-3.906,-18.555,680.664,0.000
1606136980.041,13.672,-25.391,-33.691,143.066,0.000
1606136980.045,-204.102,-42.969,-47.852,-615.723,0.000
1606136980.049,-194.336,-47.852,-43.945,-642.090,0.000
1606136980.053,40.039,-36.621,-22.949,148.926,0.000
1606136980.057,169.434,-29.297,-23.926,672.852,0.000
1606136980.061,23.438,-38.574,-35.645,248.535,0.000
1606136980.065,-200.684,-48.828,-36.133,-543.945,0.000
1606136980.069,-215.820,-47.363,-39.062,-675.781,0.000
1606136980.073,2.930,-30.273,-32.715,61.523,0.000
1606136980.077,162.598,-15.625,-14.648,670.410,0.000
1606136980.080,64.941,-22.461,-32.715,373.535,0.000
1606136980.084,-167.969,-36.133,-40.527,-447.266,0.000
1606136980.088,-226.074,-34.180,-35.156,-720.703,0.000
1606136980.092,-23.438,-33.691,-49.316,-63.965,0.000
1606136980.096,162.598,-31.250,-42.480,622.070,0.000
1606136980.100,104.004,-22.949,-29.297,469.238,0.000
1606136980.104,-127.441,-34.668,-35.156,-344.727,0.000
1606136980.108,-212.891,-44.922,-34.668,-719.727,0.000
1606136980.112,-32.227,-27.344,-22.949,-135.742,0.000
1606136980.116,172.852,-9.277,-9.766,604.492,0.000
1606136980.119,142.090,-13.672,-12.207,556.152,0.000
1606136980.123,-92.285,-27.344,-27.344,-239.746,0.000
1606136980.127,-212.402,-35.645,-32.715,-718.262,0.000
1606136980.131,-58.105,-24.902,-26.367,-250.977,0.000
1606136980.135,159.668,-7.812,-23.438,521.973,0.000
1606136980.139,157.715,-15.137,-32.227,586.914,0.000
1606136980.143,-73.730,-36.621,-35.156,-167.969,0.000
1606136980.147,-213.379,-36.621,-36.621,-720.215,0.000
1606136980.151,-87.402,-29.785,-49.316,-361.328,0.000
1606136980.155,147.461,-16.602,-38.086,448.730,0.000
1606136980.159,190.918,-6.348,-10.742,653.320,0.000
1606136980.162,-21.973,-16.113,-19.531,-44.434,0.000
1606136980.166,-198.242,-26.855,-38.574,-691.406,0.000
1606136980.170,-109.375,-28.320,-35.645,-458.496,0.000
1606136980.174,132.812,-13.672,-22.461,377.441,0.000
1606136980.178,205.566,-5.371,-20.508,693.359,0.000
1606136980.182,12.695,-18.555,-35.645,65.430,0.000
1606136980.186,-184.570,-22.949,-45.410,-645.508,0.000
1606136980.190,-138.184,-22.949,-36.621,-537.109,0.000
1606136980.194,98.145,-10.254,-24.902,284.668,0.000
1606136980.198,202.148,-2.930,-18.555,704.102,0.000
1606136980.202,28.320,-18.555,-24.902,173.340,0.000
1606136980.205,-187.012,-32.227,-43.457,-585.938,0.000
1606136980.209,-166.016,-31.250,-41.016,-595.215,0.000
1606136980.213,70.801,-13.184,-21.484,199.219,0.000
1606136980.217,198.730,-9.277,-25.879,710.938,0.000
1606136980.221,62.988,-18.555,-37.109,292.480,0.000
1606136980.225,-157.715,-31.250,-37.598,-499.512,0.000
1606136980.229,-181.641,-40.039,-40.039,-657.227,0.000
1606136980.233,36.621,-29.297,-33.691,74.219,0.000
1606136980.237,197.754,-13.184,-16.602,679.199,0.000
1606136980.241,100.098,-12.695,-17.578,384.277,0.000
1606136980.244,-144.531,-32.715,-36.133,-435.547,0.000
1606136980.248,-209.961,-32.227,-41.016,-699.219,0.000
1606136980.252,-4.883,-15.625,-33.691,-32.715,0.000
1606136980.256,172.852,-13.184,-30.762,634.766,0.000
1606136980.260,96.680,-24.902,-46.387,444.336,0.000
1606136980.264,-145.020,-34.180,-50.293,-388.672,0.000
1606136980.268,-223.145,-34.668,-36.621,-723.633,0.000
1606136980.272,-38.086,-25.391,-31.738,-140.625,0.000
1606136980.276,152.832,-16.113,-29.297,557.129,0.000
1606136980.280,122.559,-21.484,-21.484,508.789,0.000
1606136980.284,-113.281,-35.645,-24.414,-299.805,0.000
1606136980.287,-238.770,-45.410,-48.340,-774.902,0.000
1606136980.291,-80.566,-32.715,-46.387,-296.875,0.000
1606136980.295,146.973,-14.648,-30.762,488.770,0.000
1606136980.299,144.531,-16.113,-24.414,569.824,0.000
1606136980.303,-83.008,-36.133,-34.668,-181.641,0.000
1606136980.307,-216.309,-45.898,-53.223,-735.840,0.000
1606136980.311,-93.262,-32.715,-44.922,-378.906,0.000
1606136980.315,127.930,-18.066,-28.320,427.734,0.000
1606136980.319,161.133,-19.043,-31.250,628.418,0.000
1606136980.323,-56.152,-25.879,-40.039,-76.660,0.000
1606136980.327,-229.980,-36.621,-39.062,-719.238,0.000
1606136980.330,-143.066,-35.156,-22.949,-482.422,0.000
1606136980.334,95.215,-18.555,-17.578,345.703,0.000
1606136980.338,168.457,-22.949,-30.273,659.668,0.000
1606136980.342,-20.996,-36.133,-37.109,42.969,0.000
1606136980.346,-213.379,-38.086,-28.809,-660.156,0.000
1606136980.350,-157.715,-31.738,-27.832,-551.758,0.000
1606136980.354,79.590,-21.484,-36.133,266.602,0.000
1606136980.358,180.176,-16.602,-27.832,681.152,0.000
1606136980.362,14.648,-25.391,-25.879,163.086,0.000
1606136980.366,-201.172,-37.109,-31.250,-584.473,0.000
1606136980.369,-190.918,-36.621,-28.809,-613.281,0.000
1606136980.373,42.480,-35.645,-23.438,158.203,0.000
1606136980.377,176.758,-41.992,-16.602,673.828,0.000
1606136980.381,46.875,-25.879,-14.648,270.020,0.000
1606136980.385,-172.852,-23.926,-33.203,-519.043,0.000
1606136980.389,-200.195,-36.133,-39.062,-675.781,0.000
1606136980.393,20.508,-24.414,-25.879,53.223,0.000
1606136980.397,183.105,-2.441,-26.367,661.621,0.000
1606136980.401,75.684,-8.301,-26.367,366.211,0.000
1606136980.405,-161.133,-31.250,-26.855,-443.359,0.000
1606136980.409,-216.309,-36.133,-25.391,-698.242,0.000
1606136980.412,-9.277,-32.715,-15.137,-38.574,0.000
1606136980.416,170.410,-38.574,-12.207,626.465,0.000
1606136980.420,98.633,-30.762,-16.602,453.125,0.000
1606136980.424,-131.836,-26.367,-15.137,-360.352,0.000
1606136980.428,-222.656,-39.551,-21.973,-727.051,0.000
1606136980.432,-47.363,-39.062,-24.414,-157.715,0.000
1606136980.436,156.738,-20.020,-8.789,569.824,0.000
1606136980.440,116.211,-17.090,-6.836,529.785,0.000
1606136980.444,-119.141,-30.762,-14.160,-266.602,0.000
1606136980.448,-237.305,-40.527,-22.461,-741.699,0.000
1606136980.452,-95.215,-34.668,-39.551,-284.180,0.000
1606136980.455,122.070,-23.438,-33.203,496.094,0.000
1606136980.459,132.812,-17.578,-15.137,589.355,0.000
1606136980.463,-98.145,-32.715,-22.949,-182.129,0.000
1606136980.467,-240.234,-40.039,-28.320,-740.723,0.000
1606136980.471,-115.234,-22.949,-18.555,-382.324,0.000
1606136980.475,105.957,-24.414,-20.020,415.527,0.000
1606136980.479,150.391,-32.227,-22.949,626.953,0.000
1606136980.483,-46.875,-26.855,-24.414,-58.105,0.000
1606136980.487,-213.867,-35.645,-33.203,-696.289,0.000
1606136980.491,-118.652,-25.391,-54.688,-458.008,0.000
1606136980.494,111.816,-20.020,-36.133,355.957,0.000
1606136980.498,172.363,-21.973,-8.789,654.297,0.000
1606136980.502,-28.320,-24.902,-23.438,38.086,0.000
1606136980.506,-228.516,-37.109,-26.367,-663.574,0.000
1606136980.510,-179.199,-33.203,-18.555,-566.406,0.000
1606136980.514,49.316,-41.992,-5.371,230.957,0.000
1606136980.518,143.066,-51.270,7.324,651.367,0.000
1606136980.522,-11.719,-36.133,4.395,157.227,0.000
1606136980.526,-216.797,-36.133,-2.930,-580.078,0.000
1606136980.530,-212.891,-43.457,2.930,-604.980,0.000
1606136980.534,16.602,-40.527,6.836,159.180,0.000
1606136980.537,152.832,-33.691,10.254,668.945,0.000
1606136980.541,17.578,-38.574,6.348,270.996,0.000
1606136980.545,-201.660,-44.434,-13.184,-506.348,0.000
1606136980.549,-218.262,-41.504,-13.184,-647.949,0.000
1606136980.553,-1.465,-42.480,-0.488,79.590,0.000
1606136980.557,154.297,-70.801,-0.488,668.945,0.000
1606136980.561,49.805,-68.848,-2.930,361.816,0.000
1606136980.565,-188.477,-55.176,-7.324,-436.035,0.000
1606136980.569,-245.117,-56.152,-4.883,-674.316,0.000
1606136980.573,-44.434,-43.945,9.766,-36.621,0.000
1606136980.577,131.348,-38.574,18.066,597.656,0.000
1606136980.580,63.965,-41.992,7.324,430.176,0.000
1606136980.584,-158.203,-56.152,-9.277,-349.609,0.000
1606136980.588,-235.840,-52.246,-22.461,-706.543,0.000
1606136980.592,-62.988,-35.156,-15.137,-162.598,0.000
1606136980.596,131.836,-23.926,-3.418,540.527,0.000
1606136980.600,93.750,-27.832,-4.395,488.770,0.000
1606136980.604,-132.324,-43.945,-12.695,-279.785,0.000
1606136980.608,-245.605,-49.805,-18.066,-719.238,0.000
1606136980.612,-105.469,-46.875,0.977,-275.879,0.000
1606136980.616,99.609,-40.527,10.742,455.566,0.000
1606136980.619,101.562,-31.738,5.859,522.461,0.000
1606136980.623,-107.422,-40.039,-5.371,-189.453,0.000
1606136980.627,-238.770,-49.805,-22.461,-689.941,0.000
1606136980.631,-126.953,-41.504,-15.137,-344.238,0.000
1606136980.635,73.242,-42.969,-7.324,385.254,0.000
1606136980.639,103.516,-44.434,-13.184,554.688,0.000
1606136980.643,-87.891,-44.434,-20.020,-80.078,0.000
1606136980.647,-246.094,-53.711,-14.648,-649.414,0.000
1606136980.651,-160.645,-45.410,-2.441,-423.340,0.000
1606136980.655,51.758,-48.828,-13.672,312.988,0.000
1606136980.659,106.445,-58.105,-20.508,579.102,0.000
1606136980.662,-63.965,-41.992,-18.555,12.207,0.000
1606136980.666,-234.375,-41.992,-25.391,-626.465,0.000
1606136980.670,-187.988,-44.922,-17.090,-514.648,0.000
1606136980.674,31.738,-34.668,-5.371,240.723,0.000
1606136980.678,131.348,-27.344,-9.277,623.047,0.000
1606136980.682,-19.043,-38.086,-13.672,136.230,0.000
1606136980.686,-203.613,-45.410,-19.531,-563.965,0.000
1606136980.690,-184.570,-37.109,-25.391,-569.824,0.000
1606136980.694,39.062,-37.598,-9.277,178.711,0.000
1606136980.698,166.504,-34.668,0.488,653.809,0.000
1606136980.702,30.762,-28.320,-11.230,253.418,0.000
1606136980.705,-178.711,-44.922,-28.320,-490.723,0.000
1606136980.709,-198.242,-39.062,-33.203,-626.465,0.000
1606136980.713,5.859,-25.879,-27.344,62.012,0.000
1606136980.717,150.879,-20.020,-21.973,621.094,0.000
1606136980.721,46.387,-19.531,-15.137,335.449,0.000
1606136980.725,-168.945,-35.645,-21.973,-424.805,0.000
1606136980.729,-209.961,-38.574,-27.832,-669.434,0.000
1606136980.733,-9.766,-30.762,-11.719,-40.039,0.000
1606136980.737,163.574,-25.391,-12.207,607.910,0.000
1606136980.741,89.844,-25.391,-33.203,440.918,0.000
1606136980.744,-140.625,-44.434,-40.039,-339.355,0.000
1606136980.748,-230.469,-53.711,-45.898,-710.938,0.000
1606136980.752,-61.523,-42.969,-40.039,-173.828,0.000
1606136980.756,137.207,-31.738,-25.391,536.621,0.000
1606136980.760,108.398,-29.785,-5.371,492.676,0.000
1606136980.764,-120.605,-37.109,-5.371,-268.066,0.000
1606136980.768,-239.746,-45.898,-21.484,-731.934,0.000
1606136980.772,-100.586,-42.480,-23.438,-293.945,0.000
1606136980.776,111.328,-28.320,-21.484,471.680,0.000
1606136980.780,118.652,-24.902,-20.020,555.176,0.000
1606136980.784,-104.980,-38.086,-24.902,-186.523,0.000
1606136980.787,-249.023,-41.992,-32.715,-725.586,0.000
1606136980.791,-125.977,-35.645,-29.785,-379.883,0.000
1606136980.795,93.262,-41.016,-23.438,397.949,0.000
1606136980.799,126.953,-32.227,-19.531,597.656,0.000
1606136980.803,-69.824,-28.320,-16.113,-75.684,0.000
1606136980.807,-239.746,-41.016,-28.320,-704.590,0.000
1606136980.811,-157.715,-42.480,-32.715,-482.910,0.000
1606136980.815,77.637,-33.691,-14.648,329.102,0.000
1606136980.819,145.996,-20.020,-19.043,644.043,0.000
1606136980.823,-45.898,-24.414,-32.715,20.020,0.000
1606136980.827,-238.281,-40.527,-36.133,-689.453,0.000
1606136980.830,-182.617,-27.832,-30.273,-574.707,0.000
1606136980.834,61.035,-30.273,-9.766,252.441,0.000
1606136980.838,160.645,-52.246,-8.301,668.457,0.000
1606136980.842,-11.230,-35.156,-28.320,132.324,0.000
1606136980.846,-227.539,-37.598,-40.527,-624.023,0.000
1606136980.850,-206.543,-41.992,-43.457,-643.066,0.000
1606136980.854,28.320,-26.367,-31.250,145.996,0.000
1606136980.858,155.273,-20.020,-12.695,679.688,0.000
1606136980.862,28.320,-24.902,-13.672,267.578,0.000
1606136980.866,-188.965,-34.668,-34.180,-535.156,0.000
1606136980.869,-210.449,-34.180,-39.551,-685.547,0.000
1606136980.873,18.066,-21.484,-26.855,54.199,0.000
1606136980.877,183.105,-16.602,-23.438,673.828,0.000
1606136980.881,76.660,-24.902,-24.414,374.512,0.000
1606136980.885,-164.062,-32.715,-30.273,-456.543,0.000
1606136980.889,-221.191,-30.273,-30.273,-718.262,0.000
1606136980.893,-17.578,-38.086,-20.508,-52.734,0.000
1606136980.897,168.457,-41.016,-10.742,629.395,0.000
1606136980.901,96.191,-27.344,-15.137,455.566,0.000
1606136980.905,-150.879,-41.016,-36.133,-376.953,0.000
1606136980.909,-234.375,-50.293,-38.086,-755.859,0.000
1606136980.912,-42.969,-31.738,-16.602,-166.016,0.000
1606136980.916,163.086,-20.020,-6.348,580.078,0.000
1606136980.920,121.094,-23.926,-16.113,524.414,0.000
1606136980.924,-122.070,-38.086,-33.691,-281.738,0.000
1606136980.928,-241.699,-41.016,-40.039,-744.141,0.000
1606136980.932,-91.309,-30.273,-29.785,-273.926,0.000
1606136980.936,126.953,-46.875,-21.484,500.488,0.000
1606136980.940,132.812,-45.898,-20.020,585.938,0.000
1606136980.944,-96.191,-30.762,-20.020,-179.688,0.000
1606136980.948,-242.676,-40.039,-21.484,-745.117,0.000
1606136980.952,-119.629,-33.203,-21.484,-381.836,0.000
1606136980.955,112.305,-19.043,-6.836,437.988,0.000
1606136980.959,155.273,-14.648,-0.488,638.184,0.000
1606136980.963,-61.035,-30.273,-15.625,-75.684,0.000
1606136980.967,-231.934,-37.598,-24.414,-720.215,0.000
1606136980.971,-142.578,-29.297,-23.438,-475.098,0.000
1606136980.975,90.820,-35.645,-16.602,349.609,0.000
1606136980.979,167.480,-26.855,-10.742,666.016,0.000
1606136980.983,-24.414,-25.391,-20.020,43.945,0.000
1606136980.987,-219.727,-44.922,-33.203,-664.551,0.000
1606136980.991,-159.180,-32.715,-36.133,-543.945,0.000
1606136980.994,68.848,-8.789,-25.879,250.977,0.000
1606136980.998,146.484,-4.395,-22.461,641.113,0.000
1606136981.002,-24.414,-15.625,-34.668,119.629,0.000
1606136981.006,-231.934,-30.762,-46.387,-625.000,0.000
1606136981.010,-214.844,-31.250,-43.457,-651.367,0.000
1606136981.014,20.508,-18.555,-30.762,132.812,0.000
1606136981.018,147.461,-7.812,-29.785,656.738,0.000
1606136981.022,15.625,-10.254,-32.715,250.000,0.000
1606136981.026,-200.195,-29.785,-42.480,-537.109,0.000
1606136981.030,-218.750,-34.668,-39.062,-687.012,0.000
1606136981.034,8.301,-33.691,-21.973,48.828,0.000
1606136981.037,177.246,-42.969,-16.602,660.156,0.000
1606136981.041,76.660,-30.762,-21.973,351.562,0.000
1606136981.045,-162.598,-29.785,-39.062,-474.121,0.000
1606136981.049,-219.238,-29.785,-48.828,-720.215,0.000
1606136981.053,-9.277,-17.578,-40.527,-52.734,0.000
1606136981.057,180.664,-8.789,-29.297,621.582,0.000
1606136981.061,101.074,-18.066,-30.762,438.965,0.000
1606136981.065,-137.207,-35.645,-39.062,-383.301,0.000
1606136981.069,-208.984,-27.344,-24.902,-733.887,0.000
1606136981.073,-28.320,-13.672,-16.113,-155.762,0.000
1606136981.077,169.922,-20.508,-30.273,562.500,0.000
1606136981.080,128.906,-21.973,-27.344,503.418,0.000
1606136981.084,-106.934,-26.855,-27.832,-279.785,0.000
1606136981.088,-216.309,-33.203,-47.852,-729.004,0.000
1606136981.092,-62.012,-30.273,-41.504,-264.648,0.000
1606136981.096,146.484,-32.227,-20.508,505.859,0.000
1606136981.100,142.578,-29.297,-20.996,582.031,0.000
1606136981.104,-81.055,-30.762,-25.879,-174.316,0.000
1606136981.108,-221.680,-36.621,-30.273,-722.168,0.000
1606136981.112,-93.750,-16.602,-20.020,-341.797,0.000
1606136981.116,124.512,-18.555,-13.672,459.961,0.000
1606136981.119,147.949,-34.668,-28.320,608.887,0.000
1606136981.123,-58.105,-31.250,-29.785,-97.656,0.000
1606136981.127,-215.820,-32.227,-24.414,-707.520,0.000
1606136981.131,-132.324,-23.438,-31.250,-463.867,0.000
1606136981.135,94.727,-5.859,-25.391,333.496,0.000
1606136981.139,164.551,-5.859,-21.484,621.094,0.000
1606136981.143,-18.066,-19.531,-30.762,4.883,0.000
1606136981.147,-201.172,-35.156,-39.551,-678.223,0.000
1606136981.151,-157.715,-38.574,-39.062,-556.152,0.000
1606136981.155,74.219,-18.066,-25.391,257.324,0.000
1606136981.159,177.246,-1.465,-16.602,674.805,0.000
1606136981.162,5.859,-9.766,-24.414,150.391,0.000
1606136981.166,-210.449,-23.438,-41.016,-613.281,0.000
1606136981.170,-188.965,-20.996,-39.551,-625.000,0.000
1606136981.174,52.734,-17.578,-20.020,172.852,0.000
1606136981.178,187.012,-16.113,-9.766,689.453,0.000
1606136981.182,39.062,-17.090,-27.344,260.742,0.000
1606136981.186,-195.312,-29.785,-41.992,-541.992,0.000
1606136981.190,-220.215,-28.809,-32.227,-679.688,0.000
1606136981.194,-1.465,-15.137,-27.832,65.918,0.000
1606136981.198,161.621,-4.883,-28.320,669.922,0.000
1606136981.202,53.711,-10.254,-21.484,346.680,0.000
1606136981.205,-186.035,-26.855,-30.273,-478.027,0.000
1606136981.209,-235.840,-34.180,-41.504,-716.797,0.000
1606136981.213,-26.855,-31.250,-37.598,-45.898,0.000
1606136981.217,149.902,-31.250,-37.598,624.512,0.000
1606136981.221,77.148,-26.855,-32.227,436.035,0.000
1606136981.225,-157.227,-21.484,-30.762,-387.695,0.000
1606136981.229,-243.164,-22.949,-42.480,-748.047,0.000
1606136981.233,-55.176,-20.996,-31.738,-154.297,0.000
1606136981.237,147.461,-17.090,-13.672,588.867,0.000
1606136981.241,102.051,-19.043,-16.602,521.484,0.000
1606136981.244,-138.184,-30.273,-31.738,-299.316,0.000
1606136981.248,-251.953,-40.039,-37.598,-768.066,0.000
1606136981.252,-90.820,-34.180,-36.133,-267.578,0.000
1606136981.256,129.395,-20.996,-28.809,522.949,0.000
1606136981.260,125.977,-19.043,-23.438,585.449,0.000
1606136981.264,-103.027,-39.062,-33.691,-191.406,0.000
1606136981.268,-232.910,-52.246,-34.668,-751.953,0.000
1606136981.272,-101.074,-27.832,-24.902,-368.652,0.000
1606136981.276,122.070,-1.953,-20.996,445.312,0.000
1606136981.280,150.879,-2.930,-17.090,628.906,0.000
1606136981.284,-63.965,-17.090,-23.926,-88.379,0.000
1606136981.287,-239.258,-25.879,-43.945,-729.980,0.000
1606136981.291,-152.344,-29.785,-42.969,-481.445,0.000
1606136981.295,85.938,-24.414,-35.156,352.051,0.000
1606136981.299,156.250,-13.184,-31.738,667.969,0.000
1606136981.303,-31.250,-20.996,-33.203,34.180,0.000
1606136981.307,-229.004,-38.574,-46.875,-686.523,0.000
1606136981.311,-168.945,-33.691,-44.922,-563.477,0.000
1606136981.315,81.055,-31.250,-23.438,273.438,0.000
1606136981.319,175.293,-34.668,-25.391,685.059,0.000
1606136981.323,2.930,-25.391,-34.180,134.766,0.000
1606136981.327,-205.566,-28.320,-37.109,-633.301,0.000
1606136981.330,-182.129,-27.344,-41.016,-631.836,0.000
1606136981.334,57.129,-13.184,-33.691,182.129,0.000
1606136981.338,180.176,-9.277,-16.602,706.055,0.000
1606136981.342,33.203,-19.043,-16.602,266.602,0.000
1606136981.346,-189.941,-27.832,-35.645,-538.086,0.000
1606136981.350,-208.984,-29.785,-35.645,-669.434,0.000
1606136981.354,19.043,-21.973,-27.344,68.848,0.000
1606136981.358,184.082,-23.926,-32.227,669.922,0.000
1606136981.362,75.195,-27.832,-32.715,355.957,0.000
1606136981.366,-168.457,-26.855,-34.668,-468.750,0.000
1606136981.369,-224.121,-31.738,-36.621,-719.727,0.000
1606136981.373,-11.719,-31.250,-26.855,-44.922,0.000
1606136981.377,178.223,-15.625,-13.184,634.766,0.000
1606136981.381,105.957,-6.836,-21.484,448.730,0.000
1606136981.385,-134.766,-23.926,-35.645,-378.418,0.000
1606136981.389,-220.703,-33.203,-35.156,-740.234,0.000
1606136981.393,-37.109,-28.320,-22.461,-154.297,0.000
1606136981.397,171.875,-18.555,-10.742,599.121,0.000
1606136981.401,124.023,-20.508,-23.438,538.086,0.000
1606136981.405,-125.000,-37.109,-40.039,-289.062,0.000
1606136981.409,-237.793,-36.133,-41.016,-761.719,0.000
1606136981.412,-74.707,-19.531,-34.180,-281.250,0.000
1606136981.416,144.043,-5.859,-29.297,512.207,0.000
1606136981.420,144.043,-13.184,-22.461,591.309,0.000
1606136981.424,-83.496,-29.785,-26.367,-181.152,0.000
1606136981.428,-225.098,-35.156,-35.645,-732.910,0.000
1606136981.432,-91.797,-32.227,-23.438,-347.168,0.000
1606136981.436,141.602,-20.020,-18.066,463.867,0.000
1606136981.440,166.504,-10.742,-28.809,638.184,0.000
1606136981.444,-56.641,-21.484,-37.109,-81.543,0.000
1606136981.448,-226.562,-33.691,-43.457,-723.633,0.000
1606136981.452,-141.602,-29.297,-38.574,-475.586,0.000
1606136981.455,94.238,-18.555,-14.648,357.910,0.000
1606136981.459,168.945,-8.301,-9.277,674.805,0.000
1606136981.463,-29.785,-22.949,-26.855,50.781,0.000
1606136981.467,-222.656,-41.016,-33.203,-660.156,0.000
1606136981.471,-159.668,-31.250,-28.809,-541.992,0.000
1606136981.475,81.055,-13.184,-16.113,291.992,0.000
1606136981.479,174.805,-11.230,-15.137,703.613,0.000
1606136981.483,10.742,-24.414,-27.344,156.250,0.000
1606136981.487,-197.754,-43.457,-43.457,-611.816,0.000
1606136981.491,-182.617,-44.922,-42.969,-621.582,0.000
1606136981.494,52.246,-23.926,-33.203,177.246,0.000
1606136981.498,181.152,-19.531,-23.926,688.477,0.000
1606136981.502,41.016,-33.691,-23.438,262.207,0.000
1606136981.506,-183.594,-45.898,-37.598,-538.086,0.000
1606136981.510,-205.078,-46.875,-44.922,-668.945,0.000
1606136981.514,20.996,-33.203,-31.738,88.379,0.000
1606136981.518,187.012,-19.043,-17.090,698.242,0.000
1606136981.522,78.125,-18.555,-20.996,382.812,0.000
1606136981.526,-157.715,-27.832,-34.180,-453.613,0.000
1606136981.530,-208.008,-27.832,-37.598,-711.426,0.000
1606136981.534,0.977,-24.414,-31.250,-20.020,0.000
1606136981.537,186.523,-20.996,-22.461,674.316,0.000
1606136981.541,103.516,-24.414,-25.879,471.680,0.000
1606136981.545,-144.531,-41.504,-37.109,-380.859,0.000
1606136981.549,-231.445,-45.410,-33.691,-754.883,0.000
1606136981.553,-42.480,-31.250,-25.391,-145.508,0.000
1606136981.557,166.992,-17.090,-18.555,622.070,0.000
1606136981.561,127.441,-18.555,-19.043,557.617,0.000
1606136981.565,-126.465,-31.738,-25.391,-289.551,0.000
1606136981.569,-248.535,-32.715,-32.715,-773.438,0.000
1606136981.573,-76.660,-26.855,-26.855,-268.555,0.000
1606136981.577,148.438,-19.043,-17.090,541.992,0.000
1606136981.580,148.926,-10.254,-18.066,625.000,0.000
1606136981.584,-85.449,-24.902,-31.250,-173.828,0.000
1606136981.588,-234.863,-39.551,-40.039,-763.672,0.000
1606136981.592,-106.934,-33.203,-28.809,-382.324,0.000
1606136981.596,122.559,-27.344,-19.531,459.473,0.000
1606136981.600,162.109,-28.809,-25.391,660.156,0.000
1606136981.604,-51.270,-34.180,-30.762,-86.914,0.000
1606136981.608,-227.051,-33.691,-36.133,-768.066,0.000
1606136981.612,-138.184,-32.715,-42.969,-502.441,0.000
1606136981.616,101.074,-26.367,-31.738,378.906,0.000
1606136981.619,175.293,-17.578,-10.742,709.473,0.000
1606136981.623,-28.320,-25.879,-13.672,32.227,0.000
1606136981.627,-236.816,-42.969,-34.668,-726.562,0.000
1606136981.631,-189.941,-41.016,-41.504,-597.168,0.000
1606136981.635,51.758,-33.691,-22.461,266.113,0.000
1606136981.639,155.762,-31.738,-8.301,686.523,0.000
1606136981.643,-31.738,-33.691,-18.066,102.539,0.000
1606136981.647,-264.648,-39.551,-19.531,-713.379,0.000
1606136981.651,-261.230,-34.668,-12.695,-739.746,0.000
1606136981.655,-17.578,-23.438,4.395,119.629,0.000
1606136981.659,108.398,-20.996,14.648,663.086,0.000
1606136981.662,-66.895,-22.949,10.742,170.410,0.000
1606136981.666,-316.406,-33.691,6.836,-709.473,0.000
1606136981.670,-350.098,-35.156,4.395,-876.465,0.000
1606136981.674,-126.953,-24.902,17.578,-73.242,0.000
1606136981.678,37.598,-13.672,28.320,588.379,0.000
1606136981.682,-82.520,-8.789,19.531,221.191,0.000
1606136981.686,-340.332,-16.602,0.488,-678.711,0.000
1606136981.690,-384.277,-16.602,-5.859,-949.707,0.000
1606136981.694,-164.551,-0.977,-2.930,-246.094,0.000
1606136981.698,15.625,15.625,3.418,493.164,0.000
1606136981.702,-75.195,15.137,-0.977,271.973,0.000
1606136981.705,-329.590,10.742,-20.996,-609.863,0.000
1606136981.709,-410.156,13.672,-25.391,-982.910,0.000
1606136981.713,-208.008,17.578,-19.043,-357.910,0.000
1606136981.717,19.531,21.973,-18.555,463.379,0.000
1606136981.721,-13.672,16.113,-30.762,416.504,0.000
1606136981.725,-272.461,-10.254,-49.805,-449.219,0.000
1606136981.729,-390.625,-13.184,-53.223,-957.520,0.000
1606136981.733,-203.125,7.812,-41.992,-411.133,0.000
1606136981.737,40.039,12.695,-33.691,465.332,0.000
1606136981.741,50.781,6.348,-32.715,549.805,0.000
1606136981.744,-175.781,-2.930,-36.621,-276.855,0.000
1606136981.748,-312.988,-18.555,-45.410,-875.488,0.000
1606136981.752,-161.621,-15.137,-39.062,-457.520,0.000
1606136981.756,96.191,-2.930,-29.785,452.637,0.000
1606136981.760,140.137,-12.695,-27.832,673.828,0.000
1606136981.764,-84.473,-32.227,-31.738,-100.098,0.000
1606136981.768,-244.141,-39.062,-38.086,-775.879,0.000
1606136981.772,-122.559,-35.645,-30.273,-470.215,0.000
1606136981.776,127.441,-28.809,-27.344,438.965,0.000
1606136981.780,202.637,-22.461,-21.484,756.348,0.000
1606136981.784,8.789,-36.133,-23.438,63.965,0.000
1606136981.787,-188.965,-47.363,-36.133,-693.359,0.000
1606136981.791,-120.117,-48.828,-33.691,-542.480,0.000
1606136981.795,140.625,-41.504,-20.508,364.746,0.000
1606136981.799,246.094,-31.250,-22.461,809.082,0.000
1606136981.803,77.148,-37.598,-37.109,221.680,0.000
1606136981.807,-141.602,-55.176,-47.852,-604.980,0.000
1606136981.811,-126.465,-58.594,-46.387,-604.980,0.000
1606136981.815,122.559,-51.758,-34.180,276.855,0.000
1606136981.819,259.766,-41.016,-25.879,823.242,0.000
1606136981.823,106.445,-41.504,-31.738,339.355,0.000
1606136981.827,-133.301,-59.082,-43.457,-522.949,0.000
1606136981.830,-149.414,-58.105,-43.945,-655.273,0.000
1606136981.834,84.961,-45.898,-34.668,163.086,0.000
1606136981.838,244.141,-45.410,-34.668,802.246,0.000
1606136981.842,128.418,-46.387,-42.969,449.219,0.000
1606136981.846,-119.629,-57.617,-52.734,-441.895,0.000
1606136981.850,-170.410,-65.918,-53.711,-706.055,0.000
1606136981.854,56.152,-48.340,-39.062,37.598,0.000
1606136981.858,241.211,-35.645,-33.203,760.742,0.000
1606136981.862,149.902,-44.434,-36.621,533.691,0.000
1606136981.866,-94.238,-54.199,-43.457,-354.004,0.000
1606136981.869,-167.480,-49.805,-47.363,-723.633,0.000
1606136981.873,26.367,-40.527,-38.574,-87.891,0.000
1606136981.877,229.492,-44.434,-31.250,698.242,0.000
1606136981.881,187.500,-45.898,-23.438,633.789,0.000
1606136981.885,-62.012,-49.805,-26.367,-250.977,0.000
1606136981.889,-180.664,-52.246,-43.945,-750.977,0.000
1606136981.893,-8.301,-47.852,-34.180,-200.195,0.000
1606136981.897,224.121,-36.133,-19.043,656.250,0.000
1606136981.901,212.402,-25.879,-29.297,708.008,0.000
1606136981.905,-41.504,-37.598,-36.621,-148.438,0.000
1606136981.909,-190.918,-41.992,-40.039,-743.652,0.000
1606136981.912,-50.781,-30.762,-30.273,-310.059,0.000
1606136981.916,194.824,-25.879,-18.555,577.637,0.000
1606136981.920,235.840,-10.254,-11.719,782.715,0.000
1606136981.924,-2.441,-22.461,-20.508,-23.438,0.000
1606136981.928,-193.359,-43.457,-36.621,-746.094,0.000
1606136981.932,-92.285,-38.574,-32.227,-442.871,0.000
1606136981.936,169.922,-23.438,-15.625,488.770,0.000
1606136981.940,241.699,-15.137,-13.672,814.941,0.000
1606136981.944,16.113,-25.879,-27.344,81.543,0.000
1606136981.948,-196.777,-38.574,-34.668,-729.980,0.000
1606136981.952,-126.953,-36.133,-36.133,-576.172,0.000
1606136981.955,143.066,-20.996,-23.438,395.020,0.000
1606136981.959,254.395,-9.766,-17.090,871.582,0.000
1606136981.963,45.898,-19.531,-31.250,219.727,0.000
1606136981.967,-206.543,-44.922,-43.457,-701.172,0.000
1606136981.971,-180.176,-49.805,-41.016,-706.543,0.000
1606136981.975,96.680,-25.391,-28.809,272.949,0.000
1606136981.979,244.629,-9.766,-20.508,890.137,0.000
1606136981.983,67.383,-24.414,-30.273,340.820,0.000
1606136981.987,-210.938,-44.434,-52.734,-654.785,0.000
1606136981.991,-228.027,-42.969,-50.781,-796.387,0.000
1606136981.994,63.965,-25.391,-29.297,163.574,0.000
1606136981.998,261.230,-15.137,-19.531,927.246,0.000
1606136982.002,108.398,-29.297,-25.391,514.160,0.000
1606136982.006,-201.172,-47.363,-36.621,-567.871,0.000
1606136982.010,-275.391,-45.410,-37.598,-901.855,0.000
1606136982.014,4.395,-35.645,-26.367,19.043,0.000
1606136982.018,260.742,-26.855,-15.625,938.965,0.000
1606136982.022,160.156,-14.648,-16.113,672.363,0.000
1606136982.026,-183.105,-31.250,-37.109,-477.539,0.000
1606136982.030,-308.594,-44.922,-44.434,-1000.000,0.000
1606136982.034,-38.574,-33.691,-30.273,-167.480,0.000
1606136982.037,259.766,-7.812,-14.648,873.047,0.000
1606136982.041,195.801,-8.789,-16.113,770.020,0.000
1606136982.045,-175.293,-34.668,-37.598,-367.676,0.000
1606136982.049,-351.074,-46.387,-42.480,-1000.000,0.000
1606136982.053,-101.074,-26.855,-30.273,-343.262,0.000
1606136982.057,229.980,3.906,-20.508,771.973,0.000
1606136982.061,218.750,-7.324,-20.996,842.285,0.000
1606136982.065,-137.695,-34.180,-33.691,-249.512,0.000
1606136982.069,-361.816,-44.922,-41.504,-1000.000,0.000
1606136982.073,-161.133,-37.109,-30.273,-517.090,0.000
1606136982.077,201.660,-17.578,-19.043,638.184,0.000
1606136982.080,256.348,-13.184,-22.461,908.203,0.000
1606136982.084,-84.473,-26.855,-36.133,-97.168,0.000
1606136982.088,-352.539,-40.527,-43.945,-1000.000,0.000
1606136982.092,-172.363,-36.133,-33.691,-618.652,0.000
1606136982.096,211.914,-13.184,-15.625,572.266,0.000
1606136982.100,292.969,-5.371,-10.254,957.520,0.000
1606136982.104,-21.973,-27.344,-22.461,46.875,0.000
1606136982.108,-324.219,-45.410,-35.156,-966.797,0.000
1606136982.112,-242.188,-41.016,-32.227,-769.531,0.000
1606136982.116,123.047,-17.090,-17.090,377.930,0.000
1606136982.119,273.438,-5.859,-3.906,986.816,0.000
1606136982.123,-0.488,-29.297,-11.719,184.082,0.000
1606136982.127,-320.312,-53.711,-36.621,-868.652,0.000
1606136982.131,-278.320,-47.852,-41.992,-857.910,0.000
1606136982.135,63.477,-22.461,-21.484,211.426,0.000
1606136982.139,256.836,-17.090,-13.184,933.594,0.000
1606136982.143,50.781,-28.320,-25.879,265.137,0.000
1606136982.147,-293.945,-41.504,-42.969,-770.996,0.000
1606136982.151,-308.105,-51.758,-43.457,-918.945,0.000
1606136982.155,17.090,-12.695,-29.297,8.789,0.000
1606136982.159,224.121,7.812,-20.020,810.547,0.000
1606136982.162,56.152,-30.273,-27.832,315.918,0.000
1606136982.166,-264.160,-48.828,-43.945,-695.801,0.000
1606136982.170,-314.941,-48.340,-39.062,-976.074,0.000
1606136982.174,-57.129,-26.367,-22.949,-229.492,0.000
1606136982.178,151.855,-13.184,-14.648,590.820,0.000
1606136982.182,52.246,-26.367,-20.508,282.227,0.000
1606136982.186,-229.004,-38.574,-34.180,-660.645,0.000
1606136982.190,-316.406,-47.852,-40.039,-1000.000,0.000
1606136982.194,-107.910,-33.203,-40.527,-380.859,0.000
1606136982.198,150.879,-10.742,-26.367,491.699,0.000
1606136982.202,112.305,-19.531,-17.578,409.668,0.000
1606136982.205,-172.852,-33.691,-32.227,-507.812,0.000
1606136982.209,-277.832,-38.574,-43.945,-960.938,0.000
1606136982.213,-83.496,-25.391,-40.527,-343.262,0.000
1606136982.217,160.156,-13.672,-27.344,542.969,0.000
1606136982.221,156.738,-19.531,-26.367,588.867,0.000
1606136982.225,-100.098,-30.273,-34.668,-254.395,0.000
1606136982.229,-244.629,-35.156,-41.992,-816.895,0.000
1606136982.233,-83.008,-25.391,-38.086,-357.910,0.000
1606136982.237,169.922,-11.230,-22.461,521.973,0.000
1606136982.241,196.777,-11.230,-20.996,698.730,0.000
1606136982.244,-41.504,-33.691,-30.762,-73.242,0.000
1606136982.248,-214.844,-43.945,-37.598,-724.121,0.000
1606136982.252,-103.516,-39.062,-32.227,-410.645,0.000
1606136982.256,144.531,-31.250,-19.043,473.633,0.000
1606136982.260,201.660,-17.090,-20.020,771.973,0.000
