timestamps,TP9,AF7,AF8,TP10,Right AUX
1606128111.329,0.000,0.000,0.000,0.000,0.000
1606128111.333,-0.488,0.000,0.000,-0.488,0.000
1606128111.337,-0.488,-0.977,-0.977,0.488,0.000
1606128111.341,0.488,1.465,1.953,-0.488,0.000
1606128111.345,-6.836,-7.812,-12.207,-2.441,0.000
1606128111.349,-7.324,-18.066,-31.738,22.949,0.000
1606128111.353,-17.090,-13.672,-33.691,8.789,0.000
1606128111.357,-46.387,-20.508,-31.250,-66.895,0.000
1606128111.361,-57.617,-24.414,-27.832,-93.750,0.000
1606128111.364,-40.039,-20.996,-37.109,-43.945,0.000
1606128111.368,-13.184,-16.602,-35.156,14.160,0.000
1606128111.372,-16.602,-19.043,-30.762,8.301,0.000
1606128111.376,-45.898,-22.949,-33.691,-63.965,0.000
1606128111.380,-66.406,-27.344,-31.250,-105.957,0.000
1606128111.384,-34.668,-31.738,-34.180,-56.641,0.000
1606128111.388,6.348,-23.926,-37.598,28.320,0.000
1606128111.392,-9.277,-20.996,-40.527,34.180,0.000
1606128111.396,-53.711,-26.367,-34.668,-44.434,0.000
1606128111.400,-81.543,-29.785,-19.531,-86.914,0.000
1606128111.403,-57.617,-28.320,-30.273,-45.410,0.000
1606128111.407,-20.508,-24.902,-37.109,27.832,0.000
1606128111.411,-14.648,-32.715,-34.180,43.945,0.000
1606128111.415,-29.785,-35.645,-31.250,-16.602,0.000
1606128111.419,-42.969,-25.391,-25.879,-59.082,0.000
1606128111.423,-43.457,-23.926,-29.785,-40.527,0.000
1606128111.427,-1.465,-21.973,-33.203,25.391,0.000
1606128111.431,17.090,-15.625,-28.809,55.664,0.000
1606128111.435,-25.879,-19.531,-28.809,-10.254,0.000
1606128111.439,-38.086,-31.738,-35.645,-75.684,0.000
1606128111.443,-40.039,-37.109,-34.668,-54.199,0.000
1606128111.446,-14.160,-19.531,-32.715,28.320,0.000
1606128111.450,16.113,-24.414,-27.344,49.316,0.000
1606128111.454,3.418,-37.109,-30.273,-12.695,0.000
1606128111.458,-22.949,-36.621,-39.551,-76.172,0.000
1606128111.462,-31.738,-39.062,-40.039,-79.102,0.000
1606128111.466,-11.230,-40.039,-32.715,-6.348,0.000
1606128111.470,19.531,-33.691,-39.062,41.504,0.000
1606128111.474,-1.465,-32.227,-36.621,2.930,0.000
1606128111.478,-52.246,-34.668,-29.297,-66.895,0.000
1606128111.482,-55.664,-38.086,-41.992,-74.219,0.000
1606128111.486,-27.832,-36.621,-36.133,-3.906,0.000
1606128111.489,1.953,-26.855,-19.531,59.570,0.000
1606128111.493,-13.184,-27.832,-21.973,18.555,0.000
1606128111.497,-49.805,-25.879,-30.762,-73.242,0.000
1606128111.501,-58.594,-26.855,-28.809,-80.078,0.000
1606128111.505,-13.672,-32.715,-29.785,-0.977,0.000
1606128111.509,2.441,-32.227,-33.691,49.316,0.000
1606128111.513,-19.043,-31.738,-28.320,26.855,0.000
1606128111.517,-24.414,-34.180,-22.461,-46.875,0.000
1606128111.521,-41.016,-41.016,-19.043,-70.312,0.000
1606128111.525,-34.668,-34.180,-18.066,-3.418,0.000
1606128111.528,-15.625,-27.832,-20.020,47.852,0.000
1606128111.532,-12.207,-30.273,-31.738,26.855,0.000
1606128111.536,-32.227,-36.133,-37.109,-39.062,0.000
1606128111.540,-30.762,-40.039,-29.785,-55.664,0.000
1606128111.544,-19.043,-34.180,-25.391,-16.602,0.000
1606128111.548,-26.855,-26.367,-29.297,33.691,0.000
1606128111.552,-24.414,-29.297,-30.273,22.949,0.000
1606128111.556,-35.156,-33.203,-27.344,-50.293,0.000
1606128111.560,-52.246,-41.992,-32.227,-88.379,0.000
1606128111.564,-41.016,-39.062,-14.648,-43.945,0.000
1606128111.568,-14.648,-27.832,-12.207,18.555,0.000
1606128111.571,-0.977,-32.227,-22.461,7.324,0.000
1606128111.575,-32.715,-34.668,-31.738,-49.316,0.000
1606128111.579,-63.477,-32.227,-42.480,-88.379,0.000
1606128111.583,-52.246,-35.156,-34.668,-64.941,0.000
1606128111.587,-19.531,-26.855,-26.855,18.066,0.000
1606128111.591,-1.953,-26.367,-20.996,37.109,0.000
1606128111.595,-20.996,-10.254,-25.879,-27.344,0.000
1606128111.599,-44.434,-12.207,-18.555,-82.031,0.000
1606128111.603,-54.199,-28.809,-2.441,-88.379,0.000
1606128111.607,-27.344,-23.926,-16.113,-22.461,0.000
1606128111.611,-1.465,-23.926,-31.738,14.648,0.000
1606128111.614,-43.457,-28.809,-31.738,-27.832,0.000
1606128111.618,-58.105,-33.203,-42.969,-57.617,0.000
1606128111.622,-39.062,-20.020,-40.039,-66.406,0.000
1606128111.626,-18.555,-21.973,-34.180,-8.789,0.000
1606128111.630,-8.789,-31.250,-33.691,36.621,0.000
1606128111.634,-20.508,-23.926,-31.738,-12.207,0.000
1606128111.638,-49.316,-35.156,-24.414,-79.102,0.000
1606128111.642,-66.406,-43.457,-21.973,-81.055,0.000
1606128111.646,-43.945,-14.648,-33.691,-15.137,0.000
1606128111.650,-32.715,7.812,-36.621,17.090,0.000
1606128111.653,-36.133,-19.043,-21.973,-22.461,0.000
1606128111.657,-61.035,-38.574,-23.438,-84.961,0.000
1606128111.661,-58.105,-41.016,-25.391,-76.660,0.000
1606128111.665,-30.273,-29.785,-18.555,-19.043,0.000
1606128111.669,-10.742,-23.438,-23.926,33.203,0.000
1606128111.673,-7.812,-32.715,-28.809,9.766,0.000
1606128111.677,-33.691,-27.344,-35.645,-64.941,0.000
1606128111.681,-56.152,-30.762,-32.227,-73.242,0.000
1606128111.685,-37.109,-38.086,-31.250,-22.949,0.000
1606128111.689,-17.578,-36.621,-28.320,26.367,0.000
1606128111.693,-18.555,-30.273,-26.367,13.672,0.000
1606128111.696,-45.898,-18.066,-36.621,-57.129,0.000
1606128111.700,-66.895,-35.156,-37.109,-99.121,0.000
1606128111.704,-42.969,-41.504,-33.203,-45.898,0.000
1606128111.708,-15.625,-36.621,-32.227,20.020,0.000
1606128111.712,-20.020,-33.691,-30.762,8.789,0.000
1606128111.716,-52.246,-32.227,-30.273,-64.453,0.000
1606128111.720,-58.105,-36.133,-33.203,-103.516,0.000
1606128111.724,-44.922,-34.180,-26.855,-53.711,0.000
1606128111.728,-31.738,-22.461,-23.438,33.203,0.000
1606128111.732,-17.578,-26.855,-26.367,37.109,0.000
1606128111.736,-36.133,-32.227,-29.785,-36.621,0.000
1606128111.739,-61.523,-44.922,-33.691,-96.680,0.000
1606128111.743,-54.688,-39.062,-22.461,-68.359,0.000
1606128111.747,-23.438,1.465,-17.578,21.484,0.000
1606128111.751,-10.254,-19.043,-30.273,39.062,0.000
1606128111.755,-35.645,-43.457,-33.203,-35.645,0.000
1606128111.759,-75.684,-41.016,-26.855,-96.191,0.000
1606128111.763,-60.059,-41.504,-32.227,-62.988,0.000
1606128111.767,-22.461,-40.527,-28.809,13.184,0.000
1606128111.771,-10.254,-36.621,-24.414,36.621,0.000
1606128111.775,-38.086,-40.527,-31.738,-19.531,0.000
1606128111.778,-69.824,-45.410,-28.320,-90.332,0.000
1606128111.782,-60.547,-34.180,-27.344,-77.637,0.000
1606128111.786,-27.344,-15.625,-31.738,4.883,0.000
1606128111.790,-17.578,-26.367,-24.902,36.621,0.000
1606128111.794,-46.875,-38.574,-21.484,-20.996,0.000
1606128111.798,-65.918,-43.945,-26.367,-90.820,0.000
1606128111.802,-63.477,-50.781,-26.855,-79.102,0.000
1606128111.806,-32.227,-35.645,-28.320,-4.395,0.000
1606128111.810,-19.043,-32.227,-25.879,31.738,0.000
1606128111.814,-28.809,-34.180,-26.367,-15.625,0.000
1606128111.818,-42.480,-33.691,-28.809,-87.891,0.000
1606128111.821,-61.035,-47.363,-34.668,-92.285,0.000
1606128111.825,-45.410,-7.324,-32.227,-31.738,0.000
1606128111.829,-19.531,20.020,-23.926,19.531,0.000
1606128111.833,-22.949,-22.949,-24.902,-4.395,0.000
1606128111.837,-59.570,-39.551,-28.809,-82.520,0.000
1606128111.841,-72.266,-35.156,-30.273,-105.469,0.000
1606128111.845,-43.945,-30.762,-22.949,-36.133,0.000
1606128111.849,-21.973,-36.621,-17.578,32.227,0.000
1606128111.853,-29.785,-36.621,-28.809,0.488,0.000
1606128111.857,-47.363,-33.203,-27.344,-82.520,0.000
1606128111.861,-70.312,-33.691,-17.578,-108.398,0.000
1606128111.864,-58.105,-24.902,-19.531,-55.664,0.000
1606128111.868,-23.438,-20.508,-16.113,18.555,0.000
1606128111.872,-32.715,-30.762,-19.043,6.348,0.000
1606128111.876,-69.824,-37.598,-22.949,-75.684,0.000
1606128111.880,-83.008,-36.133,-24.902,-113.281,0.000
1606128111.884,-58.594,-26.855,-22.461,-60.547,0.000
1606128111.888,-33.691,-23.438,-18.555,16.113,0.000
1606128111.892,-29.297,-23.438,-16.113,13.672,0.000
1606128111.896,-50.293,-29.785,-16.113,-56.641,0.000
1606128111.900,-71.289,-37.109,-22.461,-97.168,0.000
1606128111.903,-55.664,-32.227,-23.438,-67.871,0.000
1606128111.907,-28.320,-27.344,-10.742,5.859,0.000
1606128111.911,-25.879,-26.855,-15.625,18.555,0.000
1606128111.915,-55.176,-25.391,-27.832,-42.480,0.000
1606128111.919,-60.547,-27.344,-31.738,-98.145,0.000
1606128111.923,-50.293,-33.203,-32.227,-75.195,0.000
1606128111.927,-37.109,-15.625,-20.020,13.184,0.000
1606128111.931,-14.648,-7.324,-19.531,39.062,0.000
1606128111.935,-23.926,-24.902,-31.250,-17.090,0.000
1606128111.939,-51.270,-25.879,-34.180,-88.867,0.000
1606128111.943,-52.734,-20.020,-36.133,-83.984,0.000
1606128111.946,-14.648,-16.602,-34.668,3.418,0.000
1606128111.950,10.742,-15.137,-25.391,38.574,0.000
1606128111.954,-7.324,-20.020,-23.926,-12.207,0.000
1606128111.958,-34.180,-31.250,-31.250,-70.312,0.000
1606128111.962,-34.180,-26.367,-40.039,-62.500,0.000
1606128111.966,-5.371,-17.578,-41.992,0.000,0.000
1606128111.970,15.625,-23.438,-33.691,40.039,0.000
1606128111.974,-15.137,-32.715,-43.945,-7.812,0.000
1606128111.978,-44.434,-42.969,-52.734,-79.590,0.000
1606128111.982,-41.504,-39.062,-44.434,-69.336,0.000
1606128111.986,-6.348,-31.250,-37.109,3.906,0.000
1606128111.989,27.832,-31.250,-34.668,53.223,0.000
1606128111.993,3.418,-33.691,-37.598,26.367,0.000
1606128111.997,-31.250,-39.062,-41.992,-45.410,0.000
1606128112.001,-28.809,-39.062,-42.969,-55.664,0.000
1606128112.005,-2.441,-30.273,-38.086,7.324,0.000
1606128112.009,25.879,-22.461,-31.250,60.547,0.000
1606128112.013,17.090,-24.902,-31.250,33.691,0.000
1606128112.017,-21.973,-30.273,-33.691,-47.852,0.000
1606128112.021,-28.809,-34.668,-33.203,-77.148,0.000
1606128112.025,-16.602,-20.020,-28.809,-14.648,0.000
1606128112.028,1.465,-8.789,-22.461,56.152,0.000
1606128112.032,1.465,-27.344,-22.949,39.551,0.000
1606128112.036,-33.203,-34.180,-30.762,-43.457,0.000
1606128112.040,-48.340,-37.109,-35.156,-84.473,0.000
1606128112.044,-15.137,-31.738,-29.297,-24.902,0.000
1606128112.048,8.301,-25.879,-22.461,48.828,0.000
1606128112.052,2.441,-23.438,-18.066,51.758,0.000
1606128112.056,-18.555,-23.926,-22.949,-24.902,0.000
1606128112.060,-41.992,-36.621,-28.320,-72.754,0.000
1606128112.064,-43.457,-21.484,-30.273,-29.297,0.000
1606128112.068,-22.461,-3.418,-27.832,37.598,0.000
1606128112.071,-11.719,-24.414,-21.973,42.480,0.000
1606128112.075,-35.156,-34.668,-33.203,-31.738,0.000
1606128112.079,-53.223,-40.527,-40.527,-82.520,0.000
1606128112.083,-53.223,-41.992,-38.086,-46.387,0.000
1606128112.087,-21.973,-37.598,-32.227,33.203,0.000
1606128112.091,-6.836,-31.250,-22.949,48.828,0.000
1606128112.095,-28.809,-33.203,-27.344,-20.508,0.000
1606128112.099,-45.898,-40.039,-31.738,-79.102,0.000
1606128112.103,-49.805,-40.039,-31.738,-49.805,0.000
1606128112.107,-22.949,-21.973,-36.621,26.855,0.000
1606128112.111,-4.395,-20.020,-35.156,47.852,0.000
1606128112.114,-21.973,-36.621,-34.180,-18.066,0.000
1606128112.118,-45.898,-35.645,-41.016,-76.172,0.000
1606128112.122,-46.387,-27.344,-37.109,-62.012,0.000
1606128112.126,-24.902,-29.297,-31.250,4.883,0.000
1606128112.130,-5.371,-32.227,-30.762,40.527,0.000
1606128112.134,-20.508,-30.273,-30.762,-12.207,0.000
1606128112.138,-54.688,-38.086,-37.109,-84.473,0.000
1606128112.142,-57.617,-38.574,-36.133,-82.031,0.000
1606128112.146,-22.949,-28.320,-31.250,-6.836,0.000
1606128112.150,-1.953,-25.879,-30.273,41.504,0.000
1606128112.153,-16.602,-31.738,-29.785,6.348,0.000
1606128112.157,-48.828,-39.062,-30.273,-71.289,0.000
1606128112.161,-54.199,-44.434,-32.715,-78.613,0.000
1606128112.165,-23.926,-21.973,-30.762,-8.301,0.000
1606128112.169,-3.906,-22.949,-27.832,35.645,0.000
1606128112.173,-24.902,-45.410,-31.738,0.977,0.000
1606128112.177,-58.594,-47.363,-37.109,-75.684,0.000
1606128112.181,-55.664,-47.363,-38.574,-85.449,0.000
1606128112.185,-40.039,-36.133,-26.855,-16.113,0.000
1606128112.189,-28.809,-35.645,-21.484,33.691,0.000
1606128112.193,-30.762,-37.109,-30.762,8.301,0.000
1606128112.196,-71.777,-31.250,-33.691,-77.637,0.000
1606128112.200,-87.402,-38.574,-35.156,-112.793,0.000
1606128112.204,-62.500,-31.250,-38.574,-52.246,0.000
1606128112.208,-24.902,-13.184,-28.320,10.742,0.000
1606128112.212,-18.066,-23.438,-22.461,0.977,0.000
1606128112.216,-37.109,-31.738,-28.320,-71.289,0.000
1606128112.220,-53.223,-31.250,-27.832,-108.887,0.000
1606128112.224,-41.992,-31.738,-30.273,-57.617,0.000
1606128112.228,0.488,-25.391,-28.320,21.973,0.000
1606128112.232,-2.441,-29.297,-17.578,19.531,0.000
1606128112.236,-46.875,-41.992,-20.508,-61.523,0.000
1606128112.239,-61.035,-39.062,-27.832,-99.609,0.000
1606128112.243,-45.898,-23.438,-31.250,-60.547,0.000
1606128112.247,-18.555,-19.043,-22.949,5.371,0.000
1606128112.251,-12.695,-26.855,-15.625,18.555,0.000
1606128112.255,-27.832,-26.367,-30.762,-56.641,0.000
1606128112.259,-63.965,-35.156,-43.457,-117.188,0.000
1606128112.263,-79.590,-36.133,-39.551,-84.473,0.000
1606128112.267,-41.504,-32.715,-27.344,-8.789,0.000
1606128112.271,-27.344,-36.133,-20.996,17.578,0.000
1606128112.275,-41.992,-31.738,-30.273,-39.551,0.000
1606128112.278,-59.570,-31.738,-40.039,-105.957,0.000
1606128112.282,-55.176,-26.855,-30.762,-94.238,0.000
1606128112.286,-33.691,-26.855,-22.461,-23.438,0.000
1606128112.290,-36.133,-33.203,-27.344,-8.301,0.000
1606128112.294,-58.105,-35.645,-39.062,-59.570,0.000
1606128112.298,-73.242,-40.039,-42.480,-109.375,0.000
1606128112.302,-76.172,-43.457,-44.434,-95.703,0.000
1606128112.306,-36.133,-23.926,-44.922,-20.996,0.000
1606128112.310,-22.949,-12.207,-35.645,13.672,0.000
1606128112.314,-56.641,-27.832,-31.250,-33.691,0.000
1606128112.318,-74.707,-36.133,-38.574,-107.422,0.000
1606128112.321,-77.637,-31.250,-41.992,-105.957,0.000
1606128112.325,-57.129,-21.484,-27.344,-26.367,0.000
1606128112.329,-37.109,-19.531,-28.320,22.461,0.000
1606128112.333,-31.250,-23.438,-33.691,-5.371,0.000
1606128112.337,-58.105,-31.250,-26.367,-79.590,0.000
1606128112.341,-86.914,-43.457,-25.879,-101.562,0.000
1606128112.345,-47.852,-32.227,-26.367,-28.320,0.000
1606128112.349,-13.672,-23.438,-24.902,30.762,0.000
1606128112.353,-18.066,-31.738,-24.902,5.371,0.000
1606128112.357,-41.504,-34.180,-25.879,-55.664,0.000
1606128112.361,-49.805,-29.785,-22.949,-79.590,0.000
1606128112.364,-30.273,-25.879,-25.391,-30.762,0.000
1606128112.368,-0.488,-19.531,-15.137,33.691,0.000
1606128112.372,3.418,-15.137,-14.160,20.996,0.000
1606128112.376,-24.414,-27.832,-40.039,-67.871,0.000
1606128112.380,-29.785,-33.691,-44.434,-89.844,0.000
1606128112.384,-38.086,-35.156,-30.273,-38.086,0.000
1606128112.388,-45.410,-40.527,-21.484,-3.418,0.000
1606128112.392,-34.180,-31.738,-14.160,-10.742,0.000
1606128112.396,-47.363,-24.902,-16.602,-75.684,0.000
1606128112.400,-78.125,-22.949,-13.184,-137.695,0.000
1606128112.403,-70.312,-25.879,-1.953,-97.168,0.000
1606128112.407,-30.273,-30.273,6.836,-7.324,0.000
1606128112.411,-29.297,-26.367,14.160,4.883,0.000
1606128112.415,-56.641,-23.438,14.160,-61.035,0.000
1606128112.419,-73.242,-30.273,7.812,-116.699,0.000
1606128112.423,-65.918,-29.297,1.953,-84.961,0.000
1606128112.427,-16.113,-17.090,8.301,1.953,0.000
1606128112.431,-3.418,-14.160,4.883,23.438,0.000
1606128112.435,-35.156,-26.367,-1.465,-42.969,0.000
1606128112.439,-54.199,-36.621,-8.301,-103.516,0.000
1606128112.443,-58.594,-27.832,-8.789,-74.219,0.000
1606128112.446,-19.043,-18.555,-2.441,15.137,0.000
1606128112.450,-1.465,-24.902,-3.906,40.527,0.000
1606128112.454,-21.973,-28.320,-8.301,-14.648,0.000
1606128112.458,-42.480,-27.832,-4.395,-68.359,0.000
1606128112.462,-35.156,-27.832,4.395,-60.547,0.000
1606128112.466,-7.324,-29.785,2.441,10.254,0.000
1606128112.470,5.859,-34.180,-5.371,44.922,0.000
1606128112.474,-15.137,-36.621,-11.230,-9.277,0.000
1606128112.478,-47.363,-34.668,-10.254,-76.172,0.000
1606128112.482,-44.922,-35.156,-11.719,-78.613,0.000
1606128112.486,-18.066,-29.297,-13.672,-10.254,0.000
1606128112.489,-10.742,-25.879,-12.695,30.273,0.000
1606128112.493,-20.020,-32.715,-11.719,-15.625,0.000
1606128112.497,-31.250,-39.062,-14.648,-85.938,0.000
1606128112.501,-47.852,-41.504,-15.625,-87.891,0.000
1606128112.505,-33.691,-38.086,-11.719,-17.578,0.000
1606128112.509,-10.742,-35.156,-15.625,35.156,0.000
1606128112.513,-27.344,-34.180,-11.230,10.254,0.000
1606128112.517,-54.688,-34.668,-17.090,-63.965,0.000
1606128112.521,-55.176,-40.039,-22.949,-89.844,0.000
1606128112.525,-43.945,-27.832,-16.113,-30.762,0.000
1606128112.528,-27.832,-21.973,-22.949,25.879,0.000
1606128112.532,-21.973,-36.621,-24.414,2.441,0.000
1606128112.536,-55.176,-41.016,-26.367,-69.824,0.000
1606128112.540,-72.754,-44.434,-21.973,-97.168,0.000
1606128112.544,-52.246,-38.086,-24.414,-47.363,0.000
1606128112.548,-26.855,-33.691,-32.227,6.348,0.000
1606128112.552,-23.438,-39.062,-27.344,0.488,0.000
1606128112.556,-43.945,-36.133,-29.297,-60.547,0.000
1606128112.560,-45.410,-35.645,-32.715,-87.891,0.000
1606128112.564,-40.527,-35.645,-32.227,-47.363,0.000
1606128112.568,-28.809,-28.809,-31.250,20.020,0.000
1606128112.571,-20.020,-28.320,-28.809,29.785,0.000
1606128112.575,-50.293,-33.691,-34.180,-44.922,0.000
1606128112.579,-64.941,-35.156,-33.203,-89.355,0.000
1606128112.583,-49.805,-28.809,-27.832,-43.457,0.000
1606128112.587,-27.344,-21.973,-28.320,25.391,0.000
1606128112.591,-14.648,-29.297,-31.250,26.855,0.000
1606128112.595,-41.504,-36.133,-30.273,-51.758,0.000
1606128112.599,-66.895,-38.574,-25.879,-104.004,0.000
1606128112.603,-51.758,-33.691,-26.855,-64.453,0.000
1606128112.607,-20.996,-34.180,-22.461,18.066,0.000
1606128112.611,-12.695,-35.645,-20.996,27.344,0.000
1606128112.614,-54.199,-31.250,-25.391,-47.852,0.000
1606128112.618,-74.707,-29.297,-22.949,-94.727,0.000
1606128112.622,-66.895,-28.809,-24.414,-69.336,0.000
1606128112.626,-30.762,-8.789,-24.414,3.418,0.000
1606128112.630,-12.695,-10.254,-18.555,26.855,0.000
1606128112.634,-35.156,-23.926,-25.879,-24.414,0.000
1606128112.638,-62.988,-25.391,-33.203,-85.938,0.000
1606128112.642,-62.988,-34.180,-32.227,-87.891,0.000
1606128112.646,-27.832,-28.809,-23.926,-7.812,0.000
1606128112.650,-0.488,-16.113,-20.020,49.805,0.000
1606128112.653,-21.973,-21.973,-15.625,-3.906,0.000
1606128112.657,-51.758,-35.156,-16.602,-84.961,0.000
1606128112.661,-58.105,-42.969,-32.227,-88.867,0.000
1606128112.665,-50.781,-6.836,-33.691,-15.137,0.000
1606128112.669,-20.508,6.836,-30.273,33.691,0.000
1606128112.673,-17.578,-33.691,-26.855,-1.465,0.000
1606128112.677,-41.992,-40.039,-29.297,-69.336,0.000
1606128112.681,-41.992,-36.133,-31.250,-83.008,0.000
1606128112.685,-20.020,-34.180,-24.902,-20.996,0.000
1606128112.689,0.000,-28.320,-27.832,30.273,0.000
1606128112.693,-11.719,-31.250,-26.367,0.977,0.000
1606128112.696,-41.992,-41.016,-26.367,-68.359,0.000
1606128112.700,-49.805,-43.457,-28.320,-91.309,0.000
1606128112.704,-37.598,-39.062,-26.855,-34.668,0.000
1606128112.708,6.836,-28.320,-25.879,35.645,0.000
1606128112.712,0.000,-29.785,-32.227,20.508,0.000
1606128112.716,-53.711,-39.062,-38.086,-62.988,0.000
1606128112.720,-49.316,-37.598,-38.086,-97.656,0.000
1606128112.724,-32.715,-27.832,-32.715,-52.246,0.000
1606128112.728,-18.555,-19.531,-25.879,23.438,0.000
1606128112.732,-20.508,-30.762,-26.367,15.625,0.000
1606128112.736,-47.852,-35.645,-32.715,-75.195,0.000
1606128112.739,-69.336,-38.574,-39.062,-115.234,0.000
1606128112.743,-54.199,-34.668,-36.621,-67.383,0.000
1606128112.747,-21.973,-23.926,-21.973,13.672,0.000
1606128112.751,-18.066,-25.391,-20.996,25.391,0.000
1606128112.755,-41.016,-28.809,-30.273,-52.246,0.000
1606128112.759,-69.824,-30.762,-32.715,-107.422,0.000
1606128112.763,-47.852,-33.203,-40.039,-77.637,0.000
1606128112.767,-19.043,-8.301,-43.457,3.418,0.000
1606128112.771,-21.484,-14.648,-39.551,31.250,0.000
1606128112.775,-40.039,-35.156,-34.180,-36.133,0.000
1606128112.778,-84.473,-37.109,-34.668,-111.328,0.000
1606128112.782,-75.684,-37.109,-29.297,-88.867,0.000
1606128112.786,-40.527,-30.273,-20.020,-7.812,0.000
1606128112.790,-41.016,-27.344,-20.508,5.371,0.000
1606128112.794,-64.453,-26.855,-24.902,-50.781,0.000
1606128112.798,-85.938,-37.598,-30.273,-107.422,0.000
1606128112.802,-69.336,-38.574,-34.180,-91.797,0.000
1606128112.806,-34.668,-28.809,-38.086,-18.066,0.000
1606128112.810,-26.367,-25.391,-35.645,16.113,0.000
1606128112.814,-38.086,-28.320,-36.133,-23.438,0.000
1606128112.818,-72.754,-28.320,-39.551,-92.773,0.000
1606128112.821,-62.012,-28.320,-35.645,-94.727,0.000
1606128112.825,-24.414,-26.367,-31.738,-15.625,0.000
1606128112.829,-27.344,-22.461,-27.344,20.996,0.000
1606128112.833,-39.551,-25.879,-27.344,-22.461,0.000
1606128112.837,-57.617,-32.227,-31.250,-91.797,0.000
1606128112.841,-63.477,-35.645,-34.668,-95.215,0.000
1606128112.845,-36.133,-30.273,-35.645,-23.926,0.000
1606128112.849,-6.348,-28.809,-31.738,23.438,0.000
1606128112.853,-15.625,-26.367,-23.438,-0.977,0.000
1606128112.857,-52.734,-26.367,-28.320,-73.242,0.000
1606128112.861,-65.430,-37.109,-32.227,-91.797,0.000
1606128112.864,-48.340,-21.484,-26.855,-35.645,0.000
1606128112.868,-22.949,0.977,-25.391,25.879,0.000
1606128112.872,-21.484,-11.719,-17.578,13.672,0.000
1606128112.876,-47.363,-26.855,-13.672,-60.547,0.000
1606128112.880,-66.406,-26.855,-16.113,-87.402,0.000
1606128112.884,-21.484,-19.531,-21.484,-40.527,0.000
1606128112.888,2.441,-20.020,-22.461,19.043,0.000
1606128112.892,-23.926,-25.391,-20.996,16.602,0.000
1606128112.896,-42.969,-26.855,-20.508,-57.617,0.000
1606128112.900,-58.105,-37.598,-25.391,-85.449,0.000
1606128112.903,-41.992,-26.855,-23.926,-33.203,0.000
1606128112.907,-22.461,-15.625,-20.020,27.344,0.000
1606128112.911,-22.461,-33.691,-22.949,24.902,0.000
1606128112.915,-40.527,-37.598,-23.926,-44.922,0.000
1606128112.919,-58.105,-36.133,-24.902,-95.215,0.000
1606128112.923,-55.664,-32.715,-26.855,-62.500,0.000
1606128112.927,-30.762,-32.227,-23.438,12.207,0.000
1606128112.931,-18.066,-30.762,-24.414,21.973,0.000
1606128112.935,-46.875,-32.715,-26.367,-47.852,0.000
1606128112.939,-72.266,-45.410,-33.691,-103.027,0.000
1606128112.943,-58.594,-44.434,-37.109,-76.660,0.000
1606128112.946,-40.527,-17.090,-32.227,0.488,0.000
1606128112.950,-35.645,-26.367,-34.668,26.855,0.000
1606128112.954,-46.387,-43.457,-38.086,-32.227,0.000
1606128112.958,-64.941,-38.574,-32.227,-97.168,0.000
1606128112.962,-56.641,-31.250,-23.926,-80.078,0.000
1606128112.966,-24.902,-21.484,-25.391,-0.977,0.000
1606128112.970,-10.254,-26.855,-23.926,35.645,0.000
1606128112.974,-26.367,-35.156,-28.809,-23.438,0.000
1606128112.978,-51.758,-39.551,-28.320,-97.168,0.000
1606128112.982,-54.199,-37.598,-30.762,-92.285,0.000
1606128112.986,-28.320,-28.320,-28.809,-5.859,0.000
1606128112.989,-1.953,-21.484,-23.438,38.574,0.000
1606128112.993,-12.207,-21.484,-28.320,1.953,0.000
1606128112.997,-43.457,-39.062,-27.344,-64.941,0.000
1606128113.001,-33.691,-50.293,-28.320,-66.406,0.000
1606128113.005,-21.973,-26.855,-32.715,13.184,0.000
1606128113.009,-20.020,-13.184,-34.180,30.273,0.000
1606128113.013,-26.855,-24.902,-41.992,-18.066,0.000
1606128113.017,-50.293,-27.344,-48.340,-84.961,0.000
1606128113.021,-66.895,-29.785,-43.945,-103.516,0.000
1606128113.025,-29.785,-20.996,-45.898,-31.738,0.000
1606128113.028,-3.906,-14.648,-52.246,25.391,0.000
1606128113.032,-27.832,-17.578,-46.387,-7.324,0.000
1606128113.036,-55.176,-20.020,-43.457,-86.914,0.000
1606128113.040,-74.707,-25.391,-47.852,-109.375,0.000
1606128113.044,-47.852,-6.348,-48.828,-51.758,0.000
1606128113.048,-16.602,15.625,-43.945,17.578,0.000
1606128113.052,-20.996,-18.066,-40.039,-0.977,0.000
1606128113.056,-39.551,-37.109,-43.945,-82.031,0.000
1606128113.060,-51.758,-39.062,-51.270,-104.492,0.000
1606128113.064,-31.250,-40.039,-52.246,-50.293,0.000
1606128113.068,1.465,-34.668,-44.434,10.254,0.000
1606128113.071,-22.949,-34.668,-40.527,10.254,0.000
1606128113.075,-49.805,-40.039,-39.062,-53.223,0.000
1606128113.079,-50.781,-38.086,-44.434,-101.562,0.000
1606128113.083,-51.270,-30.273,-48.828,-58.594,0.000
1606128113.087,-20.020,-21.484,-43.457,18.555,0.000
1606128113.091,-6.348,-25.391,-41.016,21.973,0.000
1606128113.095,-34.668,-27.832,-45.410,-46.387,0.000
1606128113.099,-53.711,-31.738,-40.039,-94.238,0.000
1606128113.103,-44.922,-26.855,-39.062,-66.406,0.000
1606128113.107,-19.043,-20.996,-41.992,4.395,0.000
1606128113.111,-13.672,-33.203,-37.598,23.438,0.000
1606128113.114,-45.410,-43.945,-38.574,-44.434,0.000
1606128113.118,-63.965,-40.527,-47.363,-99.609,0.000
1606128113.122,-35.645,-29.785,-49.316,-68.359,0.000
1606128113.126,-20.020,-25.879,-40.039,3.418,0.000
1606128113.130,-14.160,-27.344,-28.320,34.180,0.000
1606128113.134,-15.625,-23.926,-24.902,-11.719,0.000
1606128113.138,-41.992,-27.832,-30.273,-83.008,0.000
1606128113.142,-36.621,-38.086,-24.902,-74.219,0.000
1606128113.146,-2.441,-11.719,-17.578,10.742,0.000
1606128113.150,7.812,-1.465,-18.066,48.828,0.000
1606128113.153,-15.625,-22.949,-13.184,-7.812,0.000
1606128113.157,-27.344,-25.391,-16.113,-77.637,0.000
1606128113.161,-39.062,-29.785,-31.250,-73.242,0.000
1606128113.165,-29.297,-26.367,-26.855,2.441,0.000
1606128113.169,-1.953,-21.484,-18.555,41.016,0.000
1606128113.173,-13.672,-27.344,-21.484,0.000,0.000
1606128113.177,-43.945,-28.809,-26.855,-70.312,0.000
1606128113.181,-49.316,-30.762,-27.344,-78.125,0.000
1606128113.185,-25.391,-20.508,-30.762,-5.859,0.000
1606128113.189,-2.441,-18.066,-30.273,39.551,0.000
1606128113.193,-8.301,-32.227,-22.461,7.812,0.000
1606128113.196,-32.715,-31.250,-20.996,-68.359,0.000
1606128113.200,-49.316,-35.645,-23.926,-84.473,0.000
1606128113.204,-33.691,-32.227,-21.973,-12.207,0.000
1606128113.208,-3.906,-25.879,-13.184,46.387,0.000
1606128113.212,-5.859,-32.715,-22.461,24.902,0.000
1606128113.216,-24.902,-38.574,-34.180,-47.363,0.000
1606128113.220,-45.898,-39.551,-27.832,-76.172,0.000
1606128113.224,-61.523,-28.320,-25.391,-46.387,0.000
1606128113.228,-43.945,-20.996,-27.344,8.789,0.000
1606128113.232,-48.340,-41.992,-29.785,2.930,0.000
1606128113.236,-77.637,-48.340,-34.668,-91.797,0.000
1606128113.239,-105.469,-41.992,-31.250,-140.625,0.000
1606128113.243,-113.281,-25.391,-9.766,-96.680,0.000
1606128113.247,-73.242,-5.371,4.395,-19.043,0.000
1606128113.251,-49.316,-23.926,3.418,-1.465,0.000
1606128113.255,-74.707,-37.598,-5.859,-82.031,0.000
1606128113.259,-97.656,-32.227,-9.277,-135.254,0.000
1606128113.263,-70.312,-28.320,-12.695,-92.285,0.000
1606128113.267,-36.133,-28.809,-15.625,-15.625,0.000
1606128113.271,-34.180,-29.785,-15.137,6.348,0.000
1606128113.275,-53.223,-35.645,-28.320,-56.641,0.000
1606128113.278,-67.383,-44.922,-30.273,-110.840,0.000
1606128113.282,-51.758,-36.133,-20.996,-67.871,0.000
1606128113.286,-3.906,-11.230,-20.996,29.297,0.000
1606128113.290,4.395,-20.508,-21.484,53.223,0.000
1606128113.294,-34.668,-42.969,-22.949,-18.555,0.000
1606128113.298,-49.805,-41.504,-25.879,-79.102,0.000
1606128113.302,-42.969,-33.691,-25.879,-56.152,0.000
1606128113.306,-12.207,-25.391,-20.508,29.297,0.000
1606128113.310,6.836,-26.855,-15.625,59.082,0.000
1606128113.314,-19.531,-37.109,-20.020,-1.953,0.000
1606128113.318,-53.711,-40.527,-24.902,-71.289,0.000
1606128113.321,-49.805,-39.062,-26.367,-65.430,0.000
1606128113.325,-21.484,-26.855,-22.949,8.789,0.000
1606128113.329,0.977,-20.996,-18.066,46.875,0.000
1606128113.333,-20.508,-34.668,-26.367,-12.695,0.000
1606128113.337,-71.777,-43.945,-28.320,-84.473,0.000
1606128113.341,-67.383,-38.574,-22.949,-73.730,0.000
1606128113.345,-26.367,-30.762,-21.973,2.930,0.000
1606128113.349,-8.789,-38.574,-15.137,47.852,0.000
1606128113.353,-18.555,-41.992,-14.160,11.230,0.000
1606128113.357,-40.527,-36.133,-20.020,-67.871,0.000
1606128113.361,-48.340,-29.785,-18.066,-83.496,0.000
1606128113.364,-22.949,-18.555,-21.484,-15.137,0.000
1606128113.368,0.977,-20.996,-28.320,37.109,0.000
1606128113.372,-2.441,-25.391,-29.785,8.301,0.000
1606128113.376,-40.039,-27.344,-26.367,-71.777,0.000
1606128113.380,-57.129,-39.551,-27.344,-97.656,0.000
1606128113.384,-19.531,-18.555,-27.344,-27.344,0.000
1606128113.388,-7.812,-11.719,-20.020,41.504,0.000
1606128113.392,-20.020,-34.180,-17.090,20.996,0.000
1606128113.396,-43.457,-32.227,-16.602,-67.871,0.000
1606128113.400,-61.523,-32.227,-19.043,-97.656,0.000
1606128113.403,-39.551,-28.320,-19.043,-38.086,0.000
1606128113.407,-12.695,-24.902,-17.578,30.273,0.000
1606128113.411,-14.160,-29.785,-22.461,23.438,0.000
1606128113.415,-37.598,-26.367,-16.113,-44.922,0.000
1606128113.419,-57.617,-31.738,-19.043,-82.031,0.000
1606128113.423,-54.199,-37.109,-27.832,-45.898,0.000
1606128113.427,-27.832,-1.465,-25.879,18.555,0.000
1606128113.431,-22.461,-4.395,-23.926,27.832,0.000
1606128113.435,-41.504,-35.645,-31.250,-39.062,0.000
1606128113.439,-57.129,-38.086,-32.227,-94.727,0.000
1606128113.443,-66.895,-33.203,-28.320,-58.594,0.000
1606128113.446,-38.086,-25.879,-24.902,18.066,0.000
1606128113.450,-21.484,-27.832,-22.461,30.762,0.000
1606128113.454,-40.039,-32.227,-26.855,-30.762,0.000
1606128113.458,-61.523,-43.945,-36.133,-86.914,0.000
1606128113.462,-58.105,-41.504,-37.598,-66.406,0.000
1606128113.466,-25.391,-13.672,-26.367,10.254,0.000
1606128113.470,-6.348,-18.066,-25.391,38.574,0.000
1606128113.474,-15.625,-36.621,-36.621,-15.625,0.000
1606128113.478,-42.969,-34.668,-41.992,-89.355,0.000
1606128113.482,-52.246,-33.691,-41.016,-92.285,0.000
1606128113.486,-25.879,-25.879,-34.668,-10.254,0.000
1606128113.489,-12.695,-20.508,-30.762,24.414,0.000
1606128113.493,-34.668,-26.855,-40.527,-36.621,0.000
1606128113.497,-84.961,-32.227,-45.898,-104.004,0.000
1606128113.501,-94.238,-34.180,-42.480,-99.121,0.000
1606128113.505,-51.758,-27.832,-39.062,-23.438,0.000
1606128113.509,-23.926,-22.461,-31.250,25.391,0.000
1606128113.513,-33.691,-27.344,-31.250,-13.184,0.000
1606128113.517,-62.988,-31.250,-40.039,-82.520,0.000
1606128113.521,-69.336,-38.086,-36.133,-84.473,0.000
1606128113.525,-39.062,-16.113,-30.762,-11.230,0.000
1606128113.528,-11.719,1.953,-33.691,43.457,0.000
1606128113.532,-23.926,-26.367,-36.133,6.348,0.000
1606128113.536,-53.711,-38.086,-27.344,-77.637,0.000
1606128113.540,-62.500,-35.645,-24.902,-93.262,0.000
1606128113.544,-43.457,-27.832,-32.227,-20.508,0.000
1606128113.548,-24.414,-22.949,-35.156,35.645,0.000
1606128113.552,-21.484,-26.855,-37.109,3.906,0.000
1606128113.556,-50.293,-34.668,-41.016,-72.266,0.000
1606128113.560,-82.520,-42.969,-46.387,-95.703,0.000
1606128113.564,-59.570,-27.344,-45.410,-41.992,0.000
1606128113.568,-27.344,-14.648,-37.109,25.391,0.000
1606128113.571,-24.902,-32.715,-26.855,21.484,0.000
1606128113.575,-51.270,-43.457,-27.344,-54.199,0.000
1606128113.579,-69.824,-39.551,-36.133,-91.309,0.000
1606128113.583,-56.152,-27.832,-43.945,-42.969,0.000
1606128113.587,-20.996,-20.508,-38.086,30.273,0.000
1606128113.591,-16.113,-21.484,-38.574,22.949,0.000
1606128113.595,-31.250,-28.809,-41.016,-56.152,0.000
1606128113.599,-51.270,-33.203,-38.086,-96.680,0.000
1606128113.603,-62.012,-33.203,-40.039,-57.129,0.000
1606128113.607,-34.180,-7.812,-41.992,8.789,0.000
1606128113.611,-32.227,-12.207,-40.039,17.090,0.000
1606128113.614,-56.152,-36.621,-32.715,-42.480,0.000
1606128113.618,-64.941,-29.785,-32.227,-86.914,0.000
1606128113.622,-51.758,-21.484,-41.992,-52.734,0.000
1606128113.626,-20.996,-15.625,-29.785,26.367,0.000
1606128113.630,-7.324,-20.996,-17.578,48.340,0.000
1606128113.634,-32.227,-23.926,-25.879,-20.996,0.000
1606128113.638,-51.758,-28.320,-33.691,-79.590,0.000
1606128113.642,-36.621,-34.668,-35.156,-50.781,0.000
1606128113.646,-13.672,-32.227,-24.414,31.738,0.000
1606128113.650,1.465,-34.668,-17.090,47.852,0.000
1606128113.653,-38.574,-39.062,-17.090,-18.555,0.000
1606128113.657,-91.797,-38.574,-22.949,-85.938,0.000
1606128113.661,-65.918,-35.156,-19.043,-66.406,0.000
1606128113.665,-37.598,-33.203,-13.672,16.113,0.000
1606128113.669,-43.457,-40.039,-13.184,44.922,0.000
1606128113.673,-46.875,-47.363,-12.207,-8.301,0.000
1606128113.677,-64.453,-51.758,-28.809,-80.566,0.000
1606128113.681,-76.660,-50.781,-31.250,-78.125,0.000
1606128113.685,-40.527,-47.852,-18.066,9.766,0.000
1606128113.689,-17.578,-47.852,-14.648,61.523,0.000
1606128113.693,-31.250,-41.016,-15.137,16.602,0.000
1606128113.696,-45.410,-31.738,-8.789,-45.898,0.000
1606128113.700,-55.176,-37.598,-14.160,-57.129,0.000
1606128113.704,-19.043,-32.227,-20.020,-7.324,0.000
1606128113.708,7.812,-20.020,-13.672,48.828,0.000
1606128113.712,-23.438,-29.785,-15.137,24.902,0.000
1606128113.716,-51.758,-45.410,-17.578,-65.918,0.000
1606128113.720,-64.941,-46.387,-18.066,-86.914,0.000
1606128113.724,-41.504,-39.062,-13.672,-15.137,0.000
1606128113.728,-24.902,-35.156,-9.766,47.363,0.000
1606128113.732,-34.668,-36.133,-13.184,21.484,0.000
1606128113.736,-60.059,-42.480,-21.484,-57.617,0.000
1606128113.739,-68.848,-44.922,-20.020,-88.867,0.000
1606128113.743,-45.410,-40.039,-27.344,-28.320,0.000
1606128113.747,-20.020,-32.227,-26.367,41.992,0.000
1606128113.751,-22.461,-37.109,-14.160,30.762,0.000
1606128113.755,-49.805,-35.645,-15.625,-41.992,0.000
1606128113.759,-67.383,-36.621,-16.602,-89.355,0.000
1606128113.763,-53.223,-37.109,-15.137,-44.922,0.000
1606128113.767,-24.414,-35.645,-12.207,33.691,0.000
1606128113.771,-26.855,-42.480,-17.578,32.715,0.000
1606128113.775,-56.152,-42.480,-22.949,-48.828,0.000
1606128113.778,-72.266,-42.969,-19.043,-101.074,0.000
1606128113.782,-55.664,-33.203,-14.648,-62.012,0.000
1606128113.786,-30.273,-23.926,-20.508,20.508,0.000
1606128113.790,-8.789,-23.438,-26.855,35.156,0.000
1606128113.794,-38.086,-33.203,-32.715,-43.457,0.000
1606128113.798,-90.820,-38.086,-33.203,-107.910,0.000
1606128113.802,-83.008,-39.062,-25.391,-82.520,0.000
1606128113.806,-43.457,-20.020,-25.879,0.488,0.000
1606128113.810,-26.367,-12.695,-28.320,27.832,0.000
1606128113.814,-40.039,-45.898,-31.250,-25.391,0.000
1606128113.818,-61.035,-54.688,-30.273,-85.938,0.000
1606128113.821,-62.500,-38.086,-28.809,-81.055,0.000
1606128113.825,-33.691,-29.785,-27.344,-5.371,0.000
1606128113.829,-20.508,-29.785,-27.344,33.203,0.000
1606128113.833,-43.945,-36.621,-30.762,-14.648,0.000
1606128113.837,-64.941,-38.574,-36.621,-89.844,0.000
1606128113.841,-60.059,-35.645,-33.203,-87.402,0.000
1606128113.845,-32.227,-18.555,-24.902,-2.441,0.000
1606128113.849,-8.301,-16.113,-23.926,38.086,0.000
1606128113.853,-19.043,-34.180,-27.344,-5.859,0.000
1606128113.857,-40.039,-38.574,-39.062,-77.148,0.000
1606128113.861,-51.270,-41.016,-35.645,-85.449,0.000
1606128113.864,-38.574,-39.062,-19.531,-21.973,0.000
1606128113.868,-7.324,-29.785,-11.719,30.273,0.000
1606128113.872,-22.949,-29.785,-15.625,-2.441,0.000
1606128113.876,-54.688,-38.086,-28.809,-83.496,0.000
1606128113.880,-67.871,-39.551,-28.809,-97.168,0.000
1606128113.884,-41.992,-11.230,-21.484,-28.809,0.000
1606128113.888,-18.555,8.789,-23.926,24.902,0.000
1606128113.892,-36.133,-21.973,-19.043,2.930,0.000
1606128113.896,-57.617,-30.762,-15.625,-65.430,0.000
1606128113.900,-62.500,-23.926,-22.949,-83.984,0.000
1606128113.903,-40.039,-21.973,-25.879,-24.902,0.000
1606128113.907,-16.113,-23.438,-19.043,33.691,0.000
1606128113.911,-21.973,-36.133,-17.090,13.672,0.000
1606128113.915,-40.039,-34.180,-24.414,-65.918,0.000
1606128113.919,-47.363,-34.668,-30.273,-86.426,0.000
1606128113.923,-42.480,-36.133,-21.973,-45.898,0.000
1606128113.927,-30.762,-28.809,-18.066,11.719,0.000
1606128113.931,-21.973,-28.320,-24.414,20.508,0.000
1606128113.935,-44.922,-26.855,-28.320,-53.223,0.000
1606128113.939,-54.199,-31.250,-26.367,-97.168,0.000
1606128113.943,-47.363,-35.156,-24.414,-64.453,0.000
1606128113.946,-12.695,-16.602,-31.738,8.789,0.000
1606128113.950,7.812,-21.973,-29.785,22.461,0.000
1606128113.954,-33.203,-39.551,-30.762,-49.316,0.000
1606128113.958,-55.176,-38.086,-33.691,-91.797,0.000
1606128113.962,-40.527,-26.367,-30.762,-58.594,0.000
1606128113.966,-2.930,-19.531,-30.762,12.695,0.000
1606128113.970,4.883,-21.973,-25.879,25.391,0.000
1606128113.974,-13.672,-28.320,-25.391,-36.621,0.000
1606128113.978,-42.480,-36.133,-29.297,-89.355,0.000
1606128113.982,-49.805,-37.598,-25.391,-75.195,0.000
1606128113.986,-25.879,-19.531,-29.785,-3.906,0.000
1606128113.989,-12.207,-9.277,-28.320,26.855,0.000
1606128113.993,-23.438,-30.762,-24.902,-16.602,0.000
1606128113.997,-61.523,-39.551,-30.273,-86.914,0.000
1606128114.001,-62.500,-45.410,-30.762,-82.031,0.000
1606128114.005,-23.438,-42.969,-24.414,7.324,0.000
1606128114.009,7.324,-26.855,-22.949,45.898,0.000
1606128114.013,-10.254,-27.344,-23.926,-11.719,0.000
1606128114.017,-51.758,-29.297,-27.832,-90.820,0.000
1606128114.021,-62.500,-21.973,-39.551,-98.145,0.000
1606128114.025,-22.949,-9.277,-43.945,-30.273,0.000
1606128114.028,0.488,-11.719,-43.457,19.043,0.000
1606128114.032,-36.133,-25.391,-42.480,-5.859,0.000
1606128114.036,-51.270,-21.973,-44.922,-84.473,0.000
1606128114.040,-56.641,-24.414,-46.387,-99.121,0.000
1606128114.044,-58.594,-25.879,-37.109,-26.367,0.000
1606128114.048,-23.926,-19.531,-36.133,26.855,0.000
1606128114.052,-22.949,-19.043,-46.387,-13.184,0.000
1606128114.056,-44.434,-27.344,-48.828,-83.984,0.000
1606128114.060,-49.316,-32.715,-48.340,-97.168,0.000
1606128114.064,-21.484,-25.879,-53.223,-34.180,0.000
1606128114.068,10.742,-21.973,-48.340,34.180,0.000
1606128114.071,10.254,-21.973,-37.598,21.484,0.000
1606128114.075,-15.137,-31.250,-50.781,-57.617,0.000
1606128114.079,-12.695,-37.598,-55.664,-88.867,0.000
1606128114.083,-5.371,-28.809,-31.738,-41.016,0.000
1606128114.087,4.395,-13.184,-21.973,27.344,0.000
1606128114.091,17.578,-21.973,-28.320,26.367,0.000
1606128114.095,-7.812,-42.480,-36.133,-51.758,0.000
1606128114.099,-23.438,-36.621,-38.574,-88.867,0.000
1606128114.103,-17.090,-20.508,-38.086,-51.270,0.000
1606128114.107,4.395,-16.602,-33.203,22.461,0.000
1606128114.111,7.324,-35.156,-33.203,29.297,0.000
1606128114.114,-19.531,-44.434,-38.574,-44.922,0.000
1606128114.118,-42.969,-32.227,-33.203,-84.961,0.000
1606128114.122,-32.227,-39.062,-32.715,-47.363,0.000
1606128114.126,21.484,-28.320,-26.367,28.809,0.000
1606128114.130,17.090,-17.090,-19.043,40.527,0.000
1606128114.134,-27.832,-26.855,-26.855,-23.438,0.000
1606128114.138,-38.574,-30.273,-29.785,-76.660,0.000
1606128114.142,-41.016,-39.551,-36.621,-62.500,0.000
1606128114.146,-23.926,-39.551,-39.062,10.742,0.000
1606128114.150,-14.160,-37.598,-27.832,36.621,0.000
1606128114.153,-31.738,-37.109,-32.715,-23.438,0.000
1606128114.157,-54.199,-40.039,-42.969,-87.402,0.000
1606128114.161,-53.223,-35.156,-36.133,-77.637,0.000
1606128114.165,-36.621,-23.438,-27.344,-3.418,0.000
1606128114.169,-0.977,-15.137,-27.344,26.367,0.000
1606128114.173,-15.137,-26.367,-24.902,-27.344,0.000
1606128114.177,-59.082,-44.434,-34.668,-98.145,0.000
1606128114.181,-43.945,-39.551,-30.273,-90.332,0.000
1606128114.185,-18.555,-30.273,-16.602,-4.883,0.000
1606128114.189,0.000,-25.879,-20.508,41.504,0.000
1606128114.193,-13.672,-27.832,-29.297,-8.789,0.000
1606128114.196,-43.945,-29.297,-33.203,-84.961,0.000
1606128114.200,-49.316,-33.203,-32.715,-92.773,0.000
1606128114.204,-22.949,-34.668,-22.461,-20.996,0.000
1606128114.208,7.324,-24.902,-20.020,31.738,0.000
1606128114.212,-9.277,-24.414,-24.414,6.348,0.000
1606128114.216,-34.668,-43.457,-30.273,-73.242,0.000
1606128114.220,-32.227,-55.176,-42.480,-85.449,0.000
1606128114.224,-27.344,-25.879,-38.574,-19.043,0.000
1606128114.228,-9.766,-0.977,-28.320,21.484,0.000
1606128114.232,-11.719,-21.973,-30.273,0.488,0.000
1606128114.236,-39.551,-40.039,-31.250,-73.242,0.000
1606128114.239,-62.988,-42.480,-32.227,-101.562,0.000
1606128114.243,-41.016,-32.227,-31.738,-42.480,0.000
1606128114.247,-14.160,-29.785,-29.297,20.996,0.000
1606128114.251,-20.996,-33.691,-32.715,7.324,0.000
1606128114.255,-30.762,-40.039,-32.227,-64.941,0.000
1606128114.259,-55.176,-38.574,-31.250,-96.191,0.000
1606128114.263,-61.035,-30.762,-30.273,-41.016,0.000
1606128114.267,-30.762,-11.230,-37.598,23.438,0.000
1606128114.271,-30.762,-11.230,-46.875,13.672,0.000
1606128114.275,-39.062,-33.203,-35.645,-59.570,0.000
1606128114.278,-50.293,-34.180,-28.320,-103.516,0.000
1606128114.282,-38.574,-21.484,-34.668,-59.082,0.000
1606128114.286,-12.207,-19.531,-33.691,12.695,0.000
1606128114.290,-8.301,-27.344,-31.738,17.090,0.000
1606128114.294,-31.250,-30.762,-38.086,-47.852,0.000
1606128114.298,-65.918,-31.738,-40.527,-96.680,0.000
1606128114.302,-53.223,-24.414,-32.715,-69.336,0.000
1606128114.306,-19.531,-14.648,-30.762,-1.465,0.000
1606128114.310,-20.020,-21.484,-30.273,15.137,0.000
1606128114.314,-37.598,-27.344,-32.715,-46.387,0.000
1606128114.318,-62.012,-31.738,-38.086,-101.562,0.000
1606128114.321,-60.059,-30.762,-36.621,-74.707,0.000
1606128114.325,-9.766,-11.230,-33.203,8.789,0.000
1606128114.329,11.719,-11.719,-35.156,31.250,0.000
1606128114.333,-33.691,-25.879,-34.180,-30.762,0.000
1606128114.337,-63.965,-33.691,-39.551,-96.191,0.000
1606128114.341,-53.223,-30.762,-46.387,-87.402,0.000
1606128114.345,-30.273,-17.578,-37.598,-14.648,0.000
1606128114.349,-27.832,-22.461,-33.203,23.438,0.000
1606128114.353,-43.945,-30.273,-28.320,-15.137,0.000
1606128114.357,-73.242,-28.809,-25.879,-94.238,0.000
1606128114.361,-78.125,-37.598,-28.809,-100.098,0.000
1606128114.364,-51.270,-21.973,-30.762,-22.461,0.000
1606128114.368,-21.484,-1.953,-31.250,27.832,0.000
1606128114.372,-21.484,-20.020,-28.320,-3.418,0.000
1606128114.376,-54.199,-32.715,-28.809,-84.961,0.000
1606128114.380,-44.922,-33.203,-33.691,-94.727,0.000
1606128114.384,-30.762,-28.320,-36.621,-18.555,0.000
1606128114.388,-32.227,-27.832,-24.902,24.902,0.000
1606128114.392,-29.785,-33.203,-21.484,-3.418,0.000
1606128114.396,-56.152,-33.203,-26.855,-75.195,0.000
1606128114.400,-67.383,-34.668,-32.715,-93.262,0.000
1606128114.403,-51.270,-29.785,-34.180,-34.180,0.000
1606128114.407,-30.273,-20.508,-37.109,25.391,0.000
1606128114.411,-20.508,-26.367,-26.855,11.719,0.000
1606128114.415,-45.410,-24.902,-19.531,-62.012,0.000
1606128114.419,-65.430,-26.855,-26.855,-86.426,0.000
1606128114.423,-43.457,-25.879,-24.902,-35.156,0.000
1606128114.427,-9.277,-19.043,-27.344,24.414,0.000
1606128114.431,-20.996,-24.414,-20.996,18.066,0.000
1606128114.435,-59.570,-30.762,-17.578,-56.152,0.000
1606128114.439,-65.430,-34.180,-29.297,-98.145,0.000
1606128114.443,-46.875,-31.250,-25.391,-45.898,0.000
1606128114.446,-26.855,-5.859,-19.531,30.273,0.000
1606128114.450,-34.668,-20.020,-13.184,25.879,0.000
1606128114.454,-58.105,-40.039,-12.207,-49.805,0.000
1606128114.458,-61.035,-27.832,-21.484,-85.449,0.000
1606128114.462,-44.922,-19.043,-25.879,-48.828,0.000
1606128114.466,-13.184,-8.789,-20.996,22.461,0.000
1606128114.470,-20.508,-24.414,-18.066,28.320,0.000
1606128114.474,-48.828,-41.016,-16.602,-37.598,0.000
1606128114.478,-55.664,-37.598,-15.625,-79.102,0.000
1606128114.482,-38.086,-29.785,-13.672,-51.758,0.000
1606128114.486,-4.395,-15.137,-5.859,19.531,0.000
1606128114.489,6.836,-9.277,-7.324,41.016,0.000
1606128114.493,-13.184,-21.484,-17.578,-14.648,0.000
1606128114.497,-43.457,-31.250,-20.996,-74.707,0.000
1606128114.501,-47.363,-26.855,-20.996,-63.965,0.000
1606128114.505,-31.250,-7.812,-22.949,0.977,0.000
1606128114.509,-17.578,-6.348,-24.902,29.785,0.000
1606128114.513,-17.090,-25.879,-30.762,-20.020,0.000
1606128114.517,-52.246,-29.785,-25.879,-87.891,0.000
1606128114.521,-63.477,-37.109,-20.020,-77.637,0.000
1606128114.525,-27.832,-28.809,-16.602,-9.766,0.000
1606128114.528,-5.859,-21.973,-11.719,20.508,0.000
1606128114.532,-32.227,-31.250,-17.090,-19.043,0.000
1606128114.536,-61.035,-36.133,-27.344,-82.031,0.000
1606128114.540,-63.965,-35.645,-27.832,-84.961,0.000
1606128114.544,-42.969,-22.461,-23.926,-26.367,0.000
1606128114.548,-34.180,-6.348,-20.508,17.578,0.000
1606128114.552,-49.805,-24.414,-15.625,-12.207,0.000
1606128114.556,-73.242,-38.086,-18.066,-92.285,0.000
1606128114.560,-92.773,-39.551,-28.809,-105.469,0.000
1606128114.564,-68.359,-29.785,-25.879,-32.715,0.000
1606128114.568,-41.504,-17.578,-13.184,13.672,0.000
1606128114.571,-43.945,-29.785,-23.438,-18.066,0.000
1606128114.575,-56.641,-35.645,-37.109,-91.797,0.000
1606128114.579,-64.941,-40.039,-34.180,-115.234,0.000
1606128114.583,-46.875,-30.273,-27.832,-54.688,0.000
1606128114.587,-15.625,-13.672,-21.484,8.301,0.000
1606128114.591,-32.227,-37.109,-27.344,-0.977,0.000
1606128114.595,-66.895,-42.480,-21.973,-73.730,0.000
1606128114.599,-79.590,-50.781,-26.367,-106.934,0.000
1606128114.603,-63.477,-45.410,-40.039,-61.035,0.000
1606128114.607,-41.992,-32.227,-29.785,5.371,0.000
1606128114.611,-32.227,-39.551,-25.879,5.859,0.000
1606128114.614,-51.758,-41.504,-37.109,-68.359,0.000
1606128114.618,-58.594,-39.551,-44.434,-99.609,0.000
1606128114.622,-44.434,-36.621,-33.691,-54.688,0.000
1606128114.626,-24.414,-33.203,-17.578,11.719,0.000
1606128114.630,-19.043,-28.809,-8.789,29.297,0.000
1606128114.634,-29.297,-31.250,-16.602,-37.109,0.000
1606128114.638,-49.316,-42.969,-22.949,-88.867,0.000
1606128114.642,-58.594,-43.457,-24.414,-58.105,0.000
1606128114.646,-29.785,-28.320,-20.508,12.695,0.000
1606128114.650,-20.996,-25.879,-23.438,28.320,0.000
1606128114.653,-38.574,-40.527,-35.156,-27.832,0.000
1606128114.657,-44.922,-39.551,-31.738,-80.566,0.000
1606128114.661,-32.715,-27.832,-29.785,-65.430,0.000
1606128114.665,-26.367,-8.301,-35.645,11.230,0.000
1606128114.669,-11.230,0.488,-35.645,34.668,0.000
1606128114.673,-8.789,-29.785,-30.762,-20.508,0.000
1606128114.677,-42.480,-32.715,-24.902,-76.172,0.000
1606128114.681,-40.527,-28.809,-22.949,-63.477,0.000
1606128114.685,-6.348,-12.207,-25.879,2.930,0.000
1606128114.689,7.324,-1.465,-28.809,33.203,0.000
1606128114.693,1.465,-31.250,-31.250,0.488,0.000
1606128114.696,-20.508,-42.969,-20.020,-68.848,0.000
1606128114.700,-28.320,-34.180,-11.719,-76.660,0.000
1606128114.704,3.418,-17.578,-14.648,-6.348,0.000
1606128114.708,20.508,-18.066,-26.855,29.785,0.000
1606128114.712,-14.160,-27.344,-33.203,0.000,0.000
1606128114.716,-47.363,-36.133,-23.926,-64.941,0.000
1606128114.720,-47.363,-43.457,-25.391,-74.707,0.000
1606128114.724,-26.855,-29.297,-21.973,-12.207,0.000
1606128114.728,-19.531,-16.113,-14.160,30.273,0.000
1606128114.732,-31.738,-39.062,-37.109,-2.930,0.000
1606128114.736,-50.781,-50.781,-50.293,-84.473,0.000
1606128114.739,-70.801,-45.898,-36.621,-98.633,0.000
1606128114.743,-65.430,-32.227,-24.414,-36.621,0.000
1606128114.747,-16.602,-24.414,-14.160,31.738,0.000
1606128114.751,-3.418,-34.668,-28.320,29.785,0.000
1606128114.755,-45.410,-27.832,-41.504,-61.523,0.000
1606128114.759,-67.871,-20.508,-30.762,-106.445,0.000
1606128114.763,-67.871,-24.414,-25.391,-57.129,0.000
1606128114.767,-43.945,-31.250,-27.344,7.324,0.000
1606128114.771,-38.574,-32.227,-30.273,-2.441,0.000
1606128114.775,-66.406,-22.461,-34.668,-70.312,0.000
1606128114.778,-75.195,-25.879,-40.039,-100.098,0.000
1606128114.782,-48.828,-34.180,-37.598,-62.012,0.000
1606128114.786,-32.715,-5.859,-30.762,5.859,0.000
1606128114.790,-28.809,-12.695,-28.809,15.137,0.000
1606128114.794,-49.316,-42.969,-36.133,-54.688,0.000
1606128114.798,-65.430,-46.875,-46.875,-105.469,0.000
1606128114.802,-52.734,-45.898,-43.945,-77.637,0.000
1606128114.806,-22.461,-32.227,-35.156,-7.324,0.000
1606128114.810,-23.438,-27.344,-28.809,7.324,0.000
1606128114.814,-41.992,-27.344,-25.391,-42.969,0.000
1606128114.818,-57.617,-23.926,-33.691,-90.820,0.000
1606128114.821,-33.203,-30.762,-38.574,-72.266,0.000
1606128114.825,-15.625,-7.812,-41.016,-9.766,0.000
1606128114.829,-44.922,-3.906,-39.551,6.348,0.000
1606128114.833,-49.316,-31.250,-34.180,-40.527,0.000
1606128114.837,-59.570,-36.621,-38.086,-95.215,0.000
1606128114.841,-62.012,-57.129,-39.551,-87.891,0.000
1606128114.845,-32.715,-44.922,-40.039,-17.578,0.000
1606128114.849,-22.461,-29.785,-35.645,6.836,0.000
1606128114.853,-42.969,-37.109,-40.039,-44.434,0.000
1606128114.857,-63.477,-41.016,-44.434,-96.680,0.000
1606128114.861,-65.430,-44.434,-38.574,-93.750,0.000
1606128114.864,-48.340,-38.574,-36.621,-21.973,0.000
1606128114.868,-32.227,-38.086,-37.109,22.461,0.000
1606128114.872,-28.320,-42.969,-39.551,-14.648,0.000
1606128114.876,-63.477,-48.340,-47.852,-75.684,0.000
1606128114.880,-68.848,-53.711,-43.945,-71.777,0.000
1606128114.884,-35.645,-24.414,-26.367,-4.883,0.000
1606128114.888,-18.066,-11.719,-20.996,38.574,0.000
1606128114.892,-26.367,-36.621,-32.715,-0.977,0.000
1606128114.896,-63.477,-52.246,-39.062,-79.102,0.000
1606128114.900,-59.082,-53.711,-38.574,-83.984,0.000
1606128114.903,-34.668,-40.039,-30.762,-20.996,0.000
1606128114.907,-15.137,-39.062,-24.902,26.855,0.000
1606128114.911,-19.043,-39.062,-29.297,5.859,0.000
1606128114.915,-54.688,-27.832,-26.855,-61.523,0.000
1606128114.919,-61.523,-39.551,-28.809,-84.473,0.000
1606128114.923,-48.340,-45.898,-34.668,-33.691,0.000
1606128114.927,-20.996,-26.367,-32.227,21.973,0.000
1606128114.931,-20.508,-33.691,-25.879,4.395,0.000
1606128114.935,-53.223,-46.875,-28.809,-64.941,0.000
1606128114.939,-53.223,-44.434,-41.504,-94.727,0.000
1606128114.943,-25.879,-35.156,-41.504,-50.781,0.000
1606128114.946,-22.949,-22.949,-29.297,12.695,0.000
1606128114.950,-22.461,-27.832,-17.090,7.812,0.000
1606128114.954,-48.340,-31.738,-22.949,-55.176,0.000
1606128114.958,-75.195,-28.320,-34.668,-92.285,0.000
1606128114.962,-56.152,-32.227,-36.621,-56.641,0.000
1606128114.966,-31.738,-28.809,-34.668,8.789,0.000
1606128114.970,-35.156,-33.203,-32.715,7.324,0.000
1606128114.974,-56.641,-37.598,-38.574,-60.059,0.000
1606128114.978,-49.805,-31.738,-37.109,-93.750,0.000
1606128114.982,-45.410,-39.062,-34.668,-60.547,0.000
1606128114.986,-37.109,-32.227,-28.809,12.207,0.000
1606128114.989,-15.625,-32.227,-32.715,35.645,0.000
1606128114.993,-39.551,-46.875,-42.480,-25.879,0.000
1606128114.997,-62.988,-36.621,-32.715,-84.473,0.000
1606128115.001,-51.758,-31.738,-39.062,-65.430,0.000
1606128115.005,-20.020,-27.344,-41.016,15.625,0.000
1606128115.009,-14.160,-20.508,-26.855,38.086,0.000
1606128115.013,-25.879,-23.926,-25.879,-30.273,0.000
1606128115.017,-51.758,-29.297,-30.762,-85.449,0.000
1606128115.021,-54.688,-40.039,-31.738,-72.266,0.000
1606128115.025,-26.367,-16.113,-21.973,1.953,0.000
1606128115.028,-14.160,-3.418,-24.414,34.180,0.000
1606128115.032,-25.391,-27.832,-32.715,-21.973,0.000
1606128115.036,-47.852,-35.156,-29.297,-79.590,0.000
1606128115.040,-47.852,-42.480,-32.715,-81.055,0.000
1606128115.044,-26.367,-41.992,-26.855,-21.973,0.000
1606128115.048,0.488,-38.574,-23.926,27.344,0.000
1606128115.052,-19.043,-46.387,-33.691,-7.324,0.000
1606128115.056,-62.012,-41.016,-40.527,-79.102,0.000
1606128115.060,-58.594,-29.785,-38.574,-84.961,0.000
1606128115.064,-34.180,-19.043,-30.273,-23.926,0.000
1606128115.068,-21.484,-17.578,-33.691,19.043,0.000
1606128115.071,-35.156,-40.039,-35.645,-6.836,0.000
1606128115.075,-61.035,-59.082,-30.273,-80.078,0.000
1606128115.079,-70.801,-61.035,-33.203,-89.355,0.000
1606128115.083,-49.805,-47.363,-37.598,-24.902,0.000
1606128115.087,-19.043,-31.738,-40.527,29.785,0.000
1606128115.091,-20.508,-20.020,-34.668,11.719,0.000
1606128115.095,-41.016,-26.855,-31.250,-67.383,0.000
1606128115.099,-54.688,-43.457,-35.645,-97.168,0.000
1606128115.103,-54.199,-27.832,-32.715,-39.551,0.000
1606128115.107,-33.691,14.160,-30.273,23.438,0.000
1606128115.111,-36.621,-5.371,-25.391,13.672,0.000
1606128115.114,-55.664,-39.551,-19.043,-56.641,0.000
1606128115.118,-62.012,-40.039,-21.484,-93.750,0.000
1606128115.122,-44.922,-38.574,-31.250,-50.781,0.000
1606128115.126,-23.926,-26.855,-27.344,16.113,0.000
1606128115.130,-5.859,-27.344,-20.996,15.137,0.000
1606128115.134,-31.250,-32.715,-27.344,-45.898,0.000
1606128115.138,-76.172,-43.457,-26.367,-90.332,0.000
1606128115.142,-55.176,-49.805,-23.926,-61.523,0.000
1606128115.146,-21.973,-45.410,-25.391,5.371,0.000
1606128115.150,-10.742,-36.621,-25.391,16.602,0.000
1606128115.153,-32.715,-36.133,-25.879,-45.410,0.000
1606128115.157,-46.387,-34.668,-21.973,-89.355,0.000
1606128115.161,-35.156,-32.715,-25.391,-57.129,0.000
1606128115.165,-2.930,-18.066,-28.320,15.137,0.000
1606128115.169,2.441,-18.066,-22.949,27.832,0.000
1606128115.173,-34.180,-34.668,-20.996,-27.344,0.000
1606128115.177,-44.922,-37.109,-21.973,-78.613,0.000
1606128115.181,-30.762,-32.227,-22.461,-59.570,0.000
1606128115.185,-6.348,-24.414,-20.508,9.766,0.000
1606128115.189,8.301,-24.902,-20.508,38.086,0.000
1606128115.193,-15.625,-32.715,-30.273,-7.812,0.000
1606128115.196,-32.227,-36.133,-33.203,-71.777,0.000
1606128115.200,-23.926,-37.598,-27.832,-57.617,0.000
1606128115.204,-20.020,-28.809,-24.902,21.484,0.000
1606128115.208,-7.324,-29.297,-28.809,45.410,0.000
1606128115.212,-18.066,-35.156,-34.180,0.488,0.000
1606128115.216,-43.945,-30.762,-33.203,-60.059,0.000
1606128115.220,-48.828,-32.715,-29.297,-65.430,0.000
1606128115.224,-20.996,-21.973,-22.461,4.395,0.000
1606128115.228,-3.418,-14.160,-22.949,42.969,0.000
1606128115.232,9.277,-26.855,-32.227,7.324,0.000
1606128115.236,-19.531,-33.691,-32.227,-60.547,0.000
1606128115.239,-62.012,-42.480,-22.461,-77.637,0.000
1606128115.243,-41.504,-34.668,-19.043,-17.090,0.000
1606128115.247,-14.648,-26.855,-16.113,39.551,0.000
1606128115.251,-15.625,-36.621,-13.672,10.742,0.000
1606128115.255,-46.875,-42.480,-27.344,-80.078,0.000
1606128115.259,-60.059,-47.852,-32.715,-96.680,0.000
1606128115.263,-33.691,-35.645,-29.297,-30.762,0.000
1606128115.267,-4.395,-11.230,-28.809,32.715,0.000
1606128115.271,-2.441,-20.508,-21.484,26.855,0.000
1606128115.275,-31.250,-28.320,-24.902,-56.152,0.000
1606128115.278,-36.133,-38.574,-34.180,-95.703,0.000
1606128115.282,-18.066,-37.598,-23.438,-34.180,0.000
1606128115.286,-12.695,-3.418,-12.207,36.621,0.000
1606128115.290,-11.719,-14.160,-18.555,28.320,0.000
1606128115.294,-41.504,-43.945,-23.926,-52.246,0.000
1606128115.298,-59.082,-46.387,-28.320,-95.215,0.000
1606128115.302,-46.875,-41.016,-32.227,-52.734,0.000
1606128115.306,-20.996,-32.227,-35.156,13.672,0.000
1606128115.310,-13.672,-31.738,-36.621,16.602,0.000
1606128115.314,-27.832,-36.621,-37.598,-43.457,0.000
1606128115.318,-41.992,-41.992,-36.621,-86.914,0.000
1606128115.321,-31.738,-40.527,-31.738,-55.664,0.000
1606128115.325,0.488,-33.203,-30.762,21.484,0.000
1606128115.329,0.977,-37.598,-25.391,29.785,0.000
1606128115.333,-29.785,-43.457,-28.320,-43.457,0.000
1606128115.337,-51.270,-38.574,-34.180,-88.379,0.000
1606128115.341,-35.156,-41.504,-32.715,-63.965,0.000
1606128115.345,-17.090,-41.504,-35.156,-2.930,0.000
1606128115.349,-22.949,-34.668,-33.203,15.625,0.000
1606128115.353,-33.203,-37.598,-28.809,-30.273,0.000
1606128115.357,-42.969,-34.668,-35.645,-83.984,0.000
1606128115.361,-39.062,-31.250,-43.945,-77.148,0.000
1606128115.364,-19.043,-39.551,-37.109,9.766,0.000
1606128115.368,21.973,-29.785,-23.926,52.734,0.000
1606128115.372,4.883,-31.250,-15.625,-2.441,0.000
1606128115.376,-45.898,-40.527,-23.926,-67.871,0.000
1606128115.380,-43.457,-33.691,-32.715,-65.430,0.000
1606128115.384,-14.160,-28.809,-24.902,8.301,0.000
1606128115.388,5.371,-24.902,-18.066,45.898,0.000
1606128115.392,-16.113,-27.832,-14.160,0.000,0.000
1606128115.396,-33.203,-28.320,-20.508,-58.594,0.000
1606128115.400,-20.996,-23.926,-24.414,-65.918,0.000
1606128115.403,-13.672,-27.344,-9.766,2.441,0.000
1606128115.407,-8.301,-29.785,-13.672,47.852,0.000
1606128115.411,-11.719,-36.621,-29.297,12.695,0.000
1606128115.415,-38.086,-36.621,-36.621,-62.500,0.000
1606128115.419,-48.340,-38.574,-27.832,-76.172,0.000
1606128115.423,-7.324,-32.227,-21.484,-4.883,0.000
1606128115.427,12.695,-20.020,-26.855,41.992,0.000
1606128115.431,-7.324,-28.320,-19.043,22.461,0.000
1606128115.435,-30.273,-43.457,-15.625,-49.316,0.000
1606128115.439,-37.109,-45.410,-21.973,-63.965,0.000
1606128115.443,3.418,-23.926,-23.926,-9.277,0.000
1606128115.446,14.160,-4.883,-26.855,28.320,0.000
1606128115.450,-14.648,-9.766,-28.320,8.789,0.000
1606128115.454,-36.133,-22.949,-29.785,-54.199,0.000
1606128115.458,-55.176,-25.879,-32.227,-83.496,0.000
1606128115.462,-32.227,-23.438,-30.762,-42.480,0.000
1606128115.466,-1.465,-20.996,-23.438,17.090,0.000
1606128115.470,-3.906,-16.602,-19.531,12.207,0.000
1606128115.474,-30.273,-20.020,-19.043,-51.758,0.000
1606128115.478,-43.457,-17.578,-17.578,-83.984,0.000
1606128115.482,-18.555,-18.066,-20.508,-51.758,0.000
1606128115.486,12.207,-21.484,-24.902,14.160,0.000
1606128115.489,4.883,-21.973,-25.879,24.414,0.000
1606128115.493,-14.648,-21.973,-26.855,-34.668,0.000
1606128115.497,-37.109,-28.320,-30.762,-75.684,0.000
1606128115.501,-35.645,-35.645,-39.062,-58.105,0.000
1606128115.505,-18.555,-30.273,-38.086,-0.488,0.000
1606128115.509,-14.160,-19.531,-31.250,23.438,0.000
1606128115.513,-27.832,-21.484,-31.738,-24.414,0.000
1606128115.517,-41.016,-24.414,-30.273,-72.754,0.000
1606128115.521,-38.574,-23.926,-26.367,-62.988,0.000
1606128115.525,-9.277,-14.160,-29.297,2.441,0.000
1606128115.528,-2.930,-5.371,-39.062,27.832,0.000
1606128115.532,-44.922,-29.785,-46.875,-30.762,0.000
1606128115.536,-69.336,-37.598,-41.016,-99.121,0.000
1606128115.540,-63.965,-30.762,-29.785,-80.078,0.000
1606128115.544,-38.574,-33.203,-32.715,-2.930,0.000
1606128115.548,-12.695,-26.855,-30.762,34.180,0.000
1606128115.552,-21.484,-18.555,-26.855,-7.812,0.000
1606128115.556,-50.781,-24.902,-34.668,-80.078,0.000
1606128115.560,-52.246,-31.250,-35.156,-81.055,0.000
1606128115.564,-28.320,-32.715,-27.344,-12.207,0.000
1606128115.568,-12.207,-27.344,-22.461,33.203,0.000
1606128115.571,-24.414,-28.809,-32.227,-3.418,0.000
1606128115.575,-57.129,-34.180,-35.645,-84.473,0.000
1606128115.579,-46.875,-35.645,-44.434,-95.703,0.000
1606128115.583,-31.250,-36.621,-56.152,-35.156,0.000
1606128115.587,-24.414,-9.766,-38.086,16.113,0.000
1606128115.591,-19.043,-4.883,-18.555,0.000,0.000
1606128115.595,-44.922,-28.809,-17.578,-80.566,0.000
1606128115.599,-63.477,-38.574,-28.809,-109.863,0.000
1606128115.603,-45.898,-33.203,-27.832,-42.969,0.000
1606128115.607,-2.441,-24.414,-20.996,27.344,0.000
1606128115.611,-14.648,-32.715,-27.344,8.789,0.000
1606128115.614,-57.617,-33.691,-35.645,-73.730,0.000
1606128115.618,-62.012,-38.086,-38.574,-97.656,0.000
1606128115.622,-46.875,-44.434,-41.016,-49.805,0.000
1606128115.626,-29.785,-26.855,-43.457,5.859,0.000
1606128115.630,-25.391,-27.832,-37.598,9.766,0.000
1606128115.634,-45.898,-41.504,-27.344,-62.012,0.000
1606128115.638,-67.383,-38.574,-35.156,-103.516,0.000
1606128115.642,-56.152,-35.156,-39.551,-62.012,0.000
1606128115.646,-21.973,-36.133,-25.879,1.953,0.000
1606128115.650,-17.578,-41.504,-29.297,2.930,0.000
1606128115.653,-45.898,-40.039,-41.504,-68.848,0.000
1606128115.657,-62.988,-41.016,-43.945,-115.723,0.000
1606128115.661,-34.180,-38.086,-39.551,-66.895,0.000
1606128115.665,-3.418,-17.578,-30.273,14.648,0.000
1606128115.669,-16.113,-14.160,-33.203,18.066,0.000
1606128115.673,-39.551,-37.598,-41.992,-41.992,0.000
1606128115.677,-54.199,-41.504,-46.387,-89.844,0.000
1606128115.681,-57.129,-38.086,-40.527,-73.730,0.000
1606128115.685,-28.809,-37.109,-27.832,-1.953,0.000
1606128115.689,-12.695,-39.551,-28.809,18.555,0.000
1606128115.693,-34.668,-37.598,-35.645,-37.109,0.000
1606128115.696,-53.223,-32.227,-38.086,-92.773,0.000
1606128115.700,-46.875,-35.645,-37.598,-77.637,0.000
1606128115.704,-25.391,-33.691,-35.645,-4.395,0.000
1606128115.708,6.836,-28.320,-34.668,25.391,0.000
1606128115.712,-12.207,-37.109,-33.203,-16.602,0.000
1606128115.716,-46.387,-37.598,-28.320,-72.754,0.000
1606128115.720,-40.039,-28.809,-28.320,-83.008,0.000
1606128115.724,-29.297,-24.414,-28.320,-22.461,0.000
1606128115.728,-22.461,-15.625,-33.203,19.043,0.000
1606128115.732,-30.273,-20.996,-35.645,-20.020,0.000
1606128115.736,-51.758,-34.668,-28.320,-74.219,0.000
1606128115.739,-53.223,-35.156,-20.996,-72.754,0.000
1606128115.743,-14.648,-20.020,-18.066,-9.277,0.000
1606128115.747,-0.488,-18.066,-22.461,28.809,0.000
1606128115.751,-21.484,-22.949,-18.555,-1.953,0.000
1606128115.755,-40.039,-22.949,-20.508,-70.801,0.000
1606128115.759,-54.688,-36.621,-32.227,-86.426,0.000
1606128115.763,-26.367,-34.668,-30.762,-19.043,0.000
1606128115.767,0.977,6.348,-28.320,30.762,0.000
1606128115.771,-16.113,-0.488,-28.809,4.883,0.000
1606128115.775,-33.691,-31.250,-33.691,-65.430,0.000
1606128115.778,-39.062,-32.227,-35.156,-85.938,0.000
1606128115.782,-21.973,-35.156,-28.809,-31.250,0.000
1606128115.786,-4.883,-35.645,-26.855,24.414,0.000
1606128115.790,-8.301,-38.574,-28.320,11.719,0.000
1606128115.794,-39.551,-39.062,-22.949,-60.547,0.000
1606128115.798,-55.176,-35.645,-19.043,-92.773,0.000
1606128115.802,-38.086,-31.250,-21.484,-43.945,0.000
1606128115.806,-14.160,-24.414,-29.297,20.508,0.000
1606128115.810,-11.230,-25.391,-24.902,19.531,0.000
1606128115.814,-20.020,-26.367,-25.391,-51.758,0.000
1606128115.818,-39.062,-31.738,-31.738,-90.332,0.000
1606128115.821,-43.945,-36.133,-25.879,-41.504,0.000
1606128115.825,-11.230,-35.645,-24.902,22.461,0.000
1606128115.829,-7.324,-31.738,-24.902,22.949,0.000
1606128115.833,-25.391,-26.367,-23.438,-46.387,0.000
1606128115.837,-40.039,-26.367,-28.809,-103.516,0.000
1606128115.841,-41.504,-25.391,-32.227,-67.383,0.000
1606128115.845,-14.648,-20.508,-28.320,6.348,0.000
1606128115.849,-1.465,-19.043,-23.438,20.508,0.000
1606128115.853,-4.883,-18.555,-30.762,-37.109,0.000
1606128115.857,-24.902,-18.555,-29.785,-87.891,0.000
1606128115.861,-47.363,-37.598,-28.809,-73.242,0.000
1606128115.864,-20.020,-28.320,-37.598,-2.441,0.000
1606128115.868,-5.859,-6.348,-32.715,30.762,0.000
1606128115.872,-14.160,-22.461,-30.762,-19.043,0.000
1606128115.876,-28.320,-37.598,-31.738,-82.031,0.000
1606128115.880,-19.043,-34.668,-21.484,-68.848,0.000
1606128115.884,5.859,-25.879,-20.996,9.766,0.000
1606128115.888,2.930,-25.879,-28.320,36.621,0.000
1606128115.892,-16.602,-35.156,-29.297,-16.602,0.000
1606128115.896,-38.574,-39.551,-28.320,-76.660,0.000
1606128115.900,-36.621,-43.945,-26.855,-73.242,0.000
1606128115.903,-4.883,-29.785,-28.809,-1.953,0.000
1606128115.907,0.977,0.488,-28.809,49.316,0.000
1606128115.911,-11.230,-19.531,-23.438,11.719,0.000
1606128115.915,-33.203,-46.387,-23.926,-63.477,0.000
1606128115.919,-39.062,-43.457,-23.438,-70.312,0.000
1606128115.923,-15.137,-43.457,-14.648,-7.812,0.000
1606128115.927,3.418,-46.387,-13.672,39.551,0.000
1606128115.931,-0.977,-33.691,-14.160,17.090,0.000
1606128115.935,-27.832,-32.227,-21.973,-57.129,0.000
1606128115.939,-45.898,-42.969,-30.762,-82.031,0.000
1606128115.943,-22.461,-39.062,-21.484,-17.090,0.000
1606128115.946,5.371,-3.906,-20.996,43.945,0.000
1606128115.950,2.441,-1.953,-23.438,25.391,0.000
1606128115.954,-11.719,-32.227,-22.461,-49.316,0.000
1606128115.958,-38.574,-43.945,-26.855,-79.102,0.000
1606128115.962,-29.297,-37.598,-24.414,-32.227,0.000
1606128115.966,7.324,-21.484,-20.996,33.691,0.000
1606128115.970,-0.488,-28.320,-18.066,32.227,0.000
1606128115.974,-34.668,-36.621,-20.508,-53.223,0.000
1606128115.978,-44.434,-29.297,-22.461,-94.727,0.000
1606128115.982,-27.344,-27.832,-26.367,-57.617,0.000
1606128115.986,-1.465,-21.484,-28.809,2.441,0.000
1606128115.989,0.488,-15.625,-30.273,10.254,0.000
1606128115.993,-31.250,-26.367,-33.203,-58.105,0.000
1606128115.997,-49.805,-39.551,-26.855,-100.098,0.000
1606128116.001,-42.480,-44.434,-22.949,-62.500,0.000
1606128116.005,-20.020,-3.418,-24.902,12.695,0.000
1606128116.009,-5.371,5.859,-29.297,23.926,0.000
1606128116.013,-23.438,-29.785,-32.715,-42.969,0.000
1606128116.017,-42.480,-32.715,-29.785,-93.750,0.000
1606128116.021,-35.156,-35.156,-24.414,-62.988,0.000
1606128116.025,0.977,-32.227,-24.902,4.883,0.000
1606128116.028,4.883,-29.785,-23.926,18.066,0.000
1606128116.032,-34.180,-35.156,-23.438,-38.574,0.000
1606128116.036,-52.734,-41.504,-22.949,-101.562,0.000
1606128116.040,-53.711,-37.109,-17.578,-79.590,0.000
1606128116.044,-34.180,-27.832,-18.555,-0.977,0.000
1606128116.048,-28.320,-26.367,-24.414,20.020,0.000
1606128116.052,-38.574,-35.645,-24.414,-32.715,0.000
1606128116.056,-51.758,-39.062,-20.996,-91.309,0.000
1606128116.060,-52.734,-41.016,-19.043,-80.566,0.000
1606128116.064,-38.574,-44.434,-22.949,-11.230,0.000
1606128116.068,-17.090,-32.715,-26.367,20.996,0.000
1606128116.071,-25.391,-31.250,-29.297,-24.902,0.000
1606128116.075,-53.223,-39.062,-26.367,-83.984,0.000
1606128116.079,-46.875,-34.180,-18.555,-78.613,0.000
1606128116.083,-21.973,-15.625,-19.531,-10.254,0.000
1606128116.087,8.301,-3.906,-21.973,23.926,0.000
1606128116.091,-9.766,-26.367,-21.484,-19.531,0.000
1606128116.095,-42.480,-36.621,-26.367,-81.543,0.000
1606128116.099,-34.668,-37.109,-31.250,-85.938,0.000
1606128116.103,-15.625,-32.715,-26.367,-28.320,0.000
1606128116.107,3.906,-23.926,-23.926,20.020,0.000
1606128116.111,-0.488,-29.785,-23.438,3.906,0.000
1606128116.114,-26.855,-40.039,-27.344,-66.895,0.000
1606128116.118,-42.480,-39.551,-34.668,-93.262,0.000
1606128116.122,-23.438,-25.879,-23.926,-35.645,0.000
1606128116.126,8.789,-20.996,-10.254,31.250,0.000
1606128116.130,4.883,-24.414,-13.672,27.832,0.000
1606128116.134,-30.762,-26.367,-27.344,-60.059,0.000
1606128116.138,-42.480,-32.715,-33.691,-94.238,0.000
1606128116.142,-20.020,-34.180,-27.344,-30.273,0.000
1606128116.146,-5.371,-18.555,-18.555,25.391,0.000
1606128116.150,-8.301,-9.766,-18.066,19.043,0.000
1606128116.153,-13.672,-27.344,-26.855,-49.805,0.000
1606128116.157,-38.086,-44.434,-25.391,-90.820,0.000
1606128116.161,-41.016,-40.039,-22.949,-55.176,0.000
1606128116.165,-7.812,-22.461,-22.461,13.184,0.000
1606128116.169,-1.465,-25.879,-19.531,25.391,0.000
1606128116.173,-27.344,-34.668,-26.367,-44.434,0.000
1606128116.177,-46.875,-32.715,-31.738,-94.238,0.000
1606128116.181,-40.527,-30.273,-30.273,-54.688,0.000
1606128116.185,-14.648,-11.230,-22.461,28.320,0.000
1606128116.189,-6.836,-8.301,-18.555,45.410,0.000
1606128116.193,-26.855,-29.297,-21.973,-25.879,0.000
1606128116.196,-45.410,-34.668,-23.926,-83.008,0.000
1606128116.200,-43.945,-37.598,-27.344,-61.035,0.000
1606128116.204,-4.883,-37.109,-26.367,7.324,0.000
1606128116.208,-1.953,-36.133,-20.020,26.855,0.000
1606128116.212,-34.180,-42.480,-22.461,-23.926,0.000
1606128116.216,-43.457,-44.922,-27.832,-82.031,0.000
1606128116.220,-44.434,-47.363,-29.785,-65.430,0.000
1606128116.224,-12.695,-34.668,-22.461,25.391,0.000
1606128116.228,13.672,-18.555,-16.602,52.734,0.000
1606128116.232,-13.672,-29.785,-23.438,-12.207,0.000
1606128116.236,-43.457,-41.992,-25.391,-79.590,0.000
1606128116.239,-42.969,-43.945,-21.973,-70.801,0.000
1606128116.243,-14.160,-34.668,-16.602,13.184,0.000
1606128116.247,0.977,-17.090,-20.508,44.434,0.000
1606128116.251,-16.113,-17.578,-28.320,-0.977,0.000
1606128116.255,-41.992,-24.414,-32.227,-68.848,0.000
1606128116.259,-50.781,-25.391,-29.297,-80.566,0.000
1606128116.263,-28.320,-20.996,-25.391,-9.277,0.000
1606128116.267,-14.648,-26.367,-23.926,37.109,0.000
1606128116.271,-19.531,-33.203,-24.414,1.953,0.000
1606128116.275,-42.969,-36.621,-28.320,-73.730,0.000
1606128116.278,-69.824,-41.992,-27.832,-88.379,0.000
1606128116.282,-45.410,-30.762,-22.461,-26.367,0.000
1606128116.286,-17.578,-19.531,-22.949,26.367,0.000
1606128116.290,-27.832,-30.762,-24.414,5.859,0.000
1606128116.294,-55.176,-40.527,-22.461,-71.289,0.000
1606128116.298,-62.500,-38.574,-26.855,-98.145,0.000
1606128116.302,-46.875,-31.738,-33.691,-47.363,0.000
1606128116.306,-25.391,-27.344,-34.668,13.184,0.000
1606128116.310,-23.438,-28.320,-32.715,9.766,0.000
1606128116.314,-46.875,-32.715,-37.109,-64.453,0.000
1606128116.318,-58.594,-38.086,-34.668,-99.609,0.000
1606128116.321,-39.062,-30.273,-30.762,-54.199,0.000
1606128116.325,-11.230,-13.184,-33.691,14.648,0.000
1606128116.329,7.812,-6.836,-27.832,27.344,0.000
1606128116.333,-32.227,-22.949,-28.320,-46.875,0.000
1606128116.337,-75.195,-38.574,-33.203,-98.145,0.000
1606128116.341,-51.270,-41.504,-28.809,-52.734,0.000
1606128116.345,-20.020,-34.668,-29.785,13.672,0.000
1606128116.349,-16.602,-30.762,-32.227,13.672,0.000
1606128116.353,-35.156,-39.062,-30.762,-47.852,0.000
1606128116.357,-60.059,-46.387,-33.203,-95.703,0.000
1606128116.361,-55.176,-42.969,-34.668,-69.336,0.000
1606128116.364,-20.508,-31.250,-26.367,11.230,0.000
1606128116.368,-7.324,-33.203,-26.367,28.320,0.000
1606128116.372,-33.203,-38.086,-26.367,-37.598,0.000
1606128116.376,-58.594,-35.156,-23.926,-83.008,0.000
1606128116.380,-52.246,-38.086,-27.344,-69.336,0.000
1606128116.384,-31.250,-30.273,-30.762,0.977,0.000
1606128116.388,-30.273,-29.297,-28.809,26.855,0.000
1606128116.392,-30.273,-31.250,-23.926,-32.715,0.000
1606128116.396,-57.129,-33.203,-25.879,-94.727,0.000
1606128116.400,-67.871,-36.133,-25.391,-86.426,0.000
1606128116.403,-33.203,-37.598,-23.926,-19.043,0.000
1606128116.407,-29.297,-40.527,-28.809,6.836,0.000
1606128116.411,-45.410,-35.156,-28.809,-38.574,0.000
1606128116.415,-65.918,-41.504,-32.227,-99.609,0.000
1606128116.419,-68.848,-41.992,-31.738,-95.215,0.000
1606128116.423,-37.109,-31.250,-26.855,-24.414,0.000
1606128116.427,-27.344,-17.090,-31.738,18.555,0.000
1606128116.431,-47.363,-20.508,-33.691,-13.672,0.000
1606128116.435,-63.477,-32.715,-28.320,-80.078,0.000
1606128116.439,-72.754,-40.527,-26.855,-91.797,0.000
1606128116.443,-36.621,-42.969,-28.809,-20.508,0.000
1606128116.446,3.418,-31.250,-34.180,41.992,0.000
1606128116.450,-17.578,-22.949,-33.203,14.648,0.000
1606128116.454,-49.316,-28.809,-35.645,-75.684,0.000
1606128116.458,-62.500,-41.992,-49.805,-109.375,0.000
1606128116.462,-41.504,-38.086,-51.270,-57.617,0.000
1606128116.466,-16.602,-20.020,-46.387,-4.395,0.000
1606128116.470,-11.230,-22.949,-50.293,-11.230,0.000
1606128116.474,-33.691,-28.809,-50.781,-82.520,0.000
1606128116.478,-46.875,-26.367,-48.340,-105.469,0.000
1606128116.482,-23.926,-23.926,-49.316,-48.340,0.000
1606128116.486,-11.719,-23.926,-47.363,11.230,0.000
1606128116.489,-7.324,-26.367,-47.852,2.441,0.000
1606128116.493,-27.832,-19.531,-47.852,-64.941,0.000
1606128116.497,-59.570,-21.973,-51.758,-100.098,0.000
1606128116.501,-42.969,-35.156,-53.223,-66.406,0.000
1606128116.505,-7.324,-18.066,-34.668,15.137,0.000
1606128116.509,4.883,-9.766,-31.250,28.320,0.000
1606128116.513,-24.414,-26.367,-41.992,-52.246,0.000
1606128116.517,-48.828,-24.902,-45.410,-98.145,0.000
1606128116.521,-42.480,-21.973,-41.504,-63.477,0.000
1606128116.525,-14.160,-22.949,-38.086,9.766,0.000
1606128116.528,-7.812,-21.484,-42.969,23.438,0.000
1606128116.532,-33.203,-24.902,-42.480,-39.062,0.000
1606128116.536,-53.711,-31.738,-40.039,-84.473,0.000
1606128116.540,-49.805,-27.344,-42.969,-56.641,0.000
1606128116.544,-19.531,-29.297,-41.504,19.531,0.000
1606128116.548,-8.301,-33.691,-33.691,39.551,0.000
1606128116.552,-9.766,-20.508,-35.156,-20.508,0.000
1606128116.556,-38.574,-19.531,-38.574,-77.148,0.000
1606128116.560,-67.383,-33.691,-33.691,-68.359,0.000
1606128116.564,-39.062,-27.832,-28.320,-1.465,0.000
1606128116.568,-20.020,-6.836,-27.344,34.668,0.000
1606128116.571,-40.527,-20.508,-25.879,-17.090,0.000
1606128116.575,-64.941,-42.480,-26.367,-86.914,0.000
1606128116.579,-57.617,-45.410,-28.809,-85.938,0.000
1606128116.583,-36.621,-44.434,-30.762,-18.555,0.000
1606128116.587,-18.066,-41.016,-30.273,20.996,0.000
1606128116.591,-34.668,-41.992,-34.180,-20.996,0.000
1606128116.595,-66.406,-45.410,-46.387,-92.773,0.000
1606128116.599,-60.059,-38.086,-42.969,-102.051,0.000
1606128116.603,-42.480,-30.273,-36.133,-33.203,0.000
1606128116.607,-15.137,0.977,-37.109,13.672,0.000
1606128116.611,-21.973,-0.977,-36.621,-13.672,0.000
1606128116.614,-72.266,-44.434,-36.133,-84.961,0.000
1606128116.618,-72.754,-53.711,-30.273,-104.004,0.000
1606128116.622,-48.340,-49.805,-28.320,-44.434,0.000
1606128116.626,-29.297,-36.621,-32.715,9.766,0.000
1606128116.630,-35.645,-38.574,-34.668,-12.207,0.000
1606128116.634,-63.965,-37.598,-32.715,-85.938,0.000
1606128116.638,-71.289,-30.762,-23.926,-102.539,0.000
1606128116.642,-50.781,-32.227,-23.926,-47.363,0.000
1606128116.646,-21.484,-24.902,-24.414,12.695,0.000
1606128116.650,-20.508,-25.879,-14.648,6.836,0.000
1606128116.653,-46.875,-33.691,-22.461,-62.012,0.000
1606128116.657,-60.547,-40.527,-23.926,-89.355,0.000
1606128116.661,-48.340,-43.457,-10.742,-39.551,0.000
1606128116.665,-20.508,-19.531,-13.672,25.391,0.000
1606128116.669,-6.348,-17.578,-23.438,19.043,0.000
1606128116.673,-42.969,-40.527,-21.973,-57.129,0.000
1606128116.677,-65.918,-44.922,-21.484,-101.074,0.000
1606128116.681,-41.504,-36.621,-24.902,-53.223,0.000
1606128116.685,-15.625,-28.320,-24.414,19.531,0.000
1606128116.689,-0.977,-25.391,-24.902,28.320,0.000
1606128116.693,-22.949,-27.344,-30.762,-40.527,0.000
1606128116.696,-49.316,-30.762,-28.809,-90.332,0.000
1606128116.700,-40.527,-36.621,-29.297,-57.617,0.000
1606128116.704,-9.277,-17.090,-29.297,16.113,0.000
1606128116.708,-1.953,3.418,-30.762,29.785,0.000
1606128116.712,-25.391,-16.113,-33.203,-30.762,0.000
1606128116.716,-44.434,-31.738,-26.855,-85.938,0.000
1606128116.720,-44.922,-40.527,-31.738,-68.848,0.000
1606128116.724,-17.090,-34.180,-37.598,10.742,0.000
1606128116.728,5.859,-29.785,-30.762,31.250,0.000
1606128116.732,-16.113,-42.480,-37.109,-29.785,0.000
1606128116.736,-59.570,-44.922,-35.156,-86.914,0.000
1606128116.739,-49.316,-32.227,-24.414,-73.242,0.000
1606128116.743,-19.531,-16.602,-27.832,-1.465,0.000
1606128116.747,-6.836,-12.695,-22.461,43.457,0.000
1606128116.751,-33.203,-30.273,-10.254,0.000,0.000
1606128116.755,-79.102,-41.016,-11.230,-78.613,0.000
1606128116.759,-76.660,-46.387,-18.555,-76.172,0.000
1606128116.763,-52.246,-42.969,-19.531,-5.371,0.000
1606128116.767,-33.691,-36.133,-20.020,33.203,0.000
1606128116.771,-34.180,-37.109,-27.344,-3.906,0.000
1606128116.775,-77.148,-34.668,-24.414,-74.707,0.000
1606128116.778,-84.961,-34.180,-15.625,-84.961,0.000
1606128116.782,-47.363,-35.645,-15.625,-8.301,0.000
1606128116.786,-17.578,-28.320,-20.020,51.758,0.000
1606128116.790,-22.949,-31.250,-22.461,16.602,0.000
1606128116.794,-45.410,-29.785,-23.926,-59.570,0.000
1606128116.798,-50.781,-23.438,-27.832,-78.613,0.000
1606128116.802,-32.715,-22.949,-25.879,-22.949,0.000
1606128116.806,-11.230,-15.137,-22.461,41.992,0.000
1606128116.810,-16.602,-16.602,-25.391,23.926,0.000
1606128116.814,-56.152,-27.832,-35.645,-69.336,0.000
1606128116.818,-61.523,-29.785,-38.574,-100.586,0.000
1606128116.821,-23.438,-24.902,-25.391,-35.156,0.000
1606128116.825,-20.508,-31.250,-17.578,27.344,0.000
1606128116.829,-34.180,-40.039,-21.484,19.043,0.000
1606128116.833,-46.875,-30.762,-23.926,-44.922,0.000
1606128116.837,-63.965,-26.367,-22.949,-75.684,0.000
1606128116.841,-53.711,-26.367,-24.414,-33.691,0.000
1606128116.845,-19.531,-25.879,-29.785,35.645,0.000
1606128116.849,-17.578,-28.320,-21.484,45.898,0.000
1606128116.853,-51.270,-26.367,-20.020,-18.066,0.000
1606128116.857,-59.082,-31.738,-28.809,-62.500,0.000
1606128116.861,-45.410,-27.832,-21.484,-25.391,0.000
1606128116.864,-28.809,-32.715,-15.137,42.480,0.000
1606128116.868,-30.273,-47.363,-18.555,47.363,0.000
1606128116.872,-56.641,-43.457,-21.973,-24.414,0.000
1606128116.876,-80.078,-42.480,-25.879,-88.379,0.000
1606128116.880,-67.383,-38.574,-27.344,-54.199,0.000
1606128116.884,-21.484,-21.973,-23.438,24.414,0.000
1606128116.888,-15.625,-26.367,-20.996,30.273,0.000
1606128116.892,-55.664,-46.387,-26.367,-35.645,0.000
1606128116.896,-65.918,-40.039,-31.738,-84.961,0.000
1606128116.900,-62.012,-32.715,-34.668,-63.965,0.000
1606128116.903,-34.180,-31.250,-33.691,10.254,0.000
1606128116.907,-16.113,-33.691,-34.668,27.344,0.000
1606128116.911,-41.016,-45.410,-30.273,-37.109,0.000
1606128116.915,-70.801,-48.340,-23.926,-99.121,0.000
1606128116.919,-68.848,-45.898,-29.785,-97.168,0.000
1606128116.923,-38.086,-42.480,-20.996,-19.531,0.000
1606128116.927,-16.113,-30.762,-15.137,19.531,0.000
1606128116.931,-41.504,-28.320,-20.508,-24.414,0.000
1606128116.935,-71.289,-32.227,-21.484,-89.355,0.000
1606128116.939,-69.824,-31.250,-29.297,-90.820,0.000
1606128116.943,-48.828,-32.227,-34.180,-28.809,0.000
1606128116.946,-28.320,-25.391,-33.203,4.883,0.000
1606128116.950,-31.250,-28.320,-29.297,-18.066,0.000
1606128116.954,-55.664,-37.598,-25.391,-75.195,0.000
1606128116.958,-47.363,-40.039,-29.785,-86.426,0.000
1606128116.962,-37.598,-33.203,-29.785,-20.996,0.000
1606128116.966,-41.016,-30.762,-23.438,21.484,0.000
1606128116.970,-35.156,-41.504,-24.902,1.465,0.000
1606128116.974,-56.152,-33.203,-23.926,-58.105,0.000
1606128116.978,-59.082,-20.508,-19.043,-73.730,0.000
1606128116.982,-39.551,-30.273,-20.996,-17.090,0.000
1606128116.986,-19.531,-5.859,-23.438,31.738,0.000
1606128116.989,-28.320,3.906,-29.785,11.719,0.000
1606128116.993,-49.316,-35.645,-37.109,-67.871,0.000
1606128116.997,-50.781,-38.574,-32.227,-93.750,0.000
1606128117.001,-46.387,-31.738,-34.180,-46.875,0.000
1606128117.005,-16.113,-26.855,-30.273,9.766,0.000
1606128117.009,-12.695,-26.367,-23.438,7.812,0.000
1606128117.013,-38.574,-32.715,-27.344,-55.176,0.000
1606128117.017,-58.105,-33.203,-29.297,-90.820,0.000
1606128117.021,-27.344,-31.250,-29.785,-50.293,0.000
1606128117.025,-4.883,-12.207,-28.320,19.043,0.000
1606128117.028,-19.531,-6.348,-28.320,26.855,0.000
1606128117.032,-25.879,-33.203,-31.738,-42.480,0.000
1606128117.036,-46.875,-41.992,-36.621,-90.820,0.000
1606128117.040,-43.457,-36.133,-30.273,-53.223,0.000
1606128117.044,-4.395,-32.227,-19.043,28.320,0.000
1606128117.048,12.207,-26.367,-23.926,54.199,0.000
1606128117.052,-11.230,-26.855,-30.273,-18.555,0.000
1606128117.056,-49.316,-31.250,-30.273,-90.820,0.000
1606128117.060,-37.598,-31.250,-40.527,-73.242,0.000
1606128117.064,-21.484,-32.715,-38.574,-0.488,0.000
1606128117.068,-21.973,-33.691,-32.227,23.438,0.000
1606128117.071,-29.785,-30.273,-30.762,-27.832,0.000
1606128117.075,-62.012,-26.855,-31.738,-93.262,0.000
1606128117.079,-65.918,-38.574,-31.250,-82.520,0.000
1606128117.083,-29.297,-42.480,-23.926,1.953,0.000
1606128117.087,-10.254,-9.277,-22.461,31.738,0.000
1606128117.091,-25.879,-4.883,-27.832,-18.555,0.000
1606128117.095,-42.969,-25.879,-27.344,-80.078,0.000
1606128117.099,-28.809,-30.762,-21.484,-82.520,0.000
1606128117.103,-3.906,-30.273,-21.973,-3.418,0.000
1606128117.107,2.441,-28.320,-25.879,45.898,0.000
1606128117.111,-4.883,-32.715,-27.832,-0.488,0.000
1606128117.114,-31.738,-40.527,-32.227,-72.754,0.000
1606128117.118,-37.109,-40.039,-38.574,-79.590,0.000
1606128117.122,-9.766,-33.691,-36.133,-10.254,0.000
1606128117.126,9.766,-27.832,-28.809,46.875,0.000
1606128117.130,2.930,-30.762,-33.691,11.230,0.000
1606128117.134,-21.973,-33.203,-38.086,-62.012,0.000
1606128117.138,-26.367,-31.250,-31.250,-71.777,0.000
1606128117.142,1.953,-31.738,-32.227,-1.465,0.000
1606128117.146,8.789,-29.297,-30.762,55.664,0.000
1606128117.150,-5.859,-28.809,-31.738,22.461,0.000
1606128117.153,-40.527,-34.180,-43.457,-60.547,0.000
1606128117.157,-49.316,-36.621,-41.992,-83.984,0.000
1606128117.161,-29.297,-42.969,-36.133,-26.367,0.000
1606128117.165,2.441,7.324,-30.273,47.363,0.000
1606128117.169,9.277,36.621,-23.926,37.109,0.000
1606128117.173,-33.203,-32.715,-34.180,-52.246,0.000
1606128117.177,-34.180,-52.734,-49.805,-85.938,0.000
1606128117.181,-14.648,-36.133,-42.480,-31.250,0.000
1606128117.185,-8.301,-32.227,-27.344,40.039,0.000
1606128117.189,5.371,-38.086,-28.809,47.363,0.000
1606128117.193,-19.531,-37.109,-31.738,-22.461,0.000
1606128117.196,-38.086,-33.203,-35.645,-74.219,0.000
1606128117.200,-17.090,-31.250,-33.203,-28.809,0.000
1606128117.204,8.789,-29.785,-28.809,46.387,0.000
1606128117.208,11.719,-33.691,-27.832,44.434,0.000
1606128117.212,-20.996,-38.086,-26.855,-33.691,0.000
1606128117.216,-26.855,-39.062,-33.203,-90.332,0.000
1606128117.220,-11.719,-47.363,-32.715,-57.617,0.000
1606128117.224,-7.324,-24.902,-34.668,24.902,0.000
1606128117.228,6.836,5.859,-36.621,40.527,0.000
1606128117.232,-10.742,-22.949,-36.621,-25.391,0.000
1606128117.236,-34.180,-37.109,-35.156,-85.938,0.000
1606128117.239,-31.250,-34.668,-30.762,-65.430,0.000
1606128117.243,-4.883,-26.855,-32.715,20.508,0.000
1606128117.247,5.371,-25.879,-34.180,50.781,0.000
1606128117.251,-14.160,-42.969,-36.133,-10.742,0.000
1606128117.255,-39.551,-39.551,-27.344,-75.195,0.000
1606128117.259,-49.316,-24.902,-18.555,-62.500,0.000
1606128117.263,-22.949,-27.832,-21.973,4.883,0.000
1606128117.267,0.977,0.000,-32.227,49.805,0.000
1606128117.271,-14.160,-4.395,-36.621,6.348,0.000
1606128117.275,-60.059,-37.109,-37.598,-91.797,0.000
1606128117.278,-59.082,-27.344,-38.086,-100.586,0.000
1606128117.282,-36.133,-23.926,-32.227,-17.090,0.000
1606128117.286,-5.859,-23.926,-29.785,35.156,0.000
1606128117.290,-18.555,-21.973,-26.855,4.883,0.000
1606128117.294,-71.289,-31.250,-23.438,-79.590,0.000
1606128117.298,-66.895,-35.156,-28.320,-95.703,0.000
1606128117.302,-35.645,-32.227,-33.203,-22.949,0.000
1606128117.306,-8.301,-11.230,-28.320,36.621,0.000
1606128117.310,-18.555,-10.742,-25.879,13.184,0.000
1606128117.314,-40.527,-34.180,-29.785,-66.895,0.000
1606128117.318,-44.922,-41.504,-32.715,-89.355,0.000
1606128117.321,-35.645,-41.016,-30.273,-27.832,0.000
1606128117.325,-0.488,-31.250,-28.320,31.250,0.000
1606128117.329,-4.883,-31.250,-31.738,19.043,0.000
1606128117.333,-53.223,-39.551,-36.133,-53.223,0.000
1606128117.337,-62.500,-41.016,-35.156,-84.961,0.000
1606128117.341,-42.969,-35.156,-27.832,-38.574,0.000
1606128117.345,-16.602,-32.715,-25.391,25.391,0.000
1606128117.349,-21.484,-33.203,-18.066,28.320,0.000
1606128117.353,-45.410,-36.621,-17.578,-38.574,0.000
1606128117.357,-54.199,-42.969,-30.273,-83.496,0.000
1606128117.361,-42.480,-42.969,-32.715,-40.527,0.000
1606128117.364,-0.977,-22.461,-27.832,24.902,0.000
1606128117.368,-0.977,0.488,-28.320,21.484,0.000
1606128117.372,-45.410,-27.344,-29.785,-40.527,0.000
1606128117.376,-55.176,-44.434,-28.320,-84.473,0.000
1606128117.380,-45.898,-35.645,-30.762,-51.758,0.000
1606128117.384,-26.855,-31.250,-26.855,16.113,0.000
1606128117.388,-14.648,-28.809,-19.043,24.902,0.000
1606128117.392,-33.691,-26.855,-17.578,-36.133,0.000
1606128117.396,-48.828,-24.414,-22.461,-83.008,0.000
1606128117.400,-24.902,-25.391,-33.203,-54.688,0.000
1606128117.403,-13.184,-17.090,-38.086,8.789,0.000
1606128117.407,-20.508,-7.324,-32.227,13.184,0.000
1606128117.411,-41.504,-27.832,-31.738,-47.363,0.000
1606128117.415,-64.941,-42.480,-29.297,-91.797,0.000
1606128117.419,-60.059,-42.480,-30.273,-67.871,0.000
1606128117.423,-31.250,-33.691,-31.250,-0.977,0.000
1606128117.427,-15.625,-29.297,-25.879,25.391,0.000
1606128117.431,-36.133,-37.109,-31.250,-22.949,0.000
1606128117.435,-42.480,-37.109,-37.598,-90.820,0.000
1606128117.439,-41.016,-33.203,-31.250,-83.496,0.000
1606128117.443,-36.621,-33.203,-27.344,-9.277,0.000
1606128117.446,-8.789,15.137,-29.297,26.855,0.000
1606128117.450,-22.461,7.812,-32.227,-23.438,0.000
1606128117.454,-49.805,-42.969,-33.691,-90.820,0.000
1606128117.458,-61.035,-43.457,-41.016,-100.586,0.000
1606128117.462,-27.832,-37.598,-39.551,-36.621,0.000
1606128117.466,-20.508,-26.367,-35.645,8.789,0.000
1606128117.470,-42.969,-28.320,-34.668,-21.973,0.000
1606128117.474,-43.945,-40.039,-32.715,-77.637,0.000
1606128117.478,-57.129,-47.852,-37.598,-84.473,0.000
1606128117.482,-53.223,-46.387,-35.645,-29.785,0.000
1606128117.486,-26.367,-41.992,-27.832,26.367,0.000
1606128117.489,-30.273,-41.992,-23.438,9.766,0.000
1606128117.493,-61.523,-45.898,-25.391,-71.289,0.000
1606128117.497,-70.801,-50.293,-28.809,-93.750,0.000
1606128117.501,-33.691,-55.664,-28.320,-40.039,0.000
1606128117.505,-8.789,-11.719,-24.902,16.113,0.000
1606128117.509,-36.133,3.418,-24.902,10.254,0.000
1606128117.513,-64.941,-51.270,-24.902,-67.871,0.000
1606128117.517,-81.055,-53.711,-28.809,-104.004,0.000
1606128117.521,-55.664,-36.133,-34.668,-47.363,0.000
1606128117.525,-18.555,-29.785,-28.809,24.414,0.000
1606128117.528,-13.184,-26.367,-18.555,25.879,0.000
1606128117.532,-40.039,-36.133,-18.555,-46.875,0.000
1606128117.536,-56.641,-44.922,-24.902,-86.914,0.000
1606128117.540,-41.016,-37.109,-20.020,-45.898,0.000
1606128117.544,-13.672,-23.926,-13.184,28.320,0.000
1606128117.548,-7.812,0.488,-11.230,41.992,0.000
1606128117.552,-20.996,-12.207,-13.184,-25.391,0.000
1606128117.556,-54.199,-37.598,-21.973,-86.914,0.000
1606128117.560,-61.035,-37.598,-34.180,-66.406,0.000
1606128117.564,-20.020,-27.344,-30.762,12.695,0.000
1606128117.568,-2.930,-26.855,-20.996,36.133,0.000
1606128117.571,-31.250,-39.551,-26.367,-25.879,0.000
1606128117.575,-59.570,-45.898,-28.809,-89.355,0.000
1606128117.579,-53.711,-57.129,-27.832,-68.848,0.000
1606128117.583,-25.391,-40.527,-23.926,14.160,0.000
1606128117.587,-7.812,-12.695,-24.902,42.969,0.000
1606128117.591,-3.418,-28.809,-31.250,-16.113,0.000
1606128117.595,-34.180,-44.434,-26.855,-87.402,0.000
1606128117.599,-57.129,-42.480,-18.555,-77.148,0.000
1606128117.603,-21.484,-38.574,-25.391,5.371,0.000
1606128117.607,-7.324,-38.086,-33.203,32.715,0.000
1606128117.611,-32.715,-44.922,-32.715,-28.320,0.000
1606128117.614,-65.430,-49.316,-34.668,-105.957,0.000
1606128117.618,-66.895,-43.945,-31.738,-103.027,0.000
1606128117.622,-34.668,-29.785,-26.367,-16.602,0.000
1606128117.626,-9.277,-26.855,-22.949,31.250,0.000
1606128117.630,-17.090,-28.809,-23.438,-6.836,0.000
1606128117.634,-49.805,-25.879,-22.949,-81.543,0.000
1606128117.638,-42.480,-28.320,-27.832,-97.656,0.000
1606128117.642,-20.508,-36.133,-34.180,-22.949,0.000
1606128117.646,-17.578,-7.812,-29.785,36.621,0.000
1606128117.650,-16.602,10.254,-30.762,1.465,0.000
1606128117.653,-44.922,-29.785,-30.273,-83.008,0.000
1606128117.657,-54.688,-38.574,-31.738,-102.539,0.000
1606128117.661,-37.109,-32.715,-25.879,-42.969,0.000
1606128117.665,-6.836,-20.996,-21.973,25.391,0.000
1606128117.669,-2.930,-19.043,-28.809,12.207,0.000
1606128117.673,-39.551,-30.762,-28.320,-82.031,0.000
1606128117.677,-63.965,-32.715,-26.367,-111.816,0.000
1606128117.681,-30.762,-42.480,-29.297,-46.387,0.000
1606128117.685,-4.883,-33.691,-26.367,24.902,0.000
1606128117.689,-19.043,-27.344,-22.461,24.414,0.000
1606128117.693,-40.527,-44.434,-21.484,-49.805,0.000
1606128117.696,-60.547,-40.039,-19.531,-93.262,0.000
1606128117.700,-45.410,-34.668,-20.020,-57.129,0.000
1606128117.704,-10.742,-29.297,-15.625,18.066,0.000
1606128117.708,-5.371,-33.203,-13.672,22.949,0.000
1606128117.712,-38.574,-39.062,-11.230,-54.199,0.000
1606128117.716,-65.918,-39.062,-19.531,-98.633,0.000
1606128117.720,-56.641,-43.457,-29.785,-58.594,0.000
1606128117.724,-29.297,-27.344,-19.531,25.391,0.000
1606128117.728,-20.508,-5.371,-20.508,38.086,0.000
1606128117.732,-41.504,-26.367,-28.809,-38.574,0.000
1606128117.736,-50.781,-39.062,-27.832,-100.098,0.000
1606128117.739,-53.711,-40.527,-32.227,-76.172,0.000
1606128117.743,-40.527,-24.902,-33.691,9.277,0.000
1606128117.747,-13.672,-6.836,-22.949,37.109,0.000
1606128117.751,-40.039,-24.902,-14.648,-34.668,0.000
1606128117.755,-64.941,-33.203,-11.230,-93.262,0.000
1606128117.759,-52.734,-30.273,-19.531,-74.219,0.000
1606128117.763,-21.484,-24.414,-28.809,-1.953,0.000
1606128117.767,-14.648,-27.344,-27.832,23.438,0.000
1606128117.771,-39.551,-38.086,-31.738,-35.645,0.000
1606128117.775,-62.988,-41.504,-37.109,-97.656,0.000
1606128117.778,-55.664,-41.992,-41.504,-89.355,0.000
1606128117.782,-24.414,-33.691,-35.645,-9.277,0.000
1606128117.786,-8.789,-18.555,-29.785,33.691,0.000
1606128117.790,-17.578,-22.949,-29.297,-8.301,0.000
1606128117.794,-41.016,-32.227,-27.344,-79.590,0.000
1606128117.798,-46.387,-33.691,-27.344,-81.543,0.000
1606128117.802,-13.184,-35.645,-26.367,-7.324,0.000
1606128117.806,-3.906,-31.738,-24.414,41.016,0.000
1606128117.810,-19.043,-28.320,-16.113,7.812,0.000
1606128117.814,-40.039,-33.203,-14.648,-65.918,0.000
1606128117.818,-55.176,-31.250,-23.438,-82.031,0.000
1606128117.821,-30.273,-27.344,-28.320,-15.137,0.000
1606128117.825,-0.977,-15.137,-29.297,43.945,0.000
1606128117.829,-10.742,-5.859,-26.855,15.137,0.000
1606128117.833,-40.527,-20.508,-25.391,-63.965,0.000
1606128117.837,-53.223,-26.367,-28.809,-80.566,0.000
1606128117.841,-38.574,-30.762,-32.227,-24.414,0.000
1606128117.845,-18.555,-36.133,-28.320,29.785,0.000
1606128117.849,-19.043,-32.715,-24.902,12.207,0.000
1606128117.853,-38.574,-29.785,-30.762,-72.266,0.000
1606128117.857,-64.941,-29.785,-25.391,-96.680,0.000
1606128117.861,-53.711,-30.762,-18.555,-41.992,0.000
1606128117.864,-20.508,-11.230,-21.973,16.113,0.000
1606128117.868,-15.137,-9.766,-24.902,16.113,0.000
1606128117.872,-46.875,-37.598,-28.320,-62.988,0.000
1606128117.876,-58.594,-32.715,-26.855,-97.168,0.000
1606128117.880,-40.039,-22.949,-33.203,-44.434,0.000
1606128117.884,-21.484,-20.508,-31.250,23.438,0.000
1606128117.888,-22.949,-26.855,-25.391,24.902,0.000
1606128117.892,-44.434,-40.527,-30.762,-44.922,0.000
1606128117.896,-61.523,-38.574,-29.785,-90.820,0.000
1606128117.900,-46.875,-36.133,-20.996,-53.223,0.000
1606128117.903,-9.766,-25.879,-23.926,25.391,0.000
1606128117.907,17.090,-21.973,-26.855,41.992,0.000
1606128117.911,-15.625,-33.203,-23.438,-27.344,0.000
1606128117.915,-70.801,-35.156,-24.414,-89.355,0.000
1606128117.919,-60.547,-36.133,-17.090,-64.941,0.000
1606128117.923,-28.809,-33.691,-12.695,14.648,0.000
1606128117.927,-23.438,-11.719,-18.066,37.598,0.000
1606128117.931,-41.992,-17.578,-24.414,-28.320,0.000
1606128117.935,-61.523,-39.551,-28.320,-97.168,0.000
1606128117.939,-58.594,-36.133,-29.297,-83.496,0.000
1606128117.943,-32.715,-37.109,-23.438,-3.906,0.000
1606128117.946,-2.441,-36.133,-16.602,30.273,0.000
1606128117.950,-23.926,-35.645,-18.555,-19.043,0.000
1606128117.954,-69.336,-34.668,-28.809,-82.031,0.000
1606128117.958,-63.965,-35.645,-25.879,-78.613,0.000
1606128117.962,-33.203,-33.691,-20.996,-6.348,0.000
1606128117.966,-16.113,-17.578,-26.367,30.273,0.000
1606128117.970,-28.320,-20.508,-23.438,-11.719,0.000
1606128117.974,-48.340,-33.691,-15.625,-76.660,0.000
1606128117.978,-49.316,-29.785,-17.090,-82.031,0.000
1606128117.982,-23.438,-29.297,-17.578,-12.207,0.000
1606128117.986,0.977,-24.414,-16.113,39.062,0.000
1606128117.989,-3.906,-24.414,-18.555,4.883,0.000
1606128117.993,-34.668,-33.203,-26.367,-76.172,0.000
1606128117.997,-43.457,-37.598,-28.809,-93.750,0.000
1606128118.001,-30.762,-35.645,-27.344,-31.250,0.000
1606128118.005,-3.418,-32.227,-24.902,26.855,0.000
1606128118.009,-7.812,-38.086,-28.809,3.906,0.000
1606128118.013,-60.059,-39.551,-33.203,-74.219,0.000
1606128118.017,-62.012,-35.156,-32.715,-97.168,0.000
1606128118.021,-33.203,-32.227,-32.227,-40.527,0.000
1606128118.025,-9.277,-23.438,-29.785,23.926,0.000
1606128118.028,-11.719,-20.996,-29.297,12.695,0.000
1606128118.032,-37.109,-34.668,-29.785,-68.359,0.000
1606128118.036,-51.758,-39.062,-31.250,-97.168,0.000
1606128118.040,-39.062,-28.809,-27.832,-43.457,0.000
1606128118.044,-10.254,-20.996,-19.043,26.855,0.000
1606128118.048,-12.207,-33.203,-20.020,20.996,0.000
1606128118.052,-45.410,-44.922,-31.738,-54.199,0.000
1606128118.056,-63.965,-37.598,-32.715,-94.727,0.000
1606128118.060,-55.664,-34.180,-36.133,-62.500,0.000
1606128118.064,-32.715,-31.738,-37.109,5.859,0.000
1606128118.068,-15.625,-27.832,-30.273,10.742,0.000
1606128118.071,-52.246,-35.156,-30.762,-66.406,0.000
1606128118.075,-90.332,-35.645,-34.180,-121.582,0.000
1606128118.079,-65.918,-33.203,-31.250,-86.426,0.000
1606128118.083,-29.785,-32.227,-25.391,-3.906,0.000
1606128118.087,-20.020,-29.785,-30.273,16.602,0.000
1606128118.091,-41.992,-36.133,-34.668,-47.363,0.000
1606128118.095,-59.570,-36.133,-30.762,-100.586,0.000
1606128118.099,-52.734,-27.832,-30.762,-83.008,0.000
1606128118.103,-25.879,-19.043,-25.879,-3.906,0.000
1606128118.107,-10.254,-7.324,-23.438,25.391,0.000
1606128118.111,-33.203,-21.973,-33.203,-33.203,0.000
1606128118.114,-61.035,-44.922,-39.551,-99.121,0.000
1606128118.118,-62.012,-40.039,-32.227,-91.309,0.000
1606128118.122,-18.555,-32.227,-28.809,-8.301,0.000
1606128118.126,0.000,-31.738,-31.250,36.133,0.000
1606128118.130,-38.574,-33.691,-33.691,-16.602,0.000
1606128118.134,-63.965,-39.551,-34.180,-93.262,0.000
1606128118.138,-62.012,-47.852,-34.180,-87.891,0.000
1606128118.142,-30.273,-34.180,-30.273,-16.113,0.000
1606128118.146,-12.695,-19.531,-27.344,31.250,0.000
1606128118.150,-26.367,-26.855,-27.344,-3.906,0.000
1606128118.153,-50.293,-35.645,-23.438,-85.938,0.000
1606128118.157,-51.758,-38.574,-22.461,-94.238,0.000
1606128118.161,-32.227,-30.273,-27.832,-20.508,0.000
1606128118.165,4.395,-24.902,-22.949,33.691,0.000
1606128118.169,-8.301,-27.832,-19.531,7.812,0.000
1606128118.173,-60.059,-31.250,-25.391,-68.359,0.000
1606128118.177,-57.617,-31.250,-32.227,-86.914,0.000
1606128118.181,-28.320,-23.438,-33.203,-25.879,0.000
1606128118.185,-10.742,-18.555,-20.020,30.762,0.000
1606128118.189,-25.879,-27.832,-13.672,10.742,0.000
1606128118.193,-47.852,-31.250,-19.531,-64.941,0.000
1606128118.196,-58.594,-29.785,-26.855,-95.215,0.000
1606128118.200,-45.898,-34.668,-21.973,-45.410,0.000
1606128118.204,-20.996,-29.785,-12.695,20.508,0.000
1606128118.208,-26.367,-24.902,-20.020,14.160,0.000
1606128118.212,-46.875,-28.809,-22.949,-54.688,0.000
1606128118.216,-59.570,-37.598,-25.879,-91.309,0.000
1606128118.220,-41.016,-38.574,-28.809,-43.945,0.000
1606128118.224,-8.789,-34.180,-27.832,26.855,0.000
1606128118.228,-15.625,-34.180,-25.879,28.320,0.000
1606128118.232,-30.273,-40.039,-26.367,-48.340,0.000
1606128118.236,-53.711,-41.504,-36.133,-100.098,0.000
1606128118.239,-67.383,-35.156,-35.645,-60.547,0.000
1606128118.243,-27.344,-23.926,-27.832,17.090,0.000
1606128118.247,-16.113,-13.184,-28.809,28.809,0.000
1606128118.251,-40.039,-27.344,-31.250,-46.875,0.000
1606128118.255,-62.012,-40.039,-30.762,-105.469,0.000
1606128118.259,-59.570,-42.480,-31.738,-73.730,0.000
1606128118.263,-26.855,-37.109,-27.832,8.301,0.000
1606128118.267,-13.184,-32.227,-24.902,24.902,0.000
1606128118.271,-32.715,-34.668,-33.691,-41.992,0.000
1606128118.275,-55.664,-41.504,-33.203,-99.609,0.000
1606128118.278,-54.688,-40.527,-30.762,-76.660,0.000
1606128118.282,-20.996,-31.738,-30.762,11.230,0.000
1606128118.286,2.930,-30.273,-20.996,43.457,0.000
1606128118.290,-36.133,-37.109,-23.926,-18.555,0.000
1606128118.294,-78.613,-43.945,-26.855,-89.844,0.000
1606128118.298,-62.500,-37.109,-26.367,-84.473,0.000
1606128118.302,-30.273,-29.297,-21.973,-5.859,0.000
1606128118.306,-13.184,-18.066,-15.625,36.133,0.000
1606128118.310,-20.508,-10.742,-19.043,-11.230,0.000
1606128118.314,-55.176,-29.785,-25.391,-92.773,0.000
1606128118.318,-71.777,-39.551,-32.715,-100.098,0.000
1606128118.321,-45.410,-32.715,-33.203,-19.531,0.000
1606128118.325,-16.113,-21.484,-20.996,38.574,0.000
1606128118.329,-20.020,-19.531,-17.090,0.977,0.000
1606128118.333,-47.363,-23.438,-24.902,-75.684,0.000
1606128118.337,-51.270,-23.438,-25.879,-86.914,0.000
1606128118.341,-35.645,-24.902,-22.949,-23.438,0.000
1606128118.345,-0.488,-18.555,-26.855,32.227,0.000
1606128118.349,-6.836,-20.508,-24.414,13.184,0.000
1606128118.353,-62.988,-34.668,-25.879,-68.848,0.000
1606128118.357,-67.871,-37.598,-34.668,-95.215,0.000
1606128118.361,-28.320,-30.273,-31.738,-20.020,0.000
1606128118.364,7.324,-16.602,-33.203,49.316,0.000
1606128118.368,-2.441,-11.719,-39.062,23.438,0.000
1606128118.372,-38.086,-10.254,-33.203,-69.824,0.000
1606128118.376,-57.617,-9.277,-35.645,-110.352,0.000
1606128118.380,-36.621,-10.742,-45.410,-56.641,0.000
1606128118.384,-6.348,5.859,-48.828,15.137,0.000
1606128118.388,7.812,26.855,-56.641,1.465,0.000
1606128118.392,-19.531,3.418,-57.617,-88.867,0.000
1606128118.396,-45.410,-16.602,-55.176,-130.371,0.000
1606128118.400,-12.695,-9.766,-52.246,-67.383,0.000
1606128118.403,5.371,-16.602,-47.363,18.066,0.000
1606128118.407,1.465,-19.531,-57.617,19.043,0.000
1606128118.411,-20.508,-30.273,-65.430,-53.711,0.000
1606128118.415,-44.922,-43.457,-60.059,-100.098,0.000
1606128118.419,-41.992,-33.203,-55.664,-66.895,0.000
1606128118.423,-10.254,-22.949,-48.340,17.578,0.000
1606128118.427,4.883,-19.043,-48.340,41.992,0.000
1606128118.431,-0.488,-27.344,-51.270,-27.344,0.000
1606128118.435,-30.273,-40.527,-56.641,-93.262,0.000
1606128118.439,-35.156,-43.457,-49.805,-67.383,0.000
1606128118.443,8.789,-34.668,-36.621,24.902,0.000
1606128118.446,23.926,-14.160,-35.156,53.711,0.000
1606128118.450,4.395,-16.602,-42.480,-4.395,0.000
1606128118.454,-24.414,-29.785,-43.457,-71.289,0.000
1606128118.458,-28.809,-33.203,-37.109,-58.105,0.000
1606128118.462,-5.371,-33.203,-39.551,21.484,0.000
1606128118.466,15.137,-29.297,-34.180,51.270,0.000
1606128118.470,-1.465,-34.180,-27.344,1.953,0.000
1606128118.474,-18.555,-35.156,-34.668,-66.406,0.000
1606128118.478,-21.484,-21.973,-40.527,-60.059,0.000
1606128118.482,-14.648,-23.926,-27.344,14.160,0.000
1606128118.486,10.254,-19.043,-20.508,51.758,0.000
1606128118.489,0.000,-8.789,-27.344,14.160,0.000
1606128118.493,-20.508,-20.996,-20.996,-53.711,0.000
1606128118.497,-30.762,-26.855,-27.344,-64.941,0.000
1606128118.501,-15.137,-27.832,-33.203,-3.418,0.000
1606128118.505,9.277,-21.484,-25.391,48.340,0.000
1606128118.509,2.441,-19.043,-22.949,19.531,0.000
1606128118.513,-25.879,-30.762,-22.461,-51.758,0.000
1606128118.517,-23.438,-31.250,-21.973,-60.059,0.000
1606128118.521,15.625,-13.184,-19.531,5.371,0.000
1606128118.525,18.555,-5.371,-20.508,51.270,0.000
1606128118.528,-0.977,-14.648,-25.879,21.973,0.000
1606128118.532,-15.625,-26.855,-24.902,-47.363,0.000
1606128118.536,-33.203,-29.297,-24.414,-66.406,0.000
1606128118.540,-10.742,-29.785,-26.367,-7.812,0.000
1606128118.544,12.695,-26.855,-25.879,40.527,0.000
1606128118.548,-4.883,-22.949,-29.785,13.672,0.000
1606128118.552,-37.598,-27.832,-34.668,-60.547,0.000
1606128118.556,-54.688,-33.691,-31.738,-87.891,0.000
1606128118.560,-39.062,-30.273,-27.832,-39.062,0.000
1606128118.564,-15.137,-27.344,-24.902,19.043,0.000
1606128118.568,-22.461,-22.461,-20.996,21.973,0.000
1606128118.571,-30.762,-26.367,-26.855,-44.434,0.000
1606128118.575,-44.434,-36.133,-24.902,-87.891,0.000
1606128118.579,-50.293,-38.086,-23.926,-53.223,0.000
1606128118.583,-9.277,-29.297,-27.832,15.137,0.000
1606128118.587,-2.930,-1.465,-30.273,22.949,0.000
1606128118.591,-29.785,-14.160,-34.668,-43.457,0.000
1606128118.595,-48.340,-36.133,-38.574,-92.773,0.000
1606128118.599,-45.410,-33.691,-41.016,-69.336,0.000
1606128118.603,-18.555,-32.227,-33.203,7.812,0.000
1606128118.607,-4.395,-29.785,-34.668,26.367,0.000
1606128118.611,-26.367,-29.785,-39.062,-40.527,0.000
1606128118.614,-54.199,-38.086,-38.086,-103.516,0.000
1606128118.618,-52.734,-42.969,-35.645,-85.449,0.000
1606128118.622,-6.348,-37.109,-31.250,-7.324,0.000
1606128118.626,-1.953,-20.508,-30.273,19.531,0.000
1606128118.630,-43.945,-21.973,-34.180,-31.738,0.000
1606128118.634,-61.035,-36.133,-36.621,-88.379,0.000
1606128118.638,-54.688,-35.156,-41.504,-82.520,0.000
1606128118.642,-28.320,-29.785,-38.086,-16.602,0.000
1606128118.646,-11.719,-26.855,-32.227,25.391,0.000
1606128118.650,-17.090,-24.414,-34.180,-14.160,0.000
1606128118.653,-43.945,-30.273,-39.062,-94.727,0.000
1606128118.657,-48.340,-36.621,-34.180,-95.215,0.000
1606128118.661,-20.996,-21.973,-18.066,-12.695,0.000
1606128118.665,-6.836,-2.930,-14.648,29.297,0.000
1606128118.669,-24.414,-2.930,-28.320,-18.555,0.000
1606128118.673,-53.223,-21.973,-34.180,-88.867,0.000
1606128118.677,-48.340,-25.391,-33.203,-90.332,0.000
1606128118.681,-31.250,-26.367,-31.738,-29.297,0.000
1606128118.685,-7.324,-30.273,-24.902,23.438,0.000
1606128118.689,-15.625,-26.855,-22.949,-0.977,0.000
1606128118.693,-60.547,-28.809,-24.414,-70.801,0.000
1606128118.696,-62.500,-32.715,-26.367,-89.355,0.000
1606128118.700,-34.180,-25.879,-24.414,-28.320,0.000
1606128118.704,-9.277,-20.996,-19.531,34.668,0.000
1606128118.708,-17.578,-24.902,-23.926,8.789,0.000
1606128118.712,-47.363,-28.809,-34.668,-71.777,0.000
1606128118.716,-60.547,-30.273,-34.180,-101.562,0.000
1606128118.720,-41.016,-34.180,-33.691,-40.527,0.000
1606128118.724,-14.648,-29.297,-34.180,24.414,0.000
1606128118.728,-14.648,-18.555,-24.902,13.184,0.000
1606128118.732,-41.992,-39.062,-25.879,-66.406,0.000
1606128118.736,-62.012,-46.875,-34.180,-105.469,0.000
1606128118.739,-49.805,-37.598,-30.762,-51.270,0.000
1606128118.743,-3.906,-30.762,-20.996,21.973,0.000
1606128118.747,-1.465,-22.949,-18.066,25.879,0.000
1606128118.751,-48.828,-31.738,-24.902,-48.828,0.000
1606128118.755,-62.500,-37.598,-24.414,-100.098,0.000
1606128118.759,-55.176,-34.180,-21.973,-61.523,0.000
1606128118.763,-26.367,-33.691,-28.809,19.531,0.000
1606128118.767,-16.602,-36.621,-36.621,25.391,0.000
1606128118.771,-36.621,-41.992,-36.621,-49.316,0.000
1606128118.775,-53.223,-38.574,-31.250,-99.121,0.000
1606128118.778,-50.293,-41.016,-31.738,-71.289,0.000
1606128118.782,-20.996,-41.016,-32.715,7.324,0.000
1606128118.786,-12.207,-31.250,-27.832,26.855,0.000
1606128118.790,-36.621,-31.250,-30.273,-40.039,0.000
1606128118.794,-57.617,-44.434,-35.645,-99.121,0.000
1606128118.798,-39.551,-49.316,-34.180,-82.031,0.000
1606128118.802,-14.160,-27.832,-30.273,1.953,0.000
1606128118.806,-18.066,-27.344,-35.156,25.879,0.000
1606128118.810,-43.457,-42.480,-41.016,-41.992,0.000
1606128118.814,-70.312,-40.527,-36.133,-103.516,0.000
1606128118.818,-68.848,-42.969,-35.156,-96.191,0.000
1606128118.821,-44.434,-38.574,-31.250,-18.066,0.000
1606128118.825,-24.902,-27.344,-28.809,29.297,0.000
1606128118.829,-41.504,-29.785,-34.668,-21.484,0.000
1606128118.833,-69.824,-37.598,-34.180,-95.215,0.000
1606128118.837,-74.219,-39.062,-28.809,-96.680,0.000
1606128118.841,-53.711,-37.598,-30.762,-37.109,0.000
1606128118.845,-38.086,-30.273,-24.902,3.418,0.000
1606128118.849,-33.691,-30.762,-25.879,-21.973,0.000
1606128118.853,-51.758,-34.180,-34.180,-84.473,0.000
1606128118.857,-78.125,-39.062,-37.598,-95.215,0.000
1606128118.861,-52.734,-46.387,-36.621,-41.016,0.000
1606128118.864,-27.344,-35.645,-32.715,4.395,0.000
1606128118.868,-31.738,-21.484,-35.645,-9.766,0.000
1606128118.872,-54.688,-30.762,-40.039,-83.496,0.000
1606128118.876,-64.941,-38.574,-39.062,-112.305,0.000
1606128118.880,-46.387,-41.992,-35.156,-57.129,0.000
1606128118.884,-24.414,-32.227,-30.273,10.742,0.000
1606128118.888,-19.043,-26.855,-32.227,-0.488,0.000
1606128118.892,-43.945,-37.598,-34.180,-74.707,0.000
1606128118.896,-46.387,-38.574,-24.902,-99.609,0.000
1606128118.900,-28.809,-32.227,-22.461,-45.410,0.000
1606128118.903,-35.156,-30.273,-27.344,17.578,0.000
1606128118.907,-25.879,-20.508,-22.461,14.648,0.000
1606128118.911,-41.504,-28.320,-19.043,-53.223,0.000
1606128118.915,-65.918,-36.621,-23.438,-93.750,0.000
1606128118.919,-54.199,-30.273,-23.926,-50.293,0.000
1606128118.923,-20.996,-27.344,-22.949,18.555,0.000
1606128118.927,-10.254,-23.926,-21.484,26.855,0.000
1606128118.931,-31.738,-21.484,-20.020,-33.691,0.000
1606128118.935,-48.828,-20.020,-21.973,-80.566,0.000
1606128118.939,-32.227,-17.578,-24.414,-53.223,0.000
1606128118.943,6.348,-9.766,-18.555,25.879,0.000
1606128118.946,-5.859,8.301,-19.531,37.109,0.000
1606128118.950,-39.551,-3.906,-28.809,-30.273,0.000
1606128118.954,-46.875,-28.809,-28.320,-76.172,0.000
1606128118.958,-38.086,-26.855,-26.855,-60.547,0.000
1606128118.962,-9.766,-22.461,-18.555,14.160,0.000
1606128118.966,6.348,-18.066,-18.555,40.527,0.000
1606128118.970,-19.043,-21.973,-26.367,-15.625,0.000
1606128118.974,-40.039,-31.738,-35.645,-68.848,0.000
1606128118.978,-30.762,-27.832,-36.621,-60.059,0.000
1606128118.982,-4.883,-21.484,-30.762,-2.930,0.000
1606128118.986,14.160,-17.090,-34.180,25.879,0.000
1606128118.989,-18.066,-16.113,-33.203,-11.230,0.000
1606128118.993,-47.852,-24.902,-26.367,-75.195,0.000
1606128118.997,-49.316,-29.785,-20.996,-73.730,0.000
1606128119.001,-19.043,-33.203,-19.531,-3.418,0.000
1606128119.005,-4.883,-24.902,-27.344,32.715,0.000
1606128119.009,-22.949,-27.832,-29.785,-3.418,0.000
1606128119.013,-45.410,-48.828,-27.344,-65.430,0.000
1606128119.017,-55.176,-45.898,-21.484,-76.660,0.000
1606128119.021,-30.762,-35.156,-15.625,-6.836,0.000
1606128119.025,-12.207,-29.297,-9.766,40.527,0.000
1606128119.028,-5.859,-30.273,-7.324,11.719,0.000
1606128119.032,-39.062,-43.945,-19.043,-53.223,0.000
1606128119.036,-74.219,-45.410,-22.461,-69.824,0.000
1606128119.040,-47.852,-35.156,-22.461,-13.184,0.000
1606128119.044,-31.250,-33.203,-26.855,31.738,0.000
1606128119.048,-36.133,-33.691,-29.785,-0.977,0.000
1606128119.052,-47.852,-40.527,-26.367,-79.102,0.000
1606128119.056,-54.199,-39.551,-28.809,-97.656,0.000
1606128119.060,-41.504,-40.039,-32.715,-43.457,0.000
1606128119.064,-23.926,-40.527,-28.320,18.066,0.000
1606128119.068,-19.531,-37.598,-28.320,11.719,0.000
1606128119.071,-52.734,-38.574,-28.809,-53.223,0.000
1606128119.075,-54.688,-34.668,-28.809,-88.379,0.000
1606128119.079,-33.691,-36.621,-29.297,-53.223,0.000
1606128119.083,-21.973,-30.273,-25.391,13.672,0.000
1606128119.087,-9.277,-9.766,-29.297,18.066,0.000
1606128119.091,-34.180,-26.367,-32.227,-46.387,0.000
1606128119.095,-56.641,-40.039,-27.344,-93.750,0.000
1606128119.099,-42.480,-32.227,-23.926,-61.035,0.000
1606128119.103,-13.672,-29.297,-20.508,20.996,0.000
1606128119.107,-8.301,-28.809,-21.484,34.180,0.000
1606128119.111,-31.250,-29.297,-21.484,-36.133,0.000
1606128119.114,-62.500,-35.645,-24.902,-87.891,0.000
1606128119.118,-65.430,-38.574,-25.391,-53.223,0.000
1606128119.122,-44.434,-38.086,-19.043,27.344,0.000
1606128119.126,-34.668,-35.645,-22.949,39.062,0.000
1606128119.130,-63.477,-29.297,-24.902,-22.949,0.000
1606128119.134,-99.609,-32.227,-21.484,-82.031,0.000
1606128119.138,-85.449,-41.504,-22.461,-74.219,0.000
1606128119.142,-59.082,-39.062,-20.020,4.395,0.000
1606128119.146,-51.270,-20.996,-21.973,36.621,0.000
1606128119.150,-62.988,-19.531,-30.762,-18.066,0.000
1606128119.153,-84.473,-34.668,-28.809,-84.961,0.000
1606128119.157,-73.242,-37.109,-29.297,-76.660,0.000
1606128119.161,-34.668,-34.180,-24.902,6.836,0.000
1606128119.165,-9.277,-22.461,-17.090,49.805,0.000
1606128119.169,-24.414,-21.484,-25.879,4.883,0.000
1606128119.173,-57.617,-30.762,-31.250,-66.406,0.000
1606128119.177,-67.871,-35.156,-29.297,-67.871,0.000
1606128119.181,-31.738,-29.297,-27.832,10.254,0.000
1606128119.185,-0.488,-24.414,-21.484,62.012,0.000
1606128119.189,-20.508,-31.738,-20.996,21.973,0.000
1606128119.193,-58.594,-37.598,-25.391,-53.223,0.000
1606128119.196,-62.500,-38.574,-30.273,-63.965,0.000
1606128119.200,-24.902,-33.203,-25.391,4.395,0.000
1606128119.204,-16.113,-30.762,-20.508,60.059,0.000
1606128119.208,-30.762,-33.203,-24.902,26.367,0.000
1606128119.212,-50.293,-34.180,-39.551,-58.105,0.000
1606128119.216,-63.477,-39.062,-41.504,-71.289,0.000
1606128119.220,-49.805,-41.504,-25.391,-8.789,0.000
1606128119.224,-34.180,-34.668,-10.742,49.316,0.000
1606128119.228,-34.180,-35.645,-11.230,38.574,0.000
1606128119.232,-55.176,-47.852,-17.090,-42.969,0.000
1606128119.236,-74.219,-49.805,-22.461,-82.031,0.000
1606128119.239,-50.781,-44.922,-18.555,-28.320,0.000
1606128119.243,-33.691,-41.504,-13.184,49.805,0.000
1606128119.247,-48.828,-30.762,-22.949,51.758,0.000
1606128119.251,-79.102,-29.785,-28.320,-29.297,0.000
1606128119.255,-84.961,-42.969,-26.367,-72.754,0.000
1606128119.259,-64.941,-44.922,-24.414,-19.531,0.000
1606128119.263,-49.805,-35.156,-17.578,62.988,0.000
1606128119.267,-36.133,-33.691,-19.531,67.871,0.000
1606128119.271,-55.176,-38.086,-25.879,-6.836,0.000
1606128119.275,-67.383,-37.109,-21.484,-52.246,0.000
1606128119.278,-59.082,-42.969,-15.625,-20.020,0.000
1606128119.282,-21.973,-34.180,-10.254,63.965,0.000
1606128119.286,-7.324,-22.949,-9.277,76.660,0.000
1606128119.290,-29.785,-24.902,-11.719,-9.277,0.000
1606128119.294,-43.457,-27.344,-13.184,-67.383,0.000
1606128119.298,-31.738,-23.438,-8.789,-36.621,0.000
1606128119.302,8.789,-18.066,-0.977,52.246,0.000
1606128119.306,24.414,-17.578,-7.324,79.102,0.000
1606128119.310,-6.836,-24.414,-14.648,5.371,0.000
1606128119.314,-39.551,-37.598,-16.602,-66.895,0.000
1606128119.318,-34.668,-34.180,-15.137,-46.875,0.000
1606128119.321,-10.742,-17.090,-7.812,43.457,0.000
1606128119.325,-11.230,-9.277,-6.836,74.707,0.000
1606128119.329,-39.062,-16.602,-14.160,0.977,0.000
1606128119.333,-82.520,-27.832,-13.672,-76.660,0.000
1606128119.337,-69.824,-24.902,-8.789,-53.711,0.000
1606128119.341,-12.207,-13.672,-6.348,30.762,0.000
1606128119.345,-16.602,-8.789,-5.859,50.293,0.000
1606128119.349,-46.387,-13.672,-8.301,2.441,0.000
1606128119.353,-58.594,-12.695,-15.625,-68.848,0.000
1606128119.357,-59.082,-10.742,-22.461,-84.473,0.000
1606128119.361,-26.367,-11.719,-22.461,-0.977,0.000
1606128119.364,6.348,-0.488,-20.508,67.383,0.000
1606128119.368,-2.441,4.883,-25.391,31.250,0.000
1606128119.372,-27.832,-9.277,-31.738,-53.223,0.000
1606128119.376,-23.926,-13.184,-36.133,-56.152,0.000
1606128119.380,15.137,-5.371,-36.621,26.367,0.000
1606128119.384,54.199,9.277,-35.645,103.027,0.000
1606128119.388,59.082,14.160,-44.434,83.008,0.000
1606128119.392,39.551,-0.488,-55.664,-1.465,0.000
1606128119.396,31.738,-11.230,-54.199,-12.695,0.000
1606128119.400,63.965,-8.789,-54.199,62.012,0.000
1606128119.403,107.910,-5.859,-61.035,136.719,0.000
1606128119.407,111.328,0.488,-70.312,127.930,0.000
1606128119.411,82.520,-2.441,-81.055,48.828,0.000
1606128119.415,96.191,-5.371,-73.730,30.273,0.000
1606128119.419,121.582,-8.789,-62.500,96.191,0.000
1606128119.423,151.367,-7.812,-58.594,186.523,0.000
1606128119.427,160.645,6.348,-55.664,188.477,0.000
1606128119.431,121.094,0.977,-57.129,102.539,0.000
1606128119.435,100.586,-16.602,-51.758,65.430,0.000
1606128119.439,115.723,-15.137,-37.598,109.375,0.000
1606128119.443,156.250,-7.812,-26.367,196.777,0.000
1606128119.446,162.109,-10.742,-32.715,207.031,0.000
1606128119.450,122.559,-21.973,-33.203,122.559,0.000
1606128119.454,98.145,-27.344,-33.203,60.547,0.000
1606128119.458,106.934,-24.414,-35.156,96.680,0.000
1606128119.462,145.020,-21.973,-27.832,182.129,0.000
1606128119.466,156.738,-1.465,-32.227,187.012,0.000
1606128119.470,103.027,-9.277,-39.551,99.609,0.000
1606128119.474,83.008,-31.250,-31.738,31.738,0.000
1606128119.478,79.590,-23.926,-26.855,60.547,0.000
1606128119.482,93.262,-18.066,-24.902,143.066,0.000
1606128119.486,120.605,-18.555,-22.949,162.109,0.000
1606128119.489,93.262,-21.484,-22.461,90.820,0.000
1606128119.493,55.176,-23.438,-26.855,14.648,0.000
1606128119.497,40.527,-27.344,-30.273,18.066,0.000
1606128119.501,70.312,-20.996,-25.879,96.191,0.000
1606128119.505,102.539,-11.719,-23.926,138.672,0.000
1606128119.509,83.008,-15.137,-22.949,75.684,0.000
1606128119.513,44.434,-26.367,-26.855,-7.812,0.000
1606128119.517,36.133,-25.879,-26.855,-15.137,0.000
1606128119.521,62.988,-19.531,-27.344,58.105,0.000
1606128119.525,82.031,-14.160,-30.273,115.234,0.000
1606128119.528,83.008,-4.883,-26.367,71.777,0.000
1606128119.532,39.551,-15.625,-27.344,-20.020,0.000
1606128119.536,2.441,-20.508,-30.273,-32.715,0.000
1606128119.540,27.344,-13.672,-28.320,45.898,0.000
1606128119.544,51.758,-12.695,-31.738,96.680,0.000
1606128119.548,48.340,-18.555,-28.320,55.664,0.000
1606128119.552,10.254,-22.461,-20.508,-35.645,0.000
1606128119.556,-18.066,-22.949,-18.555,-59.570,0.000
1606128119.560,0.488,-28.809,-14.648,10.254,0.000
1606128119.564,20.508,-13.184,-13.184,75.684,0.000
1606128119.568,-1.465,5.859,-28.809,48.340,0.000
1606128119.571,-36.621,-18.555,-35.156,-41.992,0.000
1606128119.575,-50.781,-31.738,-29.297,-68.848,0.000
1606128119.579,-29.297,-22.461,-23.438,-10.254,0.000
1606128119.583,0.488,-19.043,-21.484,59.082,0.000
1606128119.587,4.883,-19.043,-20.996,58.594,0.000
1606128119.591,-10.742,-21.973,-18.555,-22.461,0.000
1606128119.595,-43.945,-28.320,-23.438,-70.801,0.000
1606128119.599,-42.969,-25.391,-21.973,-18.066,0.000
1606128119.603,10.254,-17.578,-19.531,65.430,0.000
1606128119.607,22.949,-6.836,-21.973,63.965,0.000
1606128119.611,-10.254,-15.625,-23.438,-25.879,0.000
1606128119.614,-39.551,-32.227,-24.902,-80.566,0.000
1606128119.618,-32.715,-27.344,-23.926,-38.086,0.000
1606128119.622,-5.859,-22.949,-21.484,51.270,0.000
1606128119.626,-0.977,-16.113,-23.438,60.059,0.000
1606128119.630,-33.203,-22.949,-25.391,-27.344,0.000
1606128119.634,-62.988,-35.645,-26.855,-90.332,0.000
1606128119.638,-56.152,-35.645,-27.344,-61.523,0.000
1606128119.642,-29.785,-35.156,-26.367,17.578,0.000
1606128119.646,-13.672,-25.879,-26.855,36.621,0.000
1606128119.650,-43.457,-29.785,-35.645,-41.016,0.000
1606128119.653,-54.199,-42.480,-34.180,-103.027,0.000
1606128119.657,-45.410,-41.992,-29.785,-83.496,0.000
1606128119.661,-28.320,-37.109,-33.691,-0.488,0.000
1606128119.665,-1.465,-31.250,-31.250,41.504,0.000
1606128119.669,-15.137,-36.133,-35.645,-25.879,0.000
1606128119.673,-45.410,-47.363,-40.527,-102.051,0.000
1606128119.677,-51.758,-45.898,-37.109,-89.355,0.000
1606128119.681,-15.625,-35.645,-29.785,1.953,0.000
1606128119.685,9.277,-28.809,-16.602,47.363,0.000
1606128119.689,-2.441,-33.691,-16.602,-7.324,0.000
1606128119.693,-30.762,-36.133,-25.879,-83.008,0.000
1606128119.696,-41.504,-32.227,-28.320,-83.984,0.000
1606128119.700,-24.414,-34.668,-23.438,-8.789,0.000
1606128119.704,15.137,-21.484,-20.508,51.758,0.000
1606128119.708,-4.883,2.441,-24.414,3.418,0.000
1606128119.712,-55.176,-13.672,-24.414,-86.914,0.000
1606128119.716,-48.340,-30.273,-24.902,-92.773,0.000
1606128119.720,-43.945,-29.785,-24.414,-20.508,0.000
1606128119.724,-24.902,-26.855,-26.855,42.969,0.000
1606128119.728,-19.531,-29.785,-24.902,5.859,0.000
1606128119.732,-47.852,-33.203,-22.461,-79.590,0.000
1606128119.736,-55.664,-33.203,-24.902,-99.609,0.000
1606128119.739,-33.203,-37.598,-24.414,-43.945,0.000
1606128119.743,-2.930,-25.391,-25.879,20.996,0.000
1606128119.747,-13.672,-11.230,-28.320,4.395,0.000
1606128119.751,-51.270,-28.320,-33.691,-86.426,0.000
1606128119.755,-65.430,-39.062,-34.180,-117.676,0.000
1606128119.759,-24.414,-36.133,-33.203,-56.152,0.000
1606128119.763,-5.859,-33.203,-28.320,10.254,0.000
1606128119.767,-20.996,-34.180,-23.926,-1.953,0.000
1606128119.771,-41.504,-40.039,-25.879,-74.707,0.000
1606128119.775,-74.219,-41.016,-27.832,-107.422,0.000
1606128119.778,-67.871,-41.992,-28.320,-61.035,0.000
1606128119.782,-28.320,-35.156,-25.391,9.277,0.000
1606128119.786,-20.020,-29.297,-17.578,22.949,0.000
1606128119.790,-53.711,-41.992,-19.531,-43.457,0.000
1606128119.794,-70.801,-45.410,-34.180,-97.656,0.000
1606128119.798,-48.340,-40.039,-32.227,-61.035,0.000
1606128119.802,-20.508,-32.227,-24.902,10.254,0.000
1606128119.806,-44.434,-12.695,-29.785,-4.883,0.000
1606128119.810,-74.219,-10.742,-38.574,-77.148,0.000
1606128119.814,-93.262,-28.320,-39.062,-118.164,0.000
1606128119.818,-86.426,-34.180,-35.645,-95.703,0.000
1606128119.821,-47.363,-25.879,-22.949,-11.719,0.000
1606128119.825,-33.691,-20.996,-17.090,23.438,0.000
1606128119.829,-36.621,-24.902,-27.832,-40.039,0.000
1606128119.833,-62.988,-28.809,-28.320,-103.027,0.000
1606128119.837,-39.551,-22.461,-25.879,-85.938,0.000
1606128119.841,3.906,-19.531,-25.879,-10.742,0.000
1606128119.845,3.418,-0.977,-31.250,16.602,0.000
1606128119.849,-18.066,0.488,-33.691,-36.621,0.000
1606128119.853,-46.387,-26.855,-31.738,-99.121,0.000
1606128119.857,-40.527,-27.344,-30.762,-90.332,0.000
1606128119.861,-14.648,-24.902,-20.508,-17.578,0.000
1606128119.864,-1.465,-21.484,-18.555,16.602,0.000
1606128119.868,-24.414,-20.508,-19.043,-14.648,0.000
1606128119.872,-69.824,-29.297,-21.973,-88.379,0.000
1606128119.876,-88.379,-37.109,-26.855,-113.281,0.000
1606128119.880,-51.758,-28.809,-24.902,-37.598,0.000
1606128119.884,-19.043,-14.648,-24.902,24.902,0.000
1606128119.888,-40.039,2.930,-30.273,-14.648,0.000
1606128119.892,-49.805,-14.648,-29.785,-95.215,0.000
1606128119.896,-57.129,-34.668,-26.367,-104.492,0.000
1606128119.900,-61.035,-27.344,-31.250,-33.691,0.000
1606128119.903,-30.762,-26.367,-27.344,27.344,0.000
1606128119.907,-30.273,-29.297,-23.438,2.441,0.000
1606128119.911,-63.965,-35.156,-26.855,-83.496,0.000
1606128119.915,-76.660,-35.156,-31.250,-108.887,0.000
1606128119.919,-43.457,-28.809,-31.738,-50.293,0.000
1606128119.923,-17.090,-24.902,-28.320,15.625,0.000
1606128119.927,-15.137,-20.508,-28.809,13.672,0.000
1606128119.931,-42.969,-24.414,-36.621,-68.848,0.000
1606128119.935,-54.688,-35.156,-44.434,-116.699,0.000
1606128119.939,-37.109,-34.668,-41.992,-67.383,0.000
1606128119.943,-22.461,-36.133,-34.668,7.812,0.000
1606128119.946,-13.672,-27.344,-41.992,4.883,0.000
1606128119.950,-30.762,-26.367,-42.969,-63.965,0.000
1606128119.954,-55.176,-33.203,-36.621,-109.375,0.000
1606128119.958,-46.875,-33.203,-34.668,-71.777,0.000
1606128119.962,-1.953,-35.645,-34.180,11.230,0.000
1606128119.966,6.836,-33.203,-35.645,29.297,0.000
1606128119.970,-34.668,-41.016,-35.645,-47.363,0.000
1606128119.974,-43.945,-46.387,-39.551,-101.074,0.000
1606128119.978,-33.691,-40.527,-28.320,-64.453,0.000
1606128119.982,-22.461,-37.109,-13.672,2.441,0.000
1606128119.986,-28.320,-23.926,-28.809,-7.324,0.000
1606128119.989,-80.078,-26.367,-40.527,-104.004,0.000
1606128119.993,-131.348,-42.480,-40.527,-188.965,0.000
1606128119.997,-150.879,-36.621,-42.480,-176.270,0.000
1606128120.001,-106.934,-30.762,-31.250,-84.961,0.000
1606128120.005,-83.008,-25.391,-24.414,-59.570,0.000
1606128120.009,-125.488,-26.855,-23.438,-123.535,0.000
1606128120.013,-157.715,-33.203,-25.879,-195.801,0.000
1606128120.017,-155.273,-32.715,-29.297,-194.824,0.000
1606128120.021,-140.625,-32.715,-23.438,-103.027,0.000
1606128120.025,-119.141,-15.137,-24.902,-54.199,0.000
1606128120.028,-128.906,-10.254,-30.273,-103.516,0.000
1606128120.032,-159.668,-35.156,-31.738,-182.617,0.000
1606128120.036,-158.691,-39.551,-33.203,-186.035,0.000
1606128120.040,-113.281,-34.180,-30.762,-99.609,0.000
1606128120.044,-74.219,-30.273,-29.297,-47.363,0.000
1606128120.048,-82.520,-28.809,-36.133,-86.426,0.000
1606128120.052,-106.934,-39.551,-46.387,-170.898,0.000
1606128120.056,-104.980,-41.992,-45.410,-174.805,0.000
1606128120.060,-70.801,-35.156,-35.645,-82.031,0.000
1606128120.064,-41.016,-38.086,-29.297,-9.766,0.000
1606128120.068,-37.109,-46.387,-33.203,-32.227,0.000
1606128120.071,-63.477,-55.176,-27.832,-106.934,0.000
1606128120.075,-94.238,-64.453,-27.344,-125.000,0.000
1606128120.079,-60.547,-60.059,-33.691,-56.152,0.000
1606128120.083,-17.090,-49.316,-29.785,19.043,0.000
1606128120.087,-16.602,-25.391,-34.668,1.465,0.000
1606128120.091,-53.223,-29.785,-33.691,-85.449,0.000
1606128120.095,-81.543,-59.570,-27.344,-117.188,0.000
1606128120.099,-67.383,-56.641,-31.250,-61.035,0.000
1606128120.103,-37.598,-44.922,-29.297,14.648,0.000
1606128120.107,-34.668,-41.504,-28.320,9.277,0.000
1606128120.111,-75.684,-45.410,-28.809,-73.730,0.000
1606128120.114,-101.562,-48.828,-31.250,-122.559,0.000
1606128120.118,-88.867,-49.316,-34.180,-83.984,0.000
1606128120.122,-40.039,-47.363,-28.809,-0.488,0.000
1606128120.126,-17.090,-31.738,-32.715,11.230,0.000
1606128120.130,-70.312,-37.109,-33.203,-66.895,0.000
1606128120.134,-99.121,-50.781,-24.902,-119.629,0.000
1606128120.138,-76.172,-41.992,-28.809,-80.078,0.000
1606128120.142,-33.203,-40.039,-27.832,10.742,0.000
1606128120.146,-19.531,-45.410,-22.461,23.438,0.000
1606128120.150,-44.434,-45.410,-27.344,-56.641,0.000
1606128120.153,-70.312,-43.457,-30.273,-118.164,0.000
1606128120.157,-63.477,-40.039,-24.902,-88.867,0.000
1606128120.161,-21.484,-30.762,-18.555,1.465,0.000
1606128120.165,-9.277,-33.203,-21.484,25.879,0.000
1606128120.169,-35.156,-44.434,-28.809,-44.434,0.000
1606128120.173,-61.035,-50.293,-34.180,-120.605,0.000
1606128120.177,-64.941,-50.293,-35.156,-103.027,0.000
1606128120.181,-18.555,-40.039,-32.715,-4.395,0.000
1606128120.185,7.324,-35.645,-31.738,33.691,0.000
1606128120.189,-29.785,-41.016,-27.832,-22.949,0.000
1606128120.193,-59.082,-45.410,-28.809,-105.957,0.000
1606128120.196,-40.527,-41.504,-28.320,-97.168,0.000
1606128120.200,-22.461,-35.645,-20.996,4.395,0.000
1606128120.204,-29.297,-36.133,-19.531,44.922,0.000
1606128120.208,-32.715,-36.621,-19.043,1.465,0.000
1606128120.212,-61.035,-39.551,-23.926,-78.125,0.000
1606128120.216,-82.520,-38.574,-38.086,-96.191,0.000
1606128120.220,-46.387,-24.902,-41.992,-25.391,0.000
1606128120.224,-33.691,-17.090,-40.039,8.789,0.000
1606128120.228,-63.965,-16.113,-42.969,-34.180,0.000
1606128120.232,-80.566,-24.414,-39.551,-109.375,0.000
1606128120.236,-86.914,-35.156,-32.227,-116.211,0.000
1606128120.239,-65.430,-35.156,-30.762,-34.180,0.000
1606128120.243,-42.969,-31.738,-26.855,29.297,0.000
1606128120.247,-53.223,-28.320,-18.555,3.418,0.000
1606128120.251,-94.238,-37.598,-27.832,-82.520,0.000
1606128120.255,-94.727,-39.551,-43.945,-116.699,0.000
1606128120.259,-62.012,-27.832,-41.016,-49.805,0.000
1606128120.263,-23.438,-24.902,-34.180,25.391,0.000
1606128120.267,3.418,-6.348,-34.668,10.742,0.000
1606128120.271,-36.133,-6.348,-41.504,-77.148,0.000
1606128120.275,-60.059,-27.344,-41.504,-113.281,0.000
1606128120.278,-26.855,-23.438,-37.598,-58.594,0.000
1606128120.282,16.113,-18.555,-35.645,17.578,0.000
1606128120.286,14.160,-22.461,-33.691,20.020,0.000
