timestamps,TP9,AF7,AF8,TP10,Right AUX
1606130010.414,-0.488,0.000,0.000,-0.488,0.000
1606130010.418,0.488,0.000,0.000,0.977,0.000
1606130010.422,5.371,-0.977,-0.488,16.113,0.000
1606130010.426,-22.461,0.000,-0.488,-57.617,0.000
1606130010.430,92.773,-5.371,-3.418,246.582,0.000
1606130010.434,105.469,-24.414,-21.484,365.234,0.000
1606130010.438,-215.820,-52.246,-48.828,-381.348,0.000
1606130010.442,-306.152,-58.105,-40.039,-661.621,0.000
1606130010.446,-43.945,-38.574,-17.090,-78.125,0.000
1606130010.450,200.684,-19.043,-16.113,539.062,0.000
1606130010.453,136.719,-20.020,-20.508,428.223,0.000
1606130010.457,-168.457,-50.781,-40.527,-298.828,0.000
1606130010.461,-308.105,-77.637,-54.199,-665.039,0.000
1606130010.465,-87.402,-51.270,-34.180,-172.363,0.000
1606130010.469,194.336,-5.371,-13.672,505.859,0.000
1606130010.473,171.875,-12.207,-14.160,495.117,0.000
1606130010.477,-136.719,-42.969,-37.109,-213.379,0.000
1606130010.481,-303.711,-43.457,-48.340,-646.973,0.000
1606130010.485,-116.211,-22.949,-28.809,-247.559,0.000
1606130010.489,182.617,-6.348,-3.906,452.637,0.000
1606130010.492,203.613,-3.906,-1.953,547.363,0.000
1606130010.496,-92.285,-25.391,-21.484,-125.488,0.000
1606130010.500,-291.504,-50.293,-47.852,-641.602,0.000
1606130010.504,-156.738,-40.527,-59.082,-357.910,0.000
1606130010.508,134.277,-14.160,-32.715,354.980,0.000
1606130010.512,212.402,-2.441,-25.879,568.848,0.000
1606130010.516,-36.621,-15.625,-50.781,-28.809,0.000
1606130010.520,-262.695,-37.598,-65.430,-607.910,0.000
1606130010.524,-168.457,-38.574,-46.875,-420.898,0.000
1606130010.528,145.508,-6.348,-21.973,321.777,0.000
1606130010.532,263.184,13.184,-28.320,630.859,0.000
1606130010.535,31.738,-23.438,-48.340,101.074,0.000
1606130010.539,-225.098,-47.852,-60.059,-543.457,0.000
1606130010.543,-178.711,-37.598,-48.828,-475.586,0.000
1606130010.547,126.953,-17.090,-28.809,255.859,0.000
1606130010.551,266.602,-5.859,-23.926,637.695,0.000
1606130010.555,66.406,-20.996,-34.668,189.453,0.000
1606130010.559,-210.449,-51.270,-52.734,-492.188,0.000
1606130010.563,-219.238,-48.828,-50.293,-542.969,0.000
1606130010.567,88.867,-11.719,-15.137,165.039,0.000
1606130010.571,275.391,6.348,-5.859,646.484,0.000
1606130010.575,104.980,-16.113,-28.809,292.480,0.000
1606130010.578,-187.012,-34.180,-45.898,-416.504,0.000
1606130010.582,-245.117,-14.648,-49.316,-580.566,0.000
1606130010.586,26.855,6.836,-35.645,56.641,0.000
1606130010.590,249.023,-3.906,-22.461,606.445,0.000
1606130010.594,133.789,-21.484,-18.066,371.094,0.000
1606130010.598,-175.781,-48.828,-34.668,-356.934,0.000
1606130010.602,-274.414,-67.871,-52.734,-627.441,0.000
1606130010.606,-21.484,-44.434,-33.203,-57.617,0.000
1606130010.610,227.539,-24.414,-9.766,556.152,0.000
1606130010.614,157.715,-35.156,-11.230,435.547,0.000
1606130010.617,-153.809,-53.223,-31.250,-290.039,0.000
1606130010.621,-291.016,-57.617,-45.410,-654.785,0.000
1606130010.625,-73.730,-52.734,-31.738,-165.527,0.000
1606130010.629,198.242,-6.836,-15.137,508.789,0.000
1606130010.633,172.363,27.832,-14.648,496.582,0.000
1606130010.637,-127.441,-25.391,-28.320,-213.379,0.000
1606130010.641,-291.992,-50.781,-41.016,-652.344,0.000
1606130010.645,-115.723,-43.457,-28.320,-263.184,0.000
1606130010.649,177.246,-26.855,-2.441,438.965,0.000
1606130010.653,208.984,-12.695,-6.348,544.434,0.000
1606130010.657,-83.496,-33.203,-27.344,-124.512,0.000
1606130010.660,-291.504,-50.781,-35.645,-645.508,0.000
1606130010.664,-155.762,-46.387,-28.320,-362.305,0.000
1606130010.668,142.090,-23.438,-16.602,359.375,0.000
1606130010.672,212.402,-10.742,-13.672,563.477,0.000
1606130010.676,-55.176,-40.527,-23.438,-47.363,0.000
1606130010.680,-296.875,-36.621,-41.992,-631.348,0.000
1606130010.684,-202.637,-27.832,-31.738,-455.078,0.000
1606130010.688,112.305,-28.809,-5.371,288.574,0.000
1606130010.692,226.074,-20.996,-14.648,603.027,0.000
1606130010.696,-7.324,-42.480,-30.273,71.777,0.000
1606130010.700,-267.578,-52.734,-42.969,-571.777,0.000
1606130010.703,-212.891,-40.527,-41.016,-506.348,0.000
1606130010.707,102.051,-17.090,-20.020,214.844,0.000
1606130010.711,255.371,-5.859,-2.441,620.117,0.000
1606130010.715,51.758,-20.020,-16.602,165.527,0.000
1606130010.719,-228.027,-40.039,-41.016,-522.461,0.000
1606130010.723,-215.332,-38.086,-37.598,-541.992,0.000
1606130010.727,80.078,-17.578,-17.578,146.973,0.000
1606130010.731,259.277,25.879,-0.977,620.117,0.000
1606130010.735,96.680,20.020,-19.043,283.203,0.000
1606130010.739,-205.566,-42.969,-46.875,-436.523,0.000
1606130010.742,-259.277,-54.199,-40.039,-605.957,0.000
1606130010.746,26.855,-24.414,-17.090,41.504,0.000
1606130010.750,252.930,0.000,2.930,603.516,0.000
1606130010.754,136.230,-10.254,-6.836,368.652,0.000
1606130010.758,-176.270,-43.457,-35.156,-365.234,0.000
1606130010.762,-262.207,-55.664,-38.086,-617.188,0.000
1606130010.766,-17.578,-25.879,-19.043,-56.641,0.000
1606130010.770,203.125,-3.906,-5.859,531.250,0.000
1606130010.774,130.859,-17.578,-18.555,410.645,0.000
1606130010.778,-165.527,-32.227,-32.227,-307.617,0.000
1606130010.782,-303.223,-34.180,-39.062,-669.434,0.000
1606130010.785,-95.703,-29.297,-22.949,-184.570,0.000
1606130010.789,183.105,-9.766,3.906,491.699,0.000
1606130010.793,160.156,-14.160,2.441,485.840,0.000
1606130010.797,-145.020,-41.016,-34.180,-229.492,0.000
1606130010.801,-313.965,-54.199,-52.246,-676.758,0.000
1606130010.805,-132.812,-42.480,-31.250,-285.156,0.000
1606130010.809,166.504,-16.602,-16.113,429.688,0.000
1606130010.813,191.406,-15.137,-15.625,541.992,0.000
1606130010.817,-104.980,-49.316,-35.156,-138.672,0.000
1606130010.821,-306.152,-67.383,-53.711,-662.109,0.000
1606130010.825,-162.109,-46.875,-35.156,-370.117,0.000
1606130010.828,150.879,-20.996,-6.836,371.582,0.000
1606130010.832,214.844,-19.043,-15.137,561.523,0.000
1606130010.836,-59.570,-39.551,-33.691,-58.594,0.000
1606130010.840,-279.785,-39.062,-33.203,-610.352,0.000
1606130010.844,-186.523,-18.555,-27.344,-436.523,0.000
1606130010.848,127.930,-10.254,-6.348,294.434,0.000
1606130010.852,250.977,0.977,1.465,607.910,0.000
1606130010.856,11.230,-18.066,-23.926,74.707,0.000
1606130010.860,-259.766,-37.109,-46.387,-576.660,0.000
1606130010.864,-214.844,-33.203,-40.039,-518.555,0.000
1606130010.867,96.680,-11.230,-18.555,208.008,0.000
1606130010.871,250.977,7.812,-11.719,607.422,0.000
1606130010.875,54.688,-18.555,-22.949,166.504,0.000
1606130010.879,-230.957,-46.387,-44.922,-519.531,0.000
1606130010.883,-248.047,-47.852,-50.781,-577.637,0.000
1606130010.887,41.504,-24.902,-21.973,111.816,0.000
1606130010.891,230.469,-1.953,-1.953,604.004,0.000
1606130010.895,71.289,-14.160,-19.531,267.090,0.000
1606130010.899,-239.258,-50.781,-41.504,-458.984,0.000
1606130010.903,-294.922,-53.223,-42.969,-629.395,0.000
1606130010.907,-3.906,-25.391,-25.879,19.043,0.000
1606130010.910,218.262,-13.184,-19.043,574.219,0.000
1606130010.914,94.727,-27.344,-30.273,335.938,0.000
1606130010.918,-208.496,-42.969,-41.504,-388.184,0.000
1606130010.922,-291.992,-23.926,-40.527,-645.996,0.000
1606130010.926,-38.086,-4.395,-19.531,-63.965,0.000
1606130010.930,217.773,3.418,-15.137,554.688,0.000
1606130010.934,158.691,-5.859,-15.137,433.105,0.000
1606130010.938,-152.344,-28.809,-25.391,-293.945,0.000
1606130010.942,-285.645,-37.598,-37.598,-651.367,0.000
1606130010.946,-64.453,-30.762,-20.508,-168.457,0.000
1606130010.950,206.543,-7.812,-10.742,496.582,0.000
1606130010.953,185.059,-5.371,-17.090,498.535,0.000
1606130010.957,-118.652,-33.203,-33.203,-210.938,0.000
1606130010.961,-284.668,-29.785,-41.016,-658.203,0.000
1606130010.965,-101.562,-19.043,-25.879,-262.695,0.000
1606130010.969,181.152,-17.090,-12.695,441.406,0.000
1606130010.973,210.938,-15.137,-7.324,550.293,0.000
1606130010.977,-73.730,-37.109,-20.020,-120.605,0.000
1606130010.981,-282.715,-48.340,-34.668,-649.414,0.000
1606130010.985,-138.184,-41.992,-30.273,-358.398,0.000
1606130010.989,168.945,-26.855,-20.508,376.465,0.000
1606130010.992,227.051,-9.766,-11.230,580.078,0.000
1606130010.996,-53.711,-28.809,-27.344,-43.457,0.000
1606130011.000,-291.504,-29.297,-41.992,-634.277,0.000
1606130011.004,-206.055,-8.789,-37.598,-466.309,0.000
1606130011.008,95.215,-14.648,-15.137,262.695,0.000
1606130011.012,215.820,-16.113,-1.465,587.402,0.000
1606130011.016,-13.184,-28.809,-14.160,67.383,0.000
1606130011.020,-277.832,-51.758,-27.344,-581.543,0.000
1606130011.024,-234.863,-45.898,-25.879,-523.438,0.000
1606130011.028,77.637,-15.625,1.465,200.684,0.000
1606130011.032,233.398,-5.859,11.719,604.004,0.000
1606130011.035,28.320,-23.926,-16.602,165.527,0.000
1606130011.039,-256.836,-47.852,-36.133,-520.020,0.000
1606130011.043,-259.277,-47.852,-30.762,-574.219,0.000
1606130011.047,37.109,-20.996,-19.531,114.746,0.000
1606130011.051,223.145,-13.672,-15.625,596.680,0.000
1606130011.055,69.336,-26.855,-29.785,262.207,0.000
1606130011.059,-226.562,-33.691,-43.457,-453.613,0.000
1606130011.063,-276.367,-35.156,-37.598,-624.023,0.000
1606130011.067,2.441,-31.250,-19.043,17.090,0.000
1606130011.071,217.285,-11.230,0.977,573.242,0.000
1606130011.075,109.863,-17.578,-6.836,344.727,0.000
1606130011.078,-193.848,-48.828,-43.457,-384.766,0.000
1606130011.082,-299.805,-51.758,-52.246,-660.156,0.000
1606130011.086,-43.945,-23.926,-27.344,-86.426,0.000
1606130011.090,216.309,-1.465,-4.883,541.992,0.000
1606130011.094,149.902,-12.207,-13.184,426.270,0.000
1606130011.098,-159.668,-43.457,-41.992,-302.246,0.000
1606130011.102,-298.828,-48.828,-55.176,-669.922,0.000
1606130011.106,-78.613,-30.273,-36.621,-183.594,0.000
1606130011.110,201.172,-20.996,-19.531,494.141,0.000
1606130011.114,181.641,-19.043,-24.414,494.141,0.000
1606130011.117,-123.535,-46.387,-42.480,-218.262,0.000
1606130011.121,-300.293,-63.477,-48.828,-667.480,0.000
1606130011.125,-117.676,-37.109,-33.691,-276.367,0.000
1606130011.129,180.664,-6.348,-10.254,434.570,0.000
1606130011.133,216.797,-5.859,-4.395,552.734,0.000
1606130011.137,-76.172,-29.297,-24.902,-115.723,0.000
1606130011.141,-290.527,-34.668,-42.969,-642.578,0.000
1606130011.145,-150.391,-29.297,-37.598,-359.375,0.000
1606130011.149,159.180,-13.184,-10.254,369.629,0.000
1606130011.153,228.027,-10.254,-1.465,584.473,0.000
1606130011.157,-46.387,-27.344,-31.250,-23.926,0.000
1606130011.160,-285.645,-40.527,-48.828,-613.770,0.000
1606130011.164,-193.359,-36.621,-26.855,-439.941,0.000
1606130011.168,114.746,-16.113,-5.859,292.969,0.000
1606130011.172,222.656,-7.812,-10.254,605.469,0.000
1606130011.176,-14.160,-24.902,-32.227,75.195,0.000
1606130011.180,-275.391,-46.387,-41.504,-578.613,0.000
1606130011.184,-233.887,-41.992,-31.250,-522.461,0.000
1606130011.188,70.312,-16.113,-16.113,201.660,0.000
1606130011.192,230.957,2.441,-12.207,607.422,0.000
1606130011.196,40.039,-25.391,-21.973,173.340,0.000
1606130011.200,-251.953,-33.691,-39.551,-523.926,0.000
1606130011.203,-263.184,-7.324,-48.340,-590.820,0.000
1606130011.207,36.621,-13.672,-27.344,98.145,0.000
1606130011.211,227.539,-15.625,-16.602,583.984,0.000
1606130011.215,74.707,-24.414,-29.785,254.883,0.000
1606130011.219,-229.004,-39.062,-45.898,-462.891,0.000
1606130011.223,-289.062,-45.898,-50.781,-634.766,0.000
1606130011.227,0.977,-33.691,-24.414,14.648,0.000
1606130011.231,224.121,-5.859,-5.859,579.590,0.000
1606130011.235,110.352,-20.508,-22.949,353.027,0.000
1606130011.239,-186.035,-40.527,-43.945,-374.512,0.000
1606130011.242,-297.363,-41.016,-53.711,-652.832,0.000
1606130011.246,-50.293,-39.062,-41.016,-88.379,0.000
1606130011.250,215.820,-13.672,-23.926,542.480,0.000
1606130011.254,158.203,-18.066,-16.113,437.012,0.000
1606130011.258,-155.762,-51.270,-30.762,-289.551,0.000
1606130011.262,-294.434,-59.570,-41.992,-654.785,0.000
1606130011.266,-71.289,-36.133,-22.461,-166.504,0.000
1606130011.270,207.520,-8.789,-1.953,506.348,0.000
1606130011.274,186.035,-14.648,0.488,495.605,0.000
1606130011.278,-115.723,-30.762,-31.738,-210.938,0.000
1606130011.282,-295.898,-25.391,-45.898,-648.926,0.000
1606130011.285,-127.441,-23.438,-26.855,-267.090,0.000
1606130011.289,166.992,-12.695,-13.184,431.641,0.000
1606130011.293,192.383,-20.996,-10.742,539.551,0.000
1606130011.297,-95.703,-44.922,-30.762,-122.070,0.000
1606130011.301,-302.734,-53.711,-38.086,-645.996,0.000
1606130011.305,-165.039,-48.828,-19.531,-367.188,0.000
1606130011.309,138.184,-21.973,-11.230,361.328,0.000
1606130011.313,208.496,-9.277,-15.137,582.520,0.000
1606130011.317,-51.270,-26.367,-28.809,-23.438,0.000
1606130011.321,-283.691,-44.922,-32.715,-620.117,0.000
1606130011.325,-193.359,-41.504,-25.391,-450.195,0.000
1606130011.328,119.141,-12.207,-23.926,284.668,0.000
1606130011.332,234.863,1.953,-16.113,587.402,0.000
1606130011.336,0.000,-18.555,-18.555,59.082,0.000
1606130011.340,-261.719,-26.367,-41.016,-584.961,0.000
1606130011.344,-220.215,-21.973,-40.527,-532.227,0.000
1606130011.348,86.914,-22.461,-19.531,194.336,0.000
1606130011.352,237.305,-20.020,-18.555,599.609,0.000
1606130011.356,35.645,-33.203,-39.062,166.016,0.000
1606130011.360,-244.141,-54.199,-49.805,-503.418,0.000
1606130011.364,-248.535,-60.059,-29.297,-567.871,0.000
1606130011.367,56.152,-34.668,-6.348,120.605,0.000
1606130011.371,253.418,-3.906,-7.812,617.188,0.000
1606130011.375,90.332,-21.484,-19.043,279.785,0.000
1606130011.379,-216.309,-34.668,-32.715,-432.617,0.000
1606130011.383,-270.020,-19.043,-37.598,-604.492,0.000
1606130011.387,6.348,-21.484,-23.926,24.414,0.000
1606130011.391,243.164,-13.672,-0.488,597.168,0.000
1606130011.395,146.973,-18.555,-6.348,391.113,0.000
1606130011.399,-165.527,-43.457,-32.227,-344.238,0.000
1606130011.403,-270.020,-47.852,-34.668,-630.371,0.000
1606130011.407,-27.832,-22.461,-13.672,-68.848,0.000
1606130011.410,223.145,-1.953,2.441,557.129,0.000
1606130011.414,156.738,-21.484,-4.883,441.895,0.000
1606130011.418,-161.621,-34.668,-30.762,-293.457,0.000
1606130011.422,-298.828,-25.391,-38.574,-664.551,0.000
1606130011.426,-75.195,-28.320,-13.672,-187.012,0.000
1606130011.430,195.312,-24.414,-5.371,481.934,0.000
1606130011.434,182.617,-25.391,-12.207,484.375,0.000
1606130011.438,-123.535,-39.062,-24.902,-218.262,0.000
1606130011.442,-312.988,-53.223,-42.969,-669.434,0.000
1606130011.446,-132.324,-39.551,-32.715,-286.621,0.000
1606130011.450,167.969,-12.695,-19.043,418.457,0.000
1606130011.453,200.684,-13.184,-20.508,543.457,0.000
1606130011.457,-86.914,-33.691,-34.668,-116.211,0.000
1606130011.461,-291.504,-43.457,-41.992,-649.902,0.000
1606130011.465,-154.785,-33.203,-32.715,-371.094,0.000
1606130011.469,151.367,-10.254,-11.230,364.258,0.000
1606130011.473,225.098,-8.301,-9.766,581.055,0.000
1606130011.477,-42.969,-44.434,-29.297,-26.855,0.000
1606130011.481,-285.645,-30.762,-35.156,-623.047,0.000
1606130011.485,-201.172,-3.418,-33.691,-459.473,0.000
1606130011.489,114.258,-17.578,-15.625,279.297,0.000
1606130011.492,234.863,-14.648,-4.395,599.609,0.000
1606130011.496,-4.395,-27.344,-25.879,72.754,0.000
1606130011.500,-270.996,-47.363,-50.781,-572.754,0.000
1606130011.504,-230.469,-49.316,-46.875,-519.531,0.000
1606130011.508,72.754,-25.879,-31.250,195.801,0.000
1606130011.512,238.770,-8.789,-20.508,611.328,0.000
1606130011.516,50.293,-25.879,-19.531,189.941,0.000
1606130011.520,-239.746,-23.438,-40.527,-507.324,0.000
1606130011.524,-255.371,-25.879,-46.387,-583.984,0.000
1606130011.528,37.598,-30.762,-19.531,102.051,0.000
1606130011.532,227.539,-19.531,-8.301,593.750,0.000
1606130011.535,69.336,-42.969,-27.344,263.184,0.000
1606130011.539,-226.562,-60.059,-44.922,-451.660,0.000
1606130011.543,-274.902,-48.828,-37.598,-621.582,0.000
1606130011.547,3.418,-32.227,-17.090,14.648,0.000
1606130011.551,233.887,-20.996,3.906,578.125,0.000
1606130011.555,117.188,-22.949,-17.578,348.633,0.000
1606130011.559,-201.660,-31.738,-48.828,-390.625,0.000
1606130011.563,-293.945,-29.785,-46.387,-660.645,0.000
1606130011.567,-33.203,-23.926,-32.715,-87.891,0.000
1606130011.571,220.703,-13.184,-10.742,537.109,0.000
1606130011.575,151.367,-26.367,-7.324,426.270,0.000
1606130011.578,-155.762,-40.527,-37.109,-295.898,0.000
1606130011.582,-290.527,-41.504,-42.969,-657.227,0.000
1606130011.586,-76.660,-44.922,-22.949,-179.199,0.000
1606130011.590,200.684,-27.832,-7.812,497.070,0.000
1606130011.594,189.941,-24.414,-2.441,507.812,0.000
1606130011.598,-114.746,-46.875,-24.902,-205.566,0.000
1606130011.602,-289.551,-56.641,-37.598,-656.738,0.000
1606130011.606,-113.770,-44.922,-26.367,-278.320,0.000
1606130011.610,179.688,-14.648,-16.602,425.781,0.000
1606130011.614,208.496,-6.348,-16.113,543.457,0.000
1606130011.617,-79.102,-32.227,-21.484,-124.512,0.000
1606130011.621,-284.668,-21.973,-29.297,-648.438,0.000
1606130011.625,-152.832,-18.066,-30.762,-370.117,0.000
1606130011.629,157.715,-12.695,-22.949,356.934,0.000
1606130011.633,229.004,-12.695,-29.785,565.918,0.000
1606130011.637,-42.969,-35.156,-34.668,-35.645,0.000
1606130011.641,-268.555,-45.898,-39.062,-616.699,0.000
1606130011.645,-179.688,-36.621,-34.668,-452.637,0.000
1606130011.649,112.305,-16.113,-10.742,277.832,0.000
1606130011.653,228.027,-7.812,-15.625,597.168,0.000
1606130011.657,-4.883,-25.879,-34.180,74.219,0.000
1606130011.660,-280.762,-42.480,-51.758,-583.008,0.000
1606130011.664,-242.676,-49.805,-50.293,-537.109,0.000
1606130011.668,72.266,-40.527,-27.832,189.453,0.000
1606130011.672,232.910,-23.926,-18.066,597.656,0.000
1606130011.676,42.480,-52.246,-29.785,173.340,0.000
1606130011.680,-240.234,-38.086,-43.945,-514.648,0.000
1606130011.684,-248.535,-22.461,-44.922,-584.473,0.000
1606130011.688,54.199,-35.645,-21.484,107.910,0.000
1606130011.692,250.977,-11.719,-5.859,597.168,0.000
1606130011.696,89.355,-23.438,-23.926,266.113,0.000
1606130011.700,-215.332,-48.828,-47.852,-446.289,0.000
1606130011.703,-273.926,-55.176,-52.246,-623.047,0.000
1606130011.707,-4.395,-47.363,-31.250,0.488,0.000
1606130011.711,223.145,-28.809,-18.555,569.336,0.000
1606130011.715,111.816,-42.480,-19.531,354.980,0.000
1606130011.719,-196.777,-32.715,-31.250,-375.977,0.000
1606130011.723,-292.480,-22.949,-34.668,-645.996,0.000
1606130011.727,-43.457,-33.203,-7.324,-83.984,0.000
1606130011.731,204.102,-4.883,4.883,542.480,0.000
1606130011.735,130.859,-11.719,-13.672,429.688,0.000
1606130011.739,-168.945,-43.457,-28.809,-300.293,0.000
1606130011.742,-298.828,-54.199,-30.273,-659.180,0.000
1606130011.746,-91.309,-31.738,-23.926,-186.523,0.000
1606130011.750,186.523,-5.859,-3.418,488.770,0.000
1606130011.754,174.805,-16.113,-10.254,498.535,0.000
1606130011.758,-127.930,-40.039,-38.086,-214.844,0.000
1606130011.762,-310.547,-12.695,-39.062,-672.852,0.000
1606130011.766,-140.137,-2.930,-29.785,-295.410,0.000
1606130011.770,162.598,-3.418,-18.555,410.156,0.000
1606130011.774,208.008,3.418,-5.371,537.109,0.000
1606130011.778,-72.266,-24.902,-19.043,-118.652,0.000
1606130011.782,-281.738,-42.480,-42.969,-647.949,0.000
1606130011.785,-149.902,-33.203,-29.297,-376.953,0.000
1606130011.789,155.273,-11.719,-10.742,347.656,0.000
1606130011.793,232.910,-8.301,-2.930,579.590,0.000
1606130011.797,-24.902,-29.297,-19.531,-15.625,0.000
1606130011.801,-263.184,-29.785,-47.363,-614.258,0.000
1606130011.805,-176.270,-26.367,-36.621,-450.195,0.000
1606130011.809,130.371,-17.090,-6.348,292.480,0.000
1606130011.813,242.676,-6.836,-3.418,625.000,0.000
1606130011.817,8.789,-23.926,-30.273,109.375,0.000
1606130011.821,-256.836,-44.434,-27.832,-537.109,0.000
1606130011.825,-221.680,-52.246,-25.391,-491.699,0.000
1606130011.828,81.055,-30.762,-23.926,214.844,0.000
1606130011.832,238.281,-17.578,-8.789,613.770,0.000
1606130011.836,42.480,-31.250,-7.324,189.453,0.000
1606130011.840,-243.652,-40.527,-23.926,-497.559,0.000
1606130011.844,-250.000,-39.551,-24.902,-564.941,0.000
1606130011.848,50.293,-20.508,-11.719,124.512,0.000
1606130011.852,235.840,-7.812,-5.859,609.375,0.000
1606130011.856,68.359,-37.109,-21.484,271.973,0.000
1606130011.860,-239.746,-36.621,-50.293,-453.613,0.000
1606130011.864,-296.875,-13.184,-42.969,-634.766,0.000
1606130011.867,-14.648,-25.391,-15.625,5.859,0.000
1606130011.871,220.215,-13.672,-0.488,578.613,0.000
1606130011.875,106.934,-21.973,-15.137,353.516,0.000
1606130011.879,-205.566,-56.641,-33.203,-380.371,0.000
1606130011.883,-306.152,-62.500,-31.738,-666.016,0.000
1606130011.887,-48.340,-31.250,-15.137,-97.168,0.000
1606130011.891,199.707,-5.371,-10.742,515.625,0.000
1606130011.895,129.883,-24.902,-24.414,394.531,0.000
1606130011.899,-161.621,-28.320,-37.109,-309.570,0.000
1606130011.903,-301.270,-12.207,-49.805,-690.430,0.000
1606130011.907,-83.496,-22.949,-35.645,-211.914,0.000
1606130011.910,196.289,-13.672,-11.719,472.168,0.000
1606130011.914,187.012,-6.348,-6.348,489.746,0.000
1606130011.918,-109.375,-20.996,-29.297,-215.820,0.000
1606130011.922,-284.180,-38.574,-32.715,-671.387,0.000
1606130011.926,-109.863,-30.273,-9.277,-285.156,0.000
1606130011.930,184.082,-9.766,-0.977,422.852,0.000
1606130011.934,217.285,-19.043,-11.719,548.828,0.000
1606130011.938,-72.754,-34.668,-36.621,-104.980,0.000
1606130011.942,-290.527,-9.766,-51.758,-640.625,0.000
1606130011.946,-157.715,-10.742,-32.715,-368.164,0.000
1606130011.950,148.438,-20.508,-10.742,363.770,0.000
1606130011.953,225.586,-15.625,-11.719,591.797,0.000
1606130011.957,-33.691,-38.086,-27.832,-2.441,0.000
1606130011.961,-277.832,-52.734,-38.574,-605.469,0.000
1606130011.965,-196.777,-45.410,-27.832,-448.242,0.000
1606130011.969,108.398,-22.461,-9.277,288.574,0.000
1606130011.973,223.145,-15.137,-3.418,604.004,0.000
1606130011.977,-8.301,-36.133,-29.785,80.566,0.000
1606130011.981,-270.020,-49.805,-47.363,-569.336,0.000
1606130011.985,-231.934,-51.270,-46.387,-524.902,0.000
1606130011.989,77.148,-30.273,-25.391,196.777,0.000
1606130011.992,239.746,-12.207,-3.418,604.004,0.000
1606130011.996,42.480,-32.227,-16.602,169.434,0.000
1606130012.000,-251.953,-35.156,-41.992,-523.438,0.000
1606130012.004,-266.113,-42.480,-47.363,-600.098,0.000
1606130012.008,39.551,-39.062,-29.297,86.426,0.000
1606130012.012,237.793,-11.719,-21.973,588.867,0.000
1606130012.016,86.914,-22.461,-19.531,270.508,0.000
1606130012.020,-201.172,-41.504,-31.738,-448.730,0.000
1606130012.024,-262.207,-43.457,-42.480,-633.301,0.000
1606130012.028,17.090,-23.926,-18.555,20.508,0.000
1606130012.032,248.047,1.953,-0.977,600.098,0.000
1606130012.035,129.883,-17.578,-18.066,364.746,0.000
1606130012.039,-182.617,-33.691,-46.387,-369.629,0.000
1606130012.043,-291.992,-14.160,-49.316,-654.785,0.000
1606130012.047,-43.945,-25.879,-20.020,-89.355,0.000
1606130012.051,212.402,-32.227,-1.953,546.387,0.000
1606130012.055,150.879,-32.227,-8.789,439.453,0.000
1606130012.059,-156.738,-47.363,-29.785,-292.969,0.000
1606130012.063,-295.898,-53.223,-32.715,-657.715,0.000
1606130012.067,-83.984,-34.668,-7.324,-177.246,0.000
1606130012.071,194.824,-13.184,11.719,504.395,0.000
1606130012.075,187.500,-28.809,-1.465,522.461,0.000
1606130012.078,-123.535,-30.762,-41.016,-189.941,0.000
1606130012.082,-309.082,-15.137,-56.641,-655.273,0.000
1606130012.086,-131.836,-31.250,-31.738,-278.809,0.000
1606130012.090,164.551,-18.066,-7.324,432.617,0.000
1606130012.094,199.707,-21.973,-8.301,559.570,0.000
1606130012.098,-86.914,-48.340,-29.785,-100.098,0.000
1606130012.102,-301.758,-55.176,-38.086,-637.695,0.000
1606130012.106,-167.969,-43.457,-15.625,-369.141,0.000
1606130012.110,152.344,-11.230,3.906,369.141,0.000
1606130012.114,230.957,-7.812,-0.488,598.633,0.000
1606130012.117,-37.109,-42.480,-22.461,-7.324,0.000
1606130012.121,-272.461,-58.594,-44.922,-601.562,0.000
1606130012.125,-181.641,-45.898,-36.621,-441.406,0.000
1606130012.129,129.883,-16.602,-16.113,284.668,0.000
1606130012.133,250.000,-6.836,-10.742,609.375,0.000
1606130012.137,19.531,-33.691,-20.996,91.309,0.000
1606130012.141,-239.258,-5.371,-25.391,-557.617,0.000
1606130012.145,-203.613,17.578,-19.043,-513.672,0.000
1606130012.149,79.590,-15.625,-15.625,190.918,0.000
1606130012.153,231.934,-15.137,-11.719,605.957,0.000
1606130012.157,40.527,-24.902,-20.996,191.406,0.000
1606130012.160,-243.652,-48.340,-37.598,-500.488,0.000
1606130012.164,-251.953,-50.781,-41.016,-574.707,0.000
1606130012.168,39.062,-21.973,-20.508,105.469,0.000
1606130012.172,233.887,-9.277,-1.465,603.516,0.000
1606130012.176,81.055,-37.109,-2.930,286.133,0.000
1606130012.180,-225.586,-29.785,-24.902,-437.500,0.000
1606130012.184,-282.227,-26.367,-25.391,-619.141,0.000
1606130012.188,-4.883,-33.203,-13.184,8.789,0.000
1606130012.192,223.145,-12.207,-13.672,567.871,0.000
1606130012.196,112.305,-24.414,-18.066,349.609,0.000
1606130012.200,-202.148,-46.387,-30.273,-381.836,0.000
1606130012.203,-294.922,-43.457,-33.203,-654.785,0.000
1606130012.207,-35.645,-25.879,-16.602,-93.750,0.000
1606130012.211,220.215,-13.184,6.836,528.809,0.000
1606130012.215,159.668,-26.367,8.301,431.641,0.000
1606130012.219,-154.297,-28.320,-25.391,-298.828,0.000
1606130012.223,-307.129,0.488,-62.500,-689.453,0.000
1606130012.227,-91.797,-15.137,-48.828,-217.285,0.000
1606130012.231,184.570,-23.926,-21.484,464.355,0.000
1606130012.235,165.039,-22.949,-24.902,477.051,0.000
1606130012.239,-134.277,-35.156,-43.945,-221.680,0.000
1606130012.242,-300.293,-42.969,-39.062,-666.992,0.000
1606130012.246,-122.559,-40.039,-29.785,-292.969,0.000
1606130012.250,176.270,-12.695,-10.254,426.758,0.000
1606130012.254,217.285,-1.465,-3.906,563.965,0.000
1606130012.258,-70.312,-19.531,-38.574,-107.422,0.000
1606130012.262,-279.785,-39.062,-45.410,-643.555,0.000
1606130012.266,-145.996,-34.180,-30.762,-364.258,0.000
1606130012.270,157.715,-4.883,-17.090,367.676,0.000
1606130012.274,231.445,-6.836,-12.207,596.680,0.000
1606130012.278,-35.645,-18.555,-26.855,-3.418,0.000
1606130012.282,-287.109,-11.230,-38.574,-607.422,0.000
1606130012.285,-196.289,-20.996,-25.879,-443.359,0.000
1606130012.289,115.723,-13.184,-8.301,291.504,0.000
1606130012.293,238.281,-1.953,2.441,614.746,0.000
1606130012.297,15.137,-21.484,-17.578,92.773,0.000
1606130012.301,-256.836,-41.992,-53.223,-572.266,0.000
1606130012.305,-229.004,-46.387,-51.758,-539.062,0.000
1606130012.309,78.125,-17.578,-23.438,184.082,0.000
1606130012.313,250.488,8.789,-10.742,608.887,0.000
1606130012.317,57.617,-22.949,-19.531,187.988,0.000
1606130012.321,-246.094,-9.766,-33.203,-513.184,0.000
1606130012.325,-273.926,8.789,-24.902,-599.121,0.000
1606130012.328,21.484,-22.461,5.859,82.031,0.000
1606130012.332,224.121,-16.602,10.742,582.031,0.000
1606130012.336,59.570,-27.344,-1.465,260.254,0.000
1606130012.340,-250.000,-56.641,-14.648,-463.379,0.000
1606130012.344,-296.387,-66.406,-19.043,-639.160,0.000
1606130012.348,-20.996,-40.039,-0.977,-3.906,0.000
1606130012.352,202.148,-13.184,4.395,555.664,0.000
1606130012.356,96.191,-31.738,-7.812,341.797,0.000
1606130012.360,-214.844,-25.391,-20.020,-383.301,0.000
1606130012.364,-320.312,-30.273,-32.715,-669.922,0.000
1606130012.367,-66.895,-50.781,-13.672,-108.887,0.000
1606130012.371,203.613,-14.160,13.184,530.273,0.000
1606130012.375,144.043,-15.137,0.000,432.617,0.000
1606130012.379,-173.340,-43.457,-27.344,-298.828,0.000
1606130012.383,-314.453,-57.129,-31.738,-672.852,0.000
1606130012.387,-99.609,-39.551,-11.719,-192.871,0.000
1606130012.391,179.199,-15.625,7.812,494.141,0.000
1606130012.395,167.480,-26.367,8.301,508.789,0.000
1606130012.399,-134.766,-50.293,-12.207,-200.684,0.000
1606130012.403,-312.012,-57.617,-22.949,-656.738,0.000
1606130012.407,-145.508,-53.223,-25.879,-281.738,0.000
1606130012.410,155.273,-34.180,-17.090,428.223,0.000
1606130012.414,197.266,-37.598,-12.207,551.758,0.000
1606130012.418,-96.191,-43.945,-33.691,-107.910,0.000
1606130012.422,-301.270,-5.371,-38.086,-638.672,0.000
1606130012.426,-158.691,-9.766,-21.484,-367.676,0.000
1606130012.430,142.578,-22.949,-15.137,359.375,0.000
1606130012.434,216.797,-23.926,-13.672,579.590,0.000
1606130012.438,-44.434,-49.316,-28.809,-20.020,0.000
1606130012.442,-286.621,-70.801,-42.969,-612.305,0.000
1606130012.446,-199.219,-62.500,-28.320,-446.289,0.000
1606130012.450,109.375,-28.809,-17.090,282.715,0.000
1606130012.453,240.723,-18.555,-11.230,604.980,0.000
1606130012.457,21.484,-39.062,-18.066,86.426,0.000
1606130012.461,-248.535,-34.668,-31.250,-568.848,0.000
1606130012.465,-212.891,-33.203,-26.855,-523.926,0.000
1606130012.469,94.238,-25.391,-7.324,201.172,0.000
1606130012.473,258.301,-10.742,7.812,613.770,0.000
1606130012.477,72.266,-19.531,-15.625,193.359,0.000
1606130012.481,-211.426,-37.109,-45.410,-498.535,0.000
1606130012.485,-220.215,-38.086,-39.551,-572.754,0.000
1606130012.489,72.266,-20.020,-13.672,116.211,0.000
1606130012.492,254.883,-9.277,-3.418,608.887,0.000
1606130012.496,102.051,-20.020,-15.137,290.527,0.000
1606130012.500,-193.359,-22.949,-16.602,-416.016,0.000
1606130012.504,-259.766,-22.461,-20.508,-606.934,0.000
1606130012.508,6.836,-37.598,-21.484,11.230,0.000
1606130012.512,237.305,-27.344,-9.277,577.637,0.000
1606130012.516,140.625,-13.184,-8.789,366.699,0.000
1606130012.520,-172.363,-29.785,-20.020,-361.328,0.000
1606130012.524,-283.203,-49.805,-27.832,-642.578,0.000
1606130012.528,-35.156,-28.320,-16.602,-87.402,0.000
1606130012.532,220.215,-7.324,-4.883,541.992,0.000
1606130012.535,157.715,-18.555,-19.531,440.430,0.000
1606130012.539,-153.809,-41.016,-31.250,-290.039,0.000
1606130012.543,-298.340,-52.246,-24.902,-663.574,0.000
1606130012.547,-87.402,-35.156,-18.555,-193.359,0.000
1606130012.551,186.523,-8.789,-11.719,482.910,0.000
1606130012.555,174.316,-10.254,-9.766,497.559,0.000
1606130012.559,-127.441,-28.320,-21.973,-207.031,0.000
1606130012.563,-307.129,-40.039,-39.062,-666.504,0.000
1606130012.567,-125.000,-34.668,-34.668,-291.992,0.000
1606130012.571,178.711,-8.301,-4.395,422.852,0.000
1606130012.575,208.008,-5.859,-0.977,544.434,0.000
1606130012.578,-82.031,-28.320,-29.297,-117.676,0.000
1606130012.582,-290.527,-43.945,-41.992,-645.020,0.000
1606130012.586,-153.809,-39.062,-27.832,-372.559,0.000
1606130012.590,151.367,-12.695,-7.324,357.910,0.000
1606130012.594,226.562,-7.812,-14.160,594.727,0.000
1606130012.598,-32.715,-37.598,-42.969,2.441,0.000
1606130012.602,-278.320,-34.180,-51.270,-597.168,0.000
1606130012.606,-194.336,-27.832,-31.250,-438.477,0.000
1606130012.610,128.906,-24.414,-6.836,304.199,0.000
1606130012.614,257.324,-0.977,2.930,631.836,0.000
1606130012.617,23.926,-11.230,-5.371,109.863,0.000
1606130012.621,-235.840,-21.484,-28.320,-541.504,0.000
1606130012.625,-199.707,-14.160,-24.902,-506.836,0.000
1606130012.629,95.215,-1.953,-9.766,205.078,0.000
1606130012.633,248.047,0.977,-13.184,621.094,0.000
1606130012.637,64.453,-22.461,-29.297,200.684,0.000
1606130012.641,-215.820,-31.250,-44.922,-490.234,0.000
1606130012.645,-238.281,-31.250,-44.434,-580.566,0.000
1606130012.649,56.152,-20.508,-20.508,102.051,0.000
1606130012.653,249.512,-4.883,1.465,607.422,0.000
1606130012.657,97.656,-14.160,-20.508,276.367,0.000
1606130012.660,-204.590,-28.320,-42.480,-441.895,0.000
1606130012.664,-256.836,-31.738,-37.109,-619.629,0.000
1606130012.668,19.043,-12.695,-24.414,14.160,0.000
1606130012.672,244.141,1.953,-11.719,586.914,0.000
1606130012.676,145.020,-12.695,-10.254,373.047,0.000
1606130012.680,-162.598,-30.762,-22.949,-354.492,0.000
1606130012.684,-269.043,-32.227,-29.297,-627.930,0.000
1606130012.688,-24.414,-12.207,-0.977,-65.430,0.000
1606130012.692,229.492,5.859,10.254,563.477,0.000
1606130012.696,162.598,-11.719,-13.672,447.266,0.000
1606130012.700,-154.297,-28.320,-35.645,-288.086,0.000
1606130012.703,-303.711,-26.855,-44.434,-656.738,0.000
1606130012.707,-94.727,-33.203,-17.090,-195.312,0.000
1606130012.711,191.895,-13.672,7.324,483.398,0.000
1606130012.715,183.594,-7.324,-2.930,502.930,0.000
1606130012.719,-121.582,-35.645,-23.926,-192.871,0.000
1606130012.723,-297.852,-47.852,-43.457,-649.902,0.000
1606130012.727,-124.512,-34.180,-23.926,-284.180,0.000
1606130012.731,169.922,-11.230,8.789,424.316,0.000
1606130012.735,204.102,-8.789,-8.301,550.293,0.000
1606130012.739,-90.820,-27.832,-40.039,-119.141,0.000
1606130012.742,-304.199,-45.410,-42.480,-657.715,0.000
1606130012.746,-168.945,-56.641,-37.109,-389.648,0.000
1606130012.750,129.883,-38.086,-31.250,333.984,0.000
1606130012.754,207.520,-22.949,-21.973,562.988,0.000
1606130012.758,-45.410,-36.621,-31.250,-30.273,0.000
1606130012.762,-280.273,-57.129,-48.828,-638.184,0.000
1606130012.766,-205.566,-55.176,-46.387,-479.492,0.000
1606130012.770,117.188,-26.367,-19.531,268.066,0.000
1606130012.774,257.324,-15.137,-16.602,590.820,0.000
1606130012.778,18.066,-15.625,-43.457,70.312,0.000
1606130012.782,-254.883,-1.953,-63.965,-592.773,0.000
1606130012.785,-215.332,-18.066,-66.895,-555.664,0.000
1606130012.789,92.773,-12.695,-42.480,167.480,0.000
1606130012.793,250.488,2.441,-26.367,588.379,0.000
1606130012.797,56.152,-5.859,-44.922,171.387,0.000
1606130012.801,-244.141,-15.625,-71.777,-536.133,0.000
1606130012.805,-265.137,-35.645,-69.336,-616.211,0.000
1606130012.809,34.180,-29.785,-51.758,75.195,0.000
1606130012.813,238.281,-4.883,-37.109,578.613,0.000
1606130012.817,94.727,-3.418,-31.738,276.367,0.000
1606130012.821,-206.543,-27.832,-39.062,-431.152,0.000
1606130012.825,-265.137,-43.945,-48.340,-634.277,0.000
1606130012.828,23.438,-20.508,-39.551,9.766,0.000
1606130012.832,249.512,-2.441,-24.414,549.316,0.000
1606130012.836,136.719,-18.066,-30.273,316.406,0.000
1606130012.840,-163.574,-12.695,-55.176,-365.234,0.000
1606130012.844,-272.461,-17.578,-64.453,-659.180,0.000
1606130012.848,-25.391,-22.949,-42.969,-102.051,0.000
1606130012.852,227.051,-2.930,-30.762,525.879,0.000
1606130012.856,168.945,-8.789,-26.855,434.082,0.000
1606130012.860,-143.066,-35.645,-37.109,-291.992,0.000
1606130012.864,-295.898,-50.293,-55.664,-677.734,0.000
1606130012.867,-88.867,-31.250,-40.039,-205.566,0.000
1606130012.871,192.383,-11.230,-18.066,470.215,0.000
1606130012.875,193.359,-10.254,-13.184,494.629,0.000
1606130012.879,-110.352,-12.695,-41.016,-206.055,0.000
1606130012.883,-304.688,-4.883,-62.500,-681.641,0.000
1606130012.887,-130.371,-23.438,-48.340,-314.453,0.000
1606130012.891,175.781,-21.484,-24.414,405.762,0.000
1606130012.895,213.867,-14.648,-20.508,540.527,0.000
1606130012.899,-72.266,-36.133,-41.992,-119.141,0.000
1606130012.903,-289.062,-56.152,-53.711,-657.227,0.000
1606130012.907,-164.062,-47.852,-42.969,-392.090,0.000
1606130012.910,147.461,-24.902,-20.020,344.238,0.000
1606130012.914,233.887,-18.066,-13.672,582.031,0.000
1606130012.918,-22.949,-20.996,-29.785,-6.836,0.000
1606130012.922,-270.508,-30.273,-33.691,-610.840,0.000
1606130012.926,-193.359,-40.039,-25.391,-462.891,0.000
1606130012.930,118.652,-15.625,-12.207,279.297,0.000
1606130012.934,241.211,-6.348,-3.418,613.770,0.000
1606130012.938,6.348,-22.461,-24.414,87.402,0.000
1606130012.942,-266.602,-38.574,-47.852,-576.172,0.000
1606130012.946,-227.051,-54.199,-53.711,-534.180,0.000
1606130012.950,78.613,-30.273,-34.180,179.199,0.000
1606130012.953,242.676,-9.277,-16.602,602.539,0.000
1606130012.957,63.477,-25.879,-28.320,206.055,0.000
1606130012.961,-227.539,-44.922,-39.062,-492.188,0.000
1606130012.965,-245.605,-41.504,-34.180,-573.242,0.000
1606130012.969,49.316,-21.484,-19.043,111.328,0.000
1606130012.973,245.117,-10.254,-11.230,605.957,0.000
1606130012.977,91.309,-33.691,-22.949,283.691,0.000
1606130012.981,-215.332,-29.785,-46.387,-439.941,0.000
1606130012.985,-276.855,-14.160,-52.246,-626.465,0.000
1606130012.989,7.812,-23.926,-22.461,7.324,0.000
1606130012.992,252.930,-2.930,-11.230,586.914,0.000
1606130012.996,151.367,-10.254,-15.625,388.184,0.000
1606130013.000,-162.598,-43.457,-28.809,-345.703,0.000
1606130013.004,-273.926,-49.805,-46.387,-646.484,0.000
1606130013.008,-28.809,-24.902,-31.738,-95.703,0.000
1606130013.012,233.398,-3.418,-0.977,542.969,0.000
1606130013.016,169.434,-15.625,-4.395,446.289,0.000
1606130013.020,-153.320,-31.250,-39.551,-298.828,0.000
1606130013.024,-302.246,-37.109,-52.734,-685.059,0.000
1606130013.028,-85.938,-38.086,-25.879,-216.797,0.000
1606130013.032,199.707,-21.973,-9.277,464.844,0.000
1606130013.035,192.383,-20.020,-20.996,489.258,0.000
1606130013.039,-114.258,-37.109,-45.898,-220.703,0.000
1606130013.043,-295.410,-49.805,-47.363,-683.594,0.000
1606130013.047,-118.652,-35.156,-32.227,-314.941,0.000
1606130013.051,170.410,-14.648,-23.438,392.578,0.000
1606130013.055,205.566,-22.461,-13.184,534.180,0.000
1606130013.059,-76.660,-19.043,-27.832,-117.188,0.000
1606130013.063,-293.457,-16.602,-46.387,-654.785,0.000
1606130013.067,-165.527,-29.785,-34.668,-398.438,0.000
1606130013.071,139.160,-15.625,-9.277,327.148,0.000
1606130013.075,220.703,-19.043,-10.742,571.777,0.000
1606130013.078,-38.086,-28.809,-37.109,-10.742,0.000
1606130013.082,-280.273,-33.203,-39.062,-612.305,0.000
1606130013.086,-198.730,-42.969,-24.902,-464.355,0.000
1606130013.090,108.887,-22.949,-8.789,277.344,0.000
1606130013.094,232.422,-10.742,-7.324,616.699,0.000
1606130013.098,10.742,-25.391,-13.184,104.492,0.000
1606130013.102,-261.230,-48.828,-28.809,-562.988,0.000
1606130013.106,-235.840,-48.340,-36.621,-534.668,0.000
1606130013.110,76.172,-19.043,-15.137,187.988,0.000
1606130013.114,237.793,-15.625,-2.441,605.957,0.000
1606130013.117,38.086,-32.715,-20.020,186.523,0.000
1606130013.121,-248.535,-44.434,-44.434,-510.742,0.000
1606130013.125,-259.277,-49.805,-43.945,-592.773,0.000
1606130013.129,37.598,-26.855,-19.531,93.262,0.000
1606130013.133,234.375,-9.766,-2.930,600.098,0.000
1606130013.137,86.914,-29.297,-10.742,288.086,0.000
1606130013.141,-213.867,-46.875,-34.668,-433.105,0.000
1606130013.145,-274.414,-40.527,-37.109,-623.047,0.000
1606130013.149,-2.441,-23.926,-17.578,0.977,0.000
1606130013.153,229.004,-10.742,-8.789,571.289,0.000
1606130013.157,135.742,-19.043,-17.090,370.605,0.000
1606130013.160,-170.410,-21.973,-37.598,-365.723,0.000
1606130013.164,-276.367,-20.020,-43.945,-655.273,0.000
1606130013.168,-35.156,-26.367,-30.273,-100.586,0.000
1606130013.172,220.215,-6.836,-7.812,532.715,0.000
1606130013.176,164.551,-12.207,-15.137,441.406,0.000
1606130013.180,-146.973,-45.410,-40.527,-281.738,0.000
1606130013.184,-296.387,-57.129,-47.852,-657.227,0.000
1606130013.188,-86.914,-36.133,-39.551,-197.266,0.000
1606130013.192,195.312,-14.160,-24.902,482.910,0.000
1606130013.196,187.988,-15.137,-13.184,507.812,0.000
1606130013.200,-112.305,-23.438,-14.160,-194.336,0.000
1606130013.203,-289.551,-25.879,-26.855,-649.414,0.000
1606130013.207,-120.605,-24.414,-20.996,-286.133,0.000
1606130013.211,172.852,-17.090,4.883,420.410,0.000
1606130013.215,198.242,-22.461,-9.277,549.805,0.000
1606130013.219,-98.633,-31.250,-39.062,-107.910,0.000
1606130013.223,-307.617,-36.621,-45.410,-646.973,0.000
1606130013.227,-178.711,-36.621,-33.691,-393.555,0.000
1606130013.231,127.930,-10.742,-12.695,338.867,0.000
1606130013.235,214.844,-3.906,-12.695,584.473,0.000
1606130013.239,-39.062,-19.531,-30.273,2.441,0.000
1606130013.242,-291.992,-46.875,-30.273,-601.562,0.000
1606130013.246,-218.750,-51.758,-18.066,-456.543,0.000
1606130013.250,97.168,-21.973,-0.977,281.250,0.000
1606130013.254,219.238,-12.695,-1.953,609.863,0.000
1606130013.258,-6.836,-30.762,-15.625,95.215,0.000
1606130013.262,-272.461,-34.180,-33.691,-563.477,0.000
1606130013.266,-246.582,-38.086,-41.504,-532.227,0.000
1606130013.270,64.453,-25.391,-23.926,188.965,0.000
1606130013.274,235.352,-8.301,-13.672,610.840,0.000
1606130013.278,45.410,-25.391,-20.020,201.172,0.000
1606130013.282,-237.793,-45.410,-36.133,-490.234,0.000
1606130013.285,-251.465,-44.922,-48.340,-584.961,0.000
1606130013.289,38.574,-19.043,-33.691,90.820,0.000
1606130013.293,235.840,-6.348,-15.137,596.680,0.000
1606130013.297,90.332,-21.484,-28.809,287.598,0.000
1606130013.301,-213.867,-38.086,-44.434,-435.547,0.000
1606130013.305,-276.367,-48.828,-32.715,-628.906,0.000
1606130013.309,-1.953,-32.715,-13.672,-3.418,0.000
1606130013.313,227.051,-10.742,-8.789,564.941,0.000
1606130013.317,126.953,-23.926,-5.371,370.117,0.000
1606130013.321,-177.734,-50.781,-30.762,-357.422,0.000
1606130013.325,-289.062,-59.082,-50.293,-665.039,0.000
1606130013.328,-56.152,-38.086,-32.227,-121.582,0.000
1606130013.332,203.613,-16.113,-15.137,520.508,0.000
1606130013.336,152.832,-28.809,-16.113,442.871,0.000
1606130013.340,-155.762,-44.434,-30.273,-276.367,0.000
1606130013.344,-298.828,-42.480,-38.574,-657.715,0.000
1606130013.348,-99.121,-31.250,-27.832,-207.520,0.000
1606130013.352,180.176,-16.113,-7.324,479.004,0.000
1606130013.356,176.270,-20.996,-5.859,511.230,0.000
1606130013.360,-124.512,-23.926,-21.973,-192.871,0.000
1606130013.364,-307.617,-31.738,-36.621,-660.156,0.000
1606130013.367,-132.324,-35.645,-22.949,-297.363,0.000
1606130013.371,174.316,-9.766,-7.324,416.016,0.000
1606130013.375,217.773,-5.859,-13.184,558.594,0.000
1606130013.379,-72.266,-33.203,-29.785,-92.773,0.000
1606130013.383,-294.434,-52.734,-41.504,-641.602,0.000
1606130013.387,-170.898,-35.645,-26.367,-384.277,0.000
1606130013.391,137.207,-9.766,-7.324,347.656,0.000
1606130013.395,230.469,-10.742,-7.812,588.867,0.000
1606130013.399,-24.902,-16.113,-24.902,-2.441,0.000
1606130013.403,-277.832,-28.809,-44.434,-615.234,0.000
1606130013.407,-199.219,-37.598,-36.133,-479.004,0.000
1606130013.410,116.699,-13.672,-16.113,252.441,0.000
1606130013.414,238.770,-4.395,-11.230,604.492,0.000
1606130013.418,10.742,-23.926,-23.438,106.934,0.000
1606130013.422,-257.324,-48.340,-40.527,-558.594,0.000
1606130013.426,-229.492,-51.270,-34.668,-535.645,0.000
1606130013.430,77.637,-30.273,-19.043,174.805,0.000
1606130013.434,238.770,-21.484,-18.066,594.727,0.000
1606130013.438,49.316,-28.320,-25.879,197.266,0.000
1606130013.442,-235.840,-26.855,-41.504,-494.629,0.000
1606130013.446,-258.301,-38.086,-42.480,-596.191,0.000
1606130013.450,36.133,-35.645,-20.020,79.102,0.000
1606130013.453,240.234,-18.555,-4.883,597.656,0.000
1606130013.457,92.285,-30.273,-18.066,294.922,0.000
1606130013.461,-203.613,-50.293,-32.227,-421.387,0.000
1606130013.465,-274.414,-45.410,-29.785,-626.953,0.000
1606130013.469,-11.719,-12.207,-12.695,-14.160,0.000
1606130013.473,226.074,6.348,0.977,565.430,0.000
1606130013.477,123.047,-11.719,-22.461,365.723,0.000
1606130013.481,-186.035,-38.574,-44.434,-360.840,0.000
1606130013.485,-281.250,-41.504,-32.715,-642.578,0.000
1606130013.489,-29.297,-26.855,-23.438,-96.680,0.000
1606130013.492,228.027,-15.625,-24.414,521.973,0.000
1606130013.496,169.922,-20.996,-31.738,439.941,0.000
1606130013.500,-136.230,-21.973,-51.758,-276.367,0.000
1606130013.504,-291.016,-29.785,-59.082,-671.387,0.000
1606130013.508,-88.867,-32.715,-44.434,-218.750,0.000
1606130013.512,201.660,-4.883,-20.020,476.074,0.000
1606130013.516,197.754,-2.930,-14.160,514.160,0.000
1606130013.520,-103.027,-28.809,-25.391,-182.617,0.000
1606130013.524,-280.273,-42.969,-33.203,-647.949,0.000
1606130013.528,-119.629,-38.086,-31.738,-291.016,0.000
1606130013.532,173.828,-10.742,-13.184,420.410,0.000
1606130013.535,225.586,-7.324,-0.977,565.918,0.000
1606130013.539,-62.500,-16.113,-20.996,-92.773,0.000
1606130013.543,-286.133,-11.719,-42.969,-640.625,0.000
1606130013.547,-159.668,-29.297,-33.691,-384.766,0.000
1606130013.551,153.809,-9.766,-5.859,345.215,0.000
1606130013.555,239.258,-3.418,5.371,588.867,0.000
1606130013.559,-22.461,-32.715,-14.648,5.859,0.000
1606130013.563,-262.207,-41.504,-29.785,-603.516,0.000
1606130013.567,-185.547,-31.738,-15.137,-467.285,0.000
1606130013.571,129.395,-7.324,0.000,271.484,0.000
1606130013.575,258.301,-3.906,-3.906,614.258,0.000
1606130013.578,24.902,-12.695,-19.531,109.375,0.000
1606130013.582,-252.930,-20.508,-33.691,-553.711,0.000
1606130013.586,-223.633,-36.621,-24.902,-528.809,0.000
1606130013.590,87.402,-10.742,0.977,191.406,0.000
1606130013.594,253.906,2.930,0.977,617.188,0.000
1606130013.598,60.547,-18.066,-25.879,200.195,0.000
1606130013.602,-229.980,-37.109,-48.340,-494.629,0.000
1606130013.606,-245.605,-43.457,-41.016,-584.961,0.000
1606130013.610,44.922,-21.973,-20.508,88.867,0.000
1606130013.614,247.070,-0.977,-1.953,598.145,0.000
1606130013.617,107.910,-10.254,0.000,296.875,0.000
1606130013.621,-192.383,-32.227,-29.297,-421.387,0.000
1606130013.625,-267.090,-42.480,-48.828,-625.488,0.000
1606130013.629,-5.371,-27.344,-23.438,-12.207,0.000
1606130013.633,223.145,-12.695,-5.371,564.941,0.000
1606130013.637,126.465,-20.020,-16.602,369.629,0.000
1606130013.641,-182.129,-2.930,-29.297,-359.863,0.000
1606130013.645,-290.039,1.953,-40.527,-660.645,0.000
1606130013.649,-36.133,-18.555,-22.461,-109.863,0.000
1606130013.653,228.027,-8.301,-1.953,533.203,0.000
1606130013.657,173.340,-19.043,-8.789,447.754,0.000
1606130013.660,-130.371,-34.180,-29.785,-277.344,0.000
1606130013.664,-274.902,-40.527,-41.504,-660.156,0.000
1606130013.668,-66.895,-31.738,-23.926,-199.219,0.000
1606130013.672,212.402,-9.766,-11.230,481.445,0.000
1606130013.676,206.055,-17.090,-20.020,511.719,0.000
1606130013.680,-94.727,-28.320,-42.969,-186.035,0.000
1606130013.684,-296.387,-37.109,-56.152,-674.316,0.000
1606130013.688,-145.996,-31.250,-29.297,-327.637,0.000
1606130013.692,155.762,-5.371,-7.324,389.648,0.000
1606130013.696,202.148,-4.883,-10.742,534.668,0.000
1606130013.700,-86.426,-24.414,-30.762,-116.699,0.000
1606130013.703,-295.410,-42.969,-39.551,-658.203,0.000
1606130013.707,-170.410,-38.086,-28.320,-404.785,0.000
1606130013.711,129.883,-17.090,-11.719,321.777,0.000
1606130013.715,220.703,-16.113,-0.488,572.754,0.000
1606130013.719,-30.762,-20.020,-20.996,-7.324,0.000
1606130013.723,-282.715,-14.648,-45.898,-620.117,0.000
1606130013.727,-203.613,-35.645,-37.109,-480.957,0.000
1606130013.731,115.234,-33.203,-15.137,251.465,0.000
1606130013.735,244.629,-6.348,-5.371,603.027,0.000
1606130013.739,21.484,-21.973,-10.254,115.234,0.000
1606130013.742,-242.188,-41.992,-23.438,-543.457,0.000
1606130013.746,-222.168,-41.016,-22.949,-534.180,0.000
1606130013.750,74.707,-28.320,-10.254,180.664,0.000
1606130013.754,238.770,-20.020,-10.742,609.375,0.000
1606130013.758,56.641,-23.438,-20.508,205.078,0.000
1606130013.762,-226.074,-41.992,-36.133,-485.352,0.000
1606130013.766,-244.141,-45.898,-30.762,-577.637,0.000
1606130013.770,46.875,-18.066,-5.859,101.074,0.000
1606130013.774,246.094,0.488,9.766,610.352,0.000
1606130013.778,103.027,-19.043,-4.883,306.641,0.000
1606130013.782,-201.172,-37.598,-35.645,-422.852,0.000
1606130013.785,-260.254,-31.250,-32.715,-625.977,0.000
1606130013.789,8.789,-15.625,-14.160,-10.742,0.000
1606130013.793,230.957,-6.348,-20.508,557.617,0.000
1606130013.797,135.254,-17.090,-33.203,366.699,0.000
1606130013.801,-170.898,-42.969,-43.945,-365.234,0.000
1606130013.805,-288.086,-56.152,-44.922,-670.898,0.000
1606130013.809,-48.340,-33.691,-23.926,-120.605,0.000
1606130013.813,221.191,-3.418,-3.906,530.273,0.000
1606130013.817,165.527,-16.113,-11.719,447.266,0.000
1606130013.821,-156.738,-21.973,-33.203,-283.691,0.000
1606130013.825,-311.523,-19.531,-50.293,-678.223,0.000
1606130013.828,-107.910,-28.809,-33.691,-229.492,0.000
1606130013.832,172.852,-17.090,-11.230,454.590,0.000
1606130013.836,174.316,-26.367,-14.648,501.465,0.000
1606130013.840,-119.141,-47.852,-29.785,-189.453,0.000
1606130013.844,-297.852,-52.246,-29.297,-664.062,0.000
1606130013.848,-128.418,-25.391,-15.625,-312.500,0.000
1606130013.852,162.598,-6.836,-17.090,395.020,0.000
1606130013.856,196.289,-19.531,-19.043,541.992,0.000
1606130013.860,-86.426,-20.996,-27.832,-96.191,0.000
1606130013.864,-303.223,-28.320,-45.898,-642.090,0.000
1606130013.867,-182.617,-48.828,-34.668,-394.531,0.000
1606130013.871,123.535,-27.344,-12.207,338.867,0.000
1606130013.875,220.703,-9.766,-7.324,596.191,0.000
1606130013.879,-32.227,-40.039,-23.926,15.137,0.000
1606130013.883,-286.621,-58.594,-44.434,-602.539,0.000
1606130013.887,-209.961,-40.039,-32.715,-463.867,0.000
1606130013.891,94.727,-17.090,-10.742,248.047,0.000
1606130013.895,225.098,-8.789,-9.277,584.961,0.000
1606130013.899,21.484,-19.531,-18.066,114.258,0.000
1606130013.903,-252.930,-44.434,-40.527,-552.734,0.000
1606130013.907,-233.887,-49.805,-38.574,-530.273,0.000
1606130013.910,77.637,-25.391,-19.531,189.941,0.000
1606130013.914,252.441,-10.742,-14.648,620.117,0.000
1606130013.918,69.824,-17.090,-23.438,219.238,0.000
1606130013.922,-218.262,-14.648,-45.410,-479.004,0.000
1606130013.926,-233.887,-13.672,-37.109,-575.684,0.000
1606130013.930,63.965,-6.348,-11.230,98.145,0.000
1606130013.934,264.648,10.254,-3.906,609.375,0.000
1606130013.938,110.840,-13.184,-12.695,305.664,0.000
1606130013.942,-193.848,-40.527,-24.414,-416.504,0.000
1606130013.946,-251.953,-35.645,-24.902,-612.305,0.000
1606130013.950,11.719,-16.113,-18.555,-5.859,0.000
1606130013.953,243.652,-1.953,-7.812,570.801,0.000
1606130013.957,148.926,-5.859,-7.324,389.160,0.000
1606130013.961,-166.992,-20.508,-25.391,-346.680,0.000
1606130013.965,-289.551,-39.551,-37.109,-657.715,0.000
1606130013.969,-55.176,-27.832,-22.461,-121.582,0.000
1606130013.973,205.078,-6.348,-8.301,516.113,0.000
1606130013.977,151.855,-15.625,-19.531,439.941,0.000
1606130013.981,-158.203,-41.504,-32.227,-280.762,0.000
1606130013.985,-306.641,-45.410,-31.738,-670.410,0.000
1606130013.989,-102.539,-27.832,-23.926,-228.027,0.000
1606130013.992,173.828,-17.578,-12.207,446.289,0.000
1606130013.996,178.711,-16.113,-5.859,494.141,0.000
1606130014.000,-114.258,-29.297,-24.902,-192.383,0.000
1606130014.004,-313.965,-53.711,-43.457,-686.523,0.000
1606130014.008,-136.230,-43.945,-32.715,-317.383,0.000
1606130014.012,166.504,-16.113,-12.207,404.785,0.000
1606130014.016,199.219,-10.254,-6.348,529.297,0.000
1606130014.020,-76.660,-33.691,-28.809,-110.840,0.000
1606130014.024,-290.527,-49.805,-32.715,-656.250,0.000
1606130014.028,-169.434,-31.738,-24.414,-414.551,0.000
1606130014.032,136.230,0.000,-13.184,312.988,0.000
1606130014.035,223.633,1.465,-4.395,569.824,0.000
1606130014.039,-35.156,-32.227,-16.602,-4.395,0.000
1606130014.043,-277.344,-44.922,-21.484,-606.445,0.000
1606130014.047,-202.148,-38.574,-21.973,-475.098,0.000
1606130014.051,107.910,-18.066,-6.348,251.465,0.000
1606130014.055,244.141,-5.859,6.348,607.910,0.000
1606130014.059,15.625,-16.602,-17.578,113.281,0.000
1606130014.063,-260.742,-31.250,-36.621,-553.223,0.000
1606130014.067,-228.027,-37.109,-21.973,-531.250,0.000
1606130014.071,74.219,-16.602,-9.766,179.688,0.000
1606130014.075,237.305,3.906,-5.859,615.234,0.000
1606130014.078,52.734,-10.254,-16.113,220.215,0.000
1606130014.082,-238.770,-40.039,-29.785,-481.445,0.000
1606130014.086,-266.113,-46.387,-31.250,-587.891,0.000
1606130014.090,20.508,-21.484,-19.043,87.891,0.000
1606130014.094,234.863,-1.953,-0.488,616.699,0.000
1606130014.098,105.469,-9.277,-1.465,320.312,0.000
1606130014.102,-203.613,5.859,-38.574,-411.133,0.000
1606130014.106,-277.832,-12.695,-49.805,-619.141,0.000
1606130014.110,-1.465,-23.438,-9.277,1.465,0.000
1606130014.114,233.398,-0.977,6.348,586.914,0.000
1606130014.117,126.465,-12.695,-19.043,388.184,0.000
1606130014.121,-185.059,-40.039,-34.180,-356.445,0.000
1606130014.125,-291.504,-53.711,-33.203,-655.762,0.000
1606130014.129,-59.082,-31.250,-27.344,-118.164,0.000
1606130014.133,201.660,-9.277,-5.371,515.137,0.000
1606130014.137,155.273,-13.672,-6.348,448.242,0.000
1606130014.141,-157.227,-18.066,-36.621,-271.484,0.000
1606130014.145,-300.293,-36.133,-49.316,-671.387,0.000
1606130014.149,-79.102,-32.227,-26.855,-217.773,0.000
1606130014.153,208.008,-10.742,-12.695,464.355,0.000
1606130014.157,200.195,-19.043,-18.066,499.023,0.000
1606130014.160,-100.586,-33.203,-37.598,-195.801,0.000
1606130014.164,-281.250,-40.039,-49.316,-674.316,0.000
1606130014.168,-118.164,-33.691,-33.691,-321.289,0.000
1606130014.172,174.805,-14.648,-7.812,406.250,0.000
1606130014.176,220.215,-3.418,1.465,565.430,0.000
1606130014.180,-64.941,-27.344,-24.902,-86.914,0.000
1606130014.184,-284.668,-52.246,-45.898,-637.695,0.000
1606130014.188,-161.133,-41.016,-39.551,-395.020,0.000
1606130014.192,147.949,-2.930,-13.672,339.844,0.000
1606130014.196,230.469,-11.230,-8.301,589.355,0.000
1606130014.200,-25.391,-21.973,-32.227,12.207,0.000
1606130014.203,-267.578,-1.465,-49.316,-587.891,0.000
1606130014.207,-198.242,-25.391,-42.480,-462.891,0.000
1606130014.211,114.258,-22.949,-19.043,259.277,0.000
1606130014.215,245.117,-9.766,0.000,604.980,0.000
1606130014.219,17.578,-27.832,-13.672,117.188,0.000
1606130014.223,-254.395,-50.781,-36.133,-549.805,0.000
1606130014.227,-231.934,-51.758,-35.156,-541.504,0.000
1606130014.231,75.195,-17.578,-18.555,173.340,0.000
1606130014.235,243.652,-2.930,-2.441,604.492,0.000
1606130014.239,51.270,-23.926,-17.090,199.707,0.000
1606130014.242,-238.770,-45.410,-35.645,-494.629,0.000
1606130014.246,-260.742,-43.457,-36.133,-596.191,0.000
1606130014.250,27.832,-14.160,-15.137,67.383,0.000
1606130014.254,234.863,-6.348,-1.465,582.031,0.000
1606130014.258,87.891,-24.414,-19.043,288.574,0.000
1606130014.262,-222.656,-44.434,-36.133,-434.570,0.000
1606130014.266,-294.434,-54.688,-34.180,-640.137,0.000
1606130014.270,-28.320,-37.598,-14.648,-27.832,0.000
1606130014.274,209.473,-17.578,4.395,555.664,0.000
1606130014.278,117.188,-18.555,-4.395,372.559,0.000
1606130014.282,-193.359,-39.062,-29.785,-359.863,0.000
1606130014.285,-305.664,-56.152,-29.785,-669.434,0.000
1606130014.289,-73.730,-41.504,-16.113,-145.020,0.000
1606130014.293,187.500,-26.367,-4.883,498.535,0.000
1606130014.297,141.602,-28.320,-8.789,439.941,0.000
1606130014.301,-163.086,-25.391,-36.133,-278.809,0.000
1606130014.305,-301.270,-41.992,-39.062,-669.434,0.000
1606130014.309,-97.168,-43.457,-23.438,-217.773,0.000
1606130014.313,186.035,-17.090,-15.137,472.656,0.000
1606130014.317,199.219,-9.766,-6.836,530.762,0.000
1606130014.321,-84.961,-26.367,-11.719,-153.809,0.000
1606130014.325,-265.625,-50.781,-25.391,-639.648,0.000
1606130014.328,-105.469,-43.457,-16.602,-297.852,0.000
1606130014.332,184.082,-17.090,1.465,419.434,0.000
1606130014.336,227.051,-16.602,3.418,569.824,0.000
1606130014.340,-53.711,-20.508,-20.996,-73.730,0.000
1606130014.344,-277.344,-25.879,-46.387,-625.488,0.000
1606130014.348,-160.156,-33.691,-38.086,-393.066,0.000
1606130014.352,153.320,-12.207,-12.207,336.426,0.000
1606130014.356,249.512,4.395,-1.953,602.051,0.000
1606130014.360,-4.395,-16.113,-15.137,32.227,0.000
1606130014.364,-253.418,-40.039,-35.645,-584.473,0.000
1606130014.367,-181.641,-36.133,-33.203,-456.543,0.000
1606130014.371,130.859,-10.742,-4.883,274.902,0.000
1606130014.375,266.602,2.930,1.465,619.629,0.000
1606130014.379,42.480,-4.395,-19.531,128.418,0.000
1606130014.383,-238.281,-7.812,-33.203,-537.109,0.000
1606130014.387,-216.797,-19.531,-29.297,-529.297,0.000
1606130014.391,92.773,-6.836,-6.348,184.082,0.000
1606130014.395,261.719,9.277,3.906,623.535,0.000
1606130014.399,66.895,-13.672,-16.113,224.609,0.000
1606130014.403,-227.539,-42.480,-37.109,-478.516,0.000
1606130014.407,-249.512,-42.480,-35.645,-581.543,0.000
1606130014.410,47.363,-17.090,-12.207,94.727,0.000
1606130014.414,248.047,-1.953,0.000,607.422,0.000
1606130014.418,95.215,-9.766,-16.602,313.477,0.000
1606130014.422,-211.914,-45.410,-36.133,-411.621,0.000
1606130014.426,-275.391,-57.617,-37.109,-633.301,0.000
1606130014.430,-8.789,-22.949,-32.227,-31.738,0.000
1606130014.434,221.191,-2.441,-24.414,556.641,0.000
1606130014.438,130.371,-7.324,-26.367,378.906,0.000
1606130014.442,-173.340,-32.715,-40.527,-350.586,0.000
1606130014.446,-288.574,-50.781,-40.527,-656.250,0.000
1606130014.450,-49.316,-35.645,-24.414,-133.789,0.000
1606130014.453,218.750,-12.695,-5.859,513.184,0.000
1606130014.457,171.875,-16.602,-13.184,459.473,0.000
1606130014.461,-135.742,-41.504,-30.273,-258.789,0.000
1606130014.465,-285.645,-45.410,-30.762,-655.762,0.000
1606130014.469,-86.426,-23.438,-22.461,-208.984,0.000
1606130014.473,192.871,-13.184,-16.113,477.051,0.000
1606130014.477,191.895,-18.066,-15.137,514.160,0.000
1606130014.481,-108.887,-31.738,-32.227,-184.570,0.000
1606130014.485,-291.504,-46.875,-38.086,-659.180,0.000
1606130014.489,-128.418,-42.480,-26.367,-323.730,0.000
1606130014.492,164.551,-12.695,-17.090,385.254,0.000
1606130014.496,210.938,-12.207,-9.766,548.828,0.000
1606130014.500,-66.895,-34.180,-30.762,-91.309,0.000
1606130014.504,-285.156,-44.434,-42.969,-638.184,0.000
1606130014.508,-169.434,-32.227,-29.785,-403.809,0.000
1606130014.512,136.719,-1.953,-4.395,329.590,0.000
1606130014.516,229.980,3.906,8.301,594.727,0.000
1606130014.520,-28.809,-15.625,-16.602,26.855,0.000
1606130014.524,-283.691,-40.039,-24.902,-594.238,0.000
1606130014.528,-218.262,-41.016,-23.926,-484.863,0.000
1606130014.532,88.379,-14.160,-8.789,246.094,0.000
1606130014.535,229.004,-9.277,-2.930,596.191,0.000
1606130014.539,19.531,-11.719,-32.227,113.281,0.000
1606130014.543,-244.629,-22.949,-40.527,-540.039,0.000
1606130014.547,-229.492,-34.668,-25.879,-543.457,0.000
1606130014.551,58.105,-9.277,4.395,157.227,0.000
1606130014.555,227.051,-2.930,25.391,604.004,0.000
1606130014.559,55.664,-7.812,5.859,221.191,0.000
1606130014.563,-231.934,-21.973,-17.578,-485.352,0.000
1606130014.567,-267.090,-42.969,-7.324,-604.004,0.000
1606130014.571,21.973,-24.414,12.695,70.312,0.000
1606130014.575,229.980,-14.648,14.160,584.473,0.000
1606130014.578,87.891,-18.066,-10.254,287.598,0.000
1606130014.582,-215.332,-21.973,-32.715,-434.082,0.000
1606130014.586,-285.645,-42.969,-34.180,-645.020,0.000
1606130014.590,-20.996,-27.832,-25.391,-41.504,0.000
1606130014.594,215.820,-4.395,-8.789,546.387,0.000
1606130014.598,136.230,-12.207,-4.883,389.160,0.000
1606130014.602,-169.434,-30.762,-25.391,-334.473,0.000
1606130014.606,-288.574,-41.016,-23.926,-644.043,0.000
1606130014.610,-47.363,-32.715,-6.348,-116.699,0.000
1606130014.614,216.309,-15.625,0.977,528.809,0.000
1606130014.617,165.527,-19.531,-9.277,468.262,0.000
1606130014.621,-154.297,-35.156,-35.156,-261.230,0.000
1606130014.625,-310.059,-50.781,-42.969,-661.133,0.000
1606130014.629,-104.980,-36.133,-28.809,-222.168,0.000
1606130014.633,178.711,-7.324,1.953,460.449,0.000
1606130014.637,185.059,-11.719,5.371,516.113,0.000
1606130014.641,-104.004,-33.203,-22.949,-160.645,0.000
1606130014.645,-291.016,-49.316,-30.762,-645.508,0.000
1606130014.649,-135.254,-41.504,-15.137,-321.777,0.000
1606130014.653,171.875,-14.160,5.371,399.902,0.000
1606130014.657,222.656,-18.066,-2.930,565.918,0.000
1606130014.660,-69.824,-19.043,-29.785,-82.031,0.000
1606130014.664,-287.109,-17.578,-35.645,-644.043,0.000
1606130014.668,-163.086,-25.391,-17.578,-411.621,0.000
1606130014.672,139.160,-5.859,1.953,324.219,0.000
1606130014.676,233.398,-2.930,-0.488,591.309,0.000
1606130014.680,-16.602,-26.367,-24.414,23.926,0.000
1606130014.684,-265.137,-52.246,-37.598,-592.773,0.000
1606130014.688,-194.336,-45.898,-27.344,-481.934,0.000
1606130014.692,107.910,-23.926,-16.113,240.234,0.000
1606130014.696,237.793,-16.113,-11.719,602.051,0.000
1606130014.700,29.785,-11.719,-16.602,125.977,0.000
1606130014.703,-249.023,-32.227,-33.691,-543.457,0.000
1606130014.707,-242.676,-53.223,-41.992,-556.152,0.000
1606130014.711,59.082,-29.297,-27.832,155.273,0.000
1606130014.715,231.934,-19.531,-16.602,601.562,0.000
1606130014.719,52.734,-26.855,-32.227,211.426,0.000
1606130014.723,-239.258,-42.480,-45.898,-482.422,0.000
1606130014.727,-267.578,-49.316,-40.039,-592.285,0.000
1606130014.731,13.184,-30.762,-25.391,63.965,0.000
1606130014.735,222.168,-13.184,-9.277,590.332,0.000
1606130014.739,97.656,-8.789,-9.766,318.359,0.000
1606130014.742,-199.219,-26.367,-28.320,-410.645,0.000
1606130014.746,-267.578,-34.180,-38.574,-630.859,0.000
1606130014.750,-4.883,-11.230,-17.578,-28.809,0.000
1606130014.754,227.539,0.488,-0.488,552.734,0.000
1606130014.758,138.672,-11.719,-19.043,380.859,0.000
1606130014.762,-171.875,-16.602,-33.691,-343.262,0.000
1606130014.766,-285.645,-23.926,-26.367,-652.344,0.000
1606130014.770,-48.828,-23.926,-17.090,-125.000,0.000
1606130014.774,202.148,-3.906,-5.371,512.695,0.000
1606130014.778,155.273,0.000,-3.418,455.078,0.000
1606130014.782,-146.484,-18.555,-28.320,-262.207,0.000
1606130014.785,-303.223,-40.527,-40.527,-674.805,0.000
1606130014.789,-103.027,-27.832,-22.949,-252.441,0.000
1606130014.793,179.688,-9.766,-7.324,436.523,0.000
1606130014.797,180.664,-16.113,-20.020,501.953,0.000
1606130014.801,-119.141,-26.855,-45.410,-191.895,0.000
1606130014.805,-311.523,-48.828,-51.758,-687.012,0.000
1606130014.809,-157.715,-41.992,-28.809,-356.445,0.000
1606130014.813,147.949,-5.859,1.465,372.559,0.000
1606130014.817,209.961,-5.371,3.418,552.246,0.000
1606130014.821,-70.312,-35.645,-23.926,-86.914,0.000
1606130014.825,-297.363,-55.176,-41.504,-654.785,0.000
1606130014.828,-182.617,-40.527,-27.344,-428.711,0.000
1606130014.832,120.605,-14.160,-8.301,305.176,0.000
1606130014.836,210.938,-5.371,-5.859,578.125,0.000
1606130014.840,-41.992,-27.344,-23.926,14.160,0.000
1606130014.844,-287.109,-46.875,-36.133,-606.934,0.000
1606130014.848,-221.191,-42.480,-18.555,-496.094,0.000
1606130014.852,90.332,-20.508,1.953,233.887,0.000
1606130014.856,235.840,-11.719,4.883,601.074,0.000
1606130014.860,18.555,-16.602,-7.812,129.395,0.000
1606130014.864,-257.324,-27.832,-27.344,-544.434,0.000
1606130014.867,-247.070,-44.922,-39.062,-564.941,0.000
1606130014.871,52.246,-32.715,-16.113,139.160,0.000
1606130014.875,241.211,-12.207,8.301,604.980,0.000
1606130014.879,64.453,-23.438,-11.719,218.750,0.000
1606130014.883,-233.887,-53.223,-35.156,-498.047,0.000
1606130014.887,-259.766,-55.664,-31.250,-613.770,0.000
1606130014.891,35.645,-19.531,-8.301,53.711,0.000
1606130014.895,250.488,3.418,0.000,583.496,0.000
1606130014.899,104.980,-17.578,-17.090,299.316,0.000
1606130014.903,-208.496,-51.270,-38.086,-434.082,0.000
1606130014.907,-284.180,-55.176,-49.316,-657.227,0.000
1606130014.910,-29.785,-21.484,-27.832,-59.570,0.000
1606130014.914,206.543,-3.418,-12.695,535.156,0.000
1606130014.918,124.512,-14.160,-20.996,386.719,0.000
1606130014.922,-177.246,-30.273,-38.574,-339.844,0.000
1606130014.926,-301.270,-35.645,-41.016,-673.828,0.000
1606130014.930,-77.148,-13.672,-21.484,-155.273,0.000
1606130014.934,191.895,-0.488,-9.766,498.047,0.000
1606130014.938,173.340,-4.395,-10.742,467.285,0.000
1606130014.942,-122.070,-15.137,-38.086,-241.211,0.000
1606130014.946,-284.180,-37.598,-45.410,-656.738,0.000
1606130014.950,-87.402,-30.273,-36.621,-224.609,0.000
1606130014.953,204.590,-4.883,-35.645,473.145,0.000
1606130014.957,216.309,-12.695,-29.785,551.270,0.000
1606130014.961,-85.938,-33.203,-48.828,-137.207,0.000
1606130014.965,-279.297,-54.688,-53.711,-642.090,0.000
1606130014.969,-119.629,-47.363,-36.621,-314.453,0.000
1606130014.973,182.617,-19.531,-18.066,408.203,0.000
1606130014.977,236.328,-18.555,-21.973,580.078,0.000
1606130014.981,-30.762,-34.180,-43.945,-47.363,0.000
1606130014.985,-252.930,-50.781,-45.898,-605.469,0.000
1606130014.989,-147.461,-41.992,-38.086,-397.461,0.000
1606130014.992,162.598,-15.137,-22.949,333.984,0.000
1606130014.996,263.184,-5.371,-15.137,620.605,0.000
1606130015.000,15.137,-3.418,-31.738,54.688,0.000
1606130015.004,-240.723,-23.926,-52.734,-583.496,0.000
1606130015.008,-181.152,-36.133,-43.457,-476.562,0.000
1606130015.012,128.906,-16.113,-13.672,254.395,0.000
1606130015.016,269.043,-5.859,-3.418,627.441,0.000
1606130015.020,51.758,-20.508,-22.949,165.527,0.000
1606130015.024,-235.352,-43.457,-44.922,-534.180,0.000
1606130015.028,-200.195,-40.527,-38.574,-494.141,0.000
1606130015.032,107.422,-19.531,-21.484,246.582,0.000
1606130015.035,254.883,-3.418,-9.277,620.117,0.000
1606130015.039,82.520,8.301,-22.461,240.723,0.000
1606130015.043,-212.402,8.301,-36.133,-457.520,0.000
1606130015.047,-240.723,-24.902,-24.902,-583.984,0.000
1606130015.051,46.875,-24.414,-16.602,74.707,0.000
1606130015.055,253.906,-4.395,-4.883,604.492,0.000
1606130015.059,120.117,-9.277,-8.789,334.473,0.000
1606130015.063,-183.594,-37.598,-33.203,-387.207,0.000
1606130015.067,-260.254,-50.293,-35.156,-617.676,0.000
1606130015.071,-5.371,-23.926,-12.695,-16.113,0.000
1606130015.075,234.863,-7.324,7.324,588.379,0.000
1606130015.078,148.926,-19.531,-4.883,425.293,0.000
1606130015.082,-167.969,-40.039,-28.809,-315.430,0.000
1606130015.086,-298.828,-52.246,-29.785,-642.090,0.000
1606130015.090,-71.289,-36.621,-22.949,-127.441,0.000
1606130015.094,193.359,-10.254,-23.438,509.766,0.000
1606130015.098,158.203,-16.602,-27.832,459.473,0.000
1606130015.102,-138.184,-41.992,-48.340,-254.395,0.000
1606130015.106,-296.875,-58.105,-54.199,-668.457,0.000
1606130015.110,-99.609,-35.645,-36.133,-239.258,0.000
1606130015.114,192.383,-3.418,-17.090,454.102,0.000
1606130015.117,207.031,-4.883,-14.160,521.973,0.000
1606130015.121,-81.543,-22.461,-24.414,-154.297,0.000
1606130015.125,-280.273,-46.875,-42.969,-652.832,0.000
1606130015.129,-136.230,-42.480,-45.410,-346.680,0.000
1606130015.133,164.062,-8.789,-21.484,373.535,0.000
1606130015.137,220.215,-1.465,-11.230,563.965,0.000
1606130015.141,-56.641,-17.578,-38.574,-66.406,0.000
1606130015.145,-279.297,-34.668,-54.688,-636.719,0.000
1606130015.149,-164.551,-31.738,-26.367,-417.480,0.000
1606130015.153,155.273,-7.324,-0.488,328.613,0.000
1606130015.157,254.883,-2.441,-2.441,605.469,0.000
1606130015.160,-4.883,-19.531,-21.484,43.457,0.000
1606130015.164,-258.301,-45.898,-37.109,-574.219,0.000
1606130015.168,-201.172,-44.922,-36.133,-480.469,0.000
1606130015.172,107.910,-12.695,-13.184,248.535,0.000
1606130015.176,246.094,-6.348,-1.953,622.559,0.000
1606130015.180,22.949,-22.949,-19.531,149.902,0.000
1606130015.184,-255.371,-36.621,-39.551,-529.297,0.000
1606130015.188,-236.816,-39.551,-37.598,-555.176,0.000
1606130015.192,68.848,-17.578,-16.602,151.367,0.000
1606130015.196,246.094,-8.301,-2.930,612.793,0.000
1606130015.200,68.848,-27.344,-16.113,239.258,0.000
1606130015.203,-230.469,-45.898,-36.133,-470.703,0.000
1606130015.207,-264.160,-41.992,-35.156,-602.051,0.000
1606130015.211,24.414,-20.508,-18.066,52.246,0.000
1606130015.215,243.652,-4.883,-5.371,589.355,0.000
1606130015.219,119.141,-3.906,-16.113,334.961,0.000
1606130015.223,-190.430,-19.531,-32.715,-393.555,0.000
1606130015.227,-269.531,-36.621,-37.598,-634.277,0.000
1606130015.231,-2.930,-20.508,-19.531,-39.551,0.000
1606130015.235,237.793,-6.348,2.441,562.988,0.000
1606130015.239,151.855,-7.324,-0.488,414.551,0.000
1606130015.242,-161.133,-21.973,-29.785,-321.777,0.000
1606130015.246,-287.109,-41.016,-48.340,-661.621,0.000
1606130015.250,-51.270,-26.367,-25.879,-139.160,0.000
1606130015.254,219.238,-2.930,-4.883,511.719,0.000
1606130015.258,181.152,-4.395,-15.137,464.355,0.000
1606130015.262,-121.582,-28.320,-36.621,-248.047,0.000
1606130015.266,-278.320,-34.668,-38.574,-663.086,0.000
1606130015.270,-93.750,-17.090,-21.973,-246.582,0.000
1606130015.274,183.594,2.441,-7.324,442.871,0.000
1606130015.278,197.754,7.324,-10.742,518.066,0.000
1606130015.282,-96.680,-17.578,-31.738,-166.504,0.000
1606130015.285,-302.734,-53.223,-47.852,-673.340,0.000
1606130015.289,-149.902,-40.039,-20.996,-356.934,0.000
1606130015.293,161.621,2.930,8.789,371.582,0.000
1606130015.297,219.727,12.695,-5.371,558.594,0.000
1606130015.301,-60.547,-17.090,-31.738,-68.848,0.000
1606130015.305,-289.062,-39.551,-40.527,-639.160,0.000
1606130015.309,-184.570,-33.203,-23.438,-432.129,0.000
1606130015.313,125.977,-11.719,-8.789,302.734,0.000
1606130015.317,232.422,-12.695,-9.766,590.332,0.000
1606130015.321,-24.414,-29.785,-28.809,29.785,0.000
1606130015.325,-287.598,-36.621,-54.688,-611.816,0.000
1606130015.328,-222.656,-47.852,-47.363,-509.766,0.000
1606130015.332,89.355,-30.762,-19.043,227.051,0.000
1606130015.336,227.539,-9.277,-9.277,602.539,0.000
1606130015.340,19.531,-18.066,-21.484,135.742,0.000
1606130015.344,-248.535,-37.109,-29.785,-536.621,0.000
1606130015.348,-234.375,-42.969,-38.574,-555.664,0.000
1606130015.352,68.848,-26.855,-26.367,147.949,0.000
1606130015.356,250.488,-9.277,-3.418,619.141,0.000
1606130015.360,74.707,-13.184,-15.137,255.371,0.000
1606130015.364,-220.215,-36.133,-37.109,-459.473,0.000
1606130015.367,-250.000,-43.945,-36.621,-597.656,0.000
1606130015.371,26.367,-20.020,-17.578,48.828,0.000
1606130015.375,241.211,1.953,1.953,588.867,0.000
1606130015.379,121.582,-15.625,-14.160,333.008,0.000
1606130015.383,-196.289,-43.457,-39.062,-407.715,0.000
1606130015.387,-285.156,-47.363,-34.180,-652.832,0.000
1606130015.391,-20.020,-25.879,-15.137,-60.059,0.000
1606130015.395,228.027,-5.859,1.465,546.387,0.000
1606130015.399,154.297,-12.695,2.930,409.668,0.000
1606130015.403,-153.809,-33.203,-21.484,-318.848,0.000
1606130015.407,-276.855,-39.551,-27.344,-649.414,0.000
1606130015.410,-47.852,-29.297,-10.742,-138.184,0.000
1606130015.414,216.797,-10.742,5.371,513.672,0.000
1606130015.418,178.223,-10.742,0.000,477.539,0.000
1606130015.422,-130.371,-31.738,-24.902,-236.816,0.000
1606130015.426,-287.598,-47.852,-29.785,-652.832,0.000
1606130015.430,-93.750,-33.691,-8.789,-231.445,0.000
1606130015.434,193.359,-1.953,10.254,459.473,0.000
1606130015.438,204.590,2.441,-3.906,532.715,0.000
1606130015.442,-99.609,-28.320,-34.668,-152.832,0.000
1606130015.446,-296.875,-47.852,-48.828,-657.227,0.000
1606130015.450,-141.602,-30.762,-33.691,-342.773,0.000
1606130015.453,162.598,-7.324,-10.254,378.906,0.000
1606130015.457,229.980,1.953,-6.836,573.242,0.000
1606130015.461,-46.387,-20.508,-19.043,-55.176,0.000
1606130015.465,-284.180,-50.293,-38.086,-638.672,0.000
1606130015.469,-178.711,-37.598,-37.109,-429.688,0.000
1606130015.473,136.719,-6.348,-12.695,306.152,0.000
1606130015.477,238.281,0.488,-6.836,591.309,0.000
1606130015.481,-5.371,-14.648,-22.461,47.363,0.000
1606130015.485,-251.953,-24.902,-28.320,-575.684,0.000
1606130015.489,-204.102,-29.297,-34.180,-500.488,0.000
1606130015.492,96.680,-19.531,-22.949,216.797,0.000
1606130015.496,244.141,-16.113,-7.812,607.910,0.000
1606130015.500,32.227,-14.648,-24.414,148.926,0.000
1606130015.504,-253.906,-21.484,-47.852,-537.109,0.000
1606130015.508,-247.559,-41.016,-36.621,-566.895,0.000
1606130015.512,56.152,-24.414,-9.277,135.742,0.000
1606130015.516,235.352,-1.465,-3.418,601.562,0.000
1606130015.520,62.988,-16.113,-17.578,241.211,0.000
1606130015.524,-234.375,-42.969,-43.457,-472.656,0.000
1606130015.528,-265.625,-35.156,-42.969,-604.492,0.000
1606130015.532,30.273,-0.977,-7.812,65.430,0.000
1606130015.535,246.094,13.184,12.207,607.422,0.000
1606130015.539,118.652,0.977,-0.977,352.539,0.000
1606130015.543,-188.477,-15.625,-33.203,-376.465,0.000
1606130015.547,-274.902,-31.738,-41.504,-620.605,0.000
1606130015.551,-22.949,-28.320,-22.949,-43.945,0.000
1606130015.555,218.262,-15.137,-5.371,551.270,0.000
1606130015.559,140.625,-9.277,-14.160,416.016,0.000
1606130015.563,-166.504,-18.066,-40.527,-312.012,0.000
1606130015.567,-286.133,-42.969,-33.691,-645.996,0.000
1606130015.571,-54.199,-26.855,-8.301,-140.625,0.000
1606130015.575,215.332,-11.719,2.441,511.719,0.000
1606130015.578,186.035,-19.531,-0.488,492.676,0.000
1606130015.582,-102.539,-18.066,-10.742,-205.566,0.000
1606130015.586,-283.203,-23.438,-32.715,-658.691,0.000
1606130015.590,-128.418,-16.602,-36.133,-287.598,0.000
1606130015.594,163.086,16.113,-9.277,410.645,0.000
1606130015.598,174.316,8.301,-4.883,484.863,0.000
1606130015.602,-144.531,-15.137,-27.832,-207.520,0.000
1606130015.606,-358.887,-33.691,-35.156,-719.727,0.000
1606130015.610,-211.426,-41.016,-19.531,-420.898,0.000
1606130015.614,90.820,-12.207,1.953,301.270,0.000
1606130015.617,150.391,2.930,-14.160,497.559,0.000
1606130015.621,-120.605,-18.066,-30.273,-120.605,0.000
1606130015.625,-354.492,-40.527,-20.996,-698.730,0.000
1606130015.629,-248.047,-32.715,-19.531,-499.023,0.000
1606130015.633,71.289,-14.160,3.418,240.234,0.000
1606130015.637,180.664,-14.648,2.441,544.922,0.000
1606130015.641,-59.082,-26.367,-30.273,12.207,0.000
1606130015.645,-308.594,-41.992,-41.504,-616.699,0.000
1606130015.649,-247.559,-43.945,-41.016,-528.809,0.000
1606130015.653,60.547,-23.926,-23.438,198.730,0.000
1606130015.657,204.590,-7.812,-13.672,589.844,0.000
1606130015.660,1.953,-21.484,-29.785,139.160,0.000
1606130015.664,-277.832,-47.363,-52.246,-545.410,0.000
1606130015.668,-276.855,-45.410,-44.922,-581.055,0.000
1606130015.672,31.250,-19.043,-16.113,126.953,0.000
1606130015.676,220.703,-3.906,-7.324,606.445,0.000
1606130015.680,51.758,-22.949,-19.043,248.047,0.000
1606130015.684,-240.234,-51.270,-36.133,-468.262,0.000
1606130015.688,-271.484,-44.922,-30.273,-605.957,0.000
1606130015.692,21.484,-14.648,-9.277,48.828,0.000
1606130015.696,241.699,-0.977,-0.488,589.844,0.000
1606130015.700,117.188,-11.230,-14.648,336.914,0.000
1606130015.703,-187.012,-39.551,-35.156,-391.113,0.000
1606130015.707,-273.926,-49.805,-37.109,-641.602,0.000
1606130015.711,-21.484,-23.926,-24.902,-59.570,0.000
1606130015.715,233.398,-1.953,-5.371,557.129,0.000
1606130015.719,165.527,-9.277,-5.859,423.828,0.000
1606130015.723,-149.902,-41.992,-30.273,-313.477,0.000
1606130015.727,-282.715,-58.105,-46.875,-666.504,0.000
1606130015.731,-53.711,-32.715,-23.926,-162.109,0.000
1606130015.735,229.004,-10.254,-2.930,507.812,0.000
1606130015.739,205.566,0.488,-11.719,491.211,0.000
1606130015.742,-111.816,-22.949,-36.133,-226.562,0.000
1606130015.746,-283.691,-50.293,-58.594,-662.109,0.000
1606130015.750,-92.285,-26.855,-37.109,-249.512,0.000
1606130015.754,201.660,5.371,-1.953,458.984,0.000
1606130015.758,219.727,0.000,-5.859,551.758,0.000
1606130015.762,-86.426,-31.738,-35.645,-129.395,0.000
1606130015.766,-291.504,-50.293,-46.387,-642.578,0.000
1606130015.770,-143.555,-37.598,-36.133,-343.262,0.000
1606130015.774,153.809,-8.301,-18.555,371.582,0.000
1606130015.778,214.355,4.395,-6.836,570.801,0.000
1606130015.782,-54.199,-5.859,-22.461,-37.598,0.000
1606130015.785,-288.574,-28.809,-38.086,-624.023,0.000
1606130015.789,-200.195,-36.621,-30.273,-445.801,0.000
1606130015.793,112.793,-16.602,-9.766,286.133,0.000
1606130015.797,215.820,3.906,-2.441,573.730,0.000
1606130015.801,-59.570,-8.301,-13.184,1.465,0.000
1606130015.805,-342.285,-38.574,-30.273,-658.203,0.000
1606130015.809,-295.410,-40.527,-27.832,-595.215,0.000
1606130015.813,7.812,-5.859,3.418,122.070,0.000
1606130015.817,147.461,9.277,11.230,511.230,0.000
1606130015.821,-50.781,-17.090,-19.043,70.312,0.000
1606130015.825,-325.195,-41.992,-41.016,-606.445,0.000
1606130015.828,-323.242,-35.156,-39.062,-646.973,0.000
1606130015.832,-5.859,-10.254,-25.391,63.965,0.000
1606130015.836,194.336,9.766,-18.066,551.270,0.000
1606130015.840,39.551,15.137,-27.344,217.285,0.000
1606130015.844,-249.023,-17.090,-46.387,-483.887,0.000
1606130015.848,-288.574,-40.039,-52.734,-637.695,0.000
1606130015.852,4.883,-15.137,-34.668,15.137,0.000
1606130015.856,234.375,4.395,-11.719,576.172,0.000
1606130015.860,114.258,-10.254,-12.207,343.262,0.000
1606130015.864,-189.941,-42.480,-36.133,-374.512,0.000
1606130015.867,-272.461,-46.387,-43.457,-628.906,0.000
1606130015.871,-20.020,-24.902,-23.438,-43.457,0.000
1606130015.875,236.816,-1.953,-12.207,581.543,0.000
1606130015.879,163.574,1.953,-28.809,435.059,0.000
1606130015.883,-149.414,-23.926,-53.711,-300.781,0.000
1606130015.887,-269.043,-46.387,-47.852,-641.113,0.000
1606130015.891,-38.574,-33.203,-27.344,-135.742,0.000
1606130015.895,240.723,-7.812,-13.672,531.738,0.000
1606130015.899,213.379,-8.301,-26.855,514.160,0.000
1606130015.903,-93.262,-41.992,-42.480,-196.777,0.000
1606130015.907,-251.953,-49.805,-40.527,-624.512,0.000
1606130015.910,-70.312,-20.508,-34.180,-232.422,0.000
1606130015.914,221.191,-3.418,-14.648,464.844,0.000
1606130015.918,252.930,14.160,-7.324,571.289,0.000
1606130015.922,-36.621,5.859,-25.879,-100.586,0.000
1606130015.926,-244.629,-35.645,-41.504,-618.164,0.000
1606130015.930,-109.375,-38.086,-42.480,-324.219,0.000
1606130015.934,192.383,-17.578,-21.484,398.926,0.000
1606130015.938,262.695,-1.953,-9.766,608.887,0.000
1606130015.942,-5.859,-22.949,-20.996,5.859,0.000
1606130015.946,-245.605,-45.898,-34.668,-582.520,0.000
1606130015.950,-157.227,-32.715,-23.926,-411.133,0.000
1606130015.953,146.484,-7.324,0.977,321.289,0.000
1606130015.957,258.301,-4.883,3.906,626.465,0.000
1606130015.961,21.484,-32.227,-10.254,88.379,0.000
1606130015.965,-242.676,-43.945,-31.738,-553.711,0.000
1606130015.969,-199.707,-33.691,-39.551,-488.770,0.000
1606130015.973,107.422,-20.508,-23.926,229.980,0.000
1606130015.977,257.812,-22.949,-14.160,625.977,0.000
1606130015.981,53.223,-6.836,-23.438,187.012,0.000
1606130015.985,-232.910,-4.883,-39.551,-498.047,0.000
1606130015.989,-234.375,-38.574,-30.273,-546.875,0.000
1606130015.992,65.918,-23.926,-7.812,148.926,0.000
1606130015.996,253.418,-4.395,2.930,620.117,0.000
1606130016.000,94.727,-9.277,-1.465,277.344,0.000
1606130016.004,-210.938,-38.086,-26.855,-444.336,0.000
1606130016.008,-261.719,-58.594,-30.273,-588.379,0.000
1606130016.012,19.043,-35.645,-5.859,62.012,0.000
1606130016.016,224.121,-16.602,-10.742,583.984,0.000
1606130016.020,114.746,-10.742,-25.879,353.516,0.000
1606130016.024,-185.547,-23.438,-36.133,-372.070,0.000
1606130016.028,-277.344,-43.457,-42.969,-637.207,0.000
1606130016.032,-25.879,-37.109,-20.508,-67.871,0.000
1606130016.035,230.469,-11.230,1.953,555.664,0.000
1606130016.039,158.203,-5.371,-10.742,436.035,0.000
1606130016.043,-156.250,-33.691,-31.738,-295.410,0.000
1606130016.047,-285.156,-48.340,-23.438,-645.508,0.000
1606130016.051,-69.336,-28.320,-10.254,-154.785,0.000
1606130016.055,209.473,-4.395,-7.324,507.812,0.000
1606130016.059,193.848,-7.324,-5.371,499.023,0.000
1606130016.063,-116.699,-33.203,-33.203,-212.402,0.000
1606130016.067,-289.062,-42.480,-47.852,-658.691,0.000
1606130016.071,-100.098,-20.996,-17.578,-269.531,0.000
1606130016.075,192.871,-8.301,-2.930,437.012,0.000
1606130016.078,203.125,-10.254,-20.020,534.668,0.000
1606130016.082,-90.332,-22.461,-41.504,-139.160,0.000
1606130016.086,-293.945,-46.875,-50.781,-662.598,0.000
1606130016.090,-152.344,-38.574,-49.805,-377.930,0.000
1606130016.094,157.715,-19.043,-35.156,353.027,0.000
1606130016.098,216.797,-27.344,-17.090,569.824,0.000
1606130016.102,-48.828,-40.527,-23.926,-32.715,0.000
1606130016.106,-275.879,-48.340,-37.109,-621.094,0.000
1606130016.110,-189.453,-41.016,-37.109,-454.590,0.000
1606130016.114,116.211,-25.391,-21.484,282.227,0.000
1606130016.117,231.934,-13.672,-13.672,602.051,0.000
1606130016.121,-5.371,-21.484,-35.645,68.359,0.000
1606130016.125,-272.949,-50.293,-55.664,-576.172,0.000
1606130016.129,-234.863,-50.781,-44.434,-516.602,0.000
1606130016.133,72.266,-23.926,-15.625,204.590,0.000
1606130016.137,226.562,-16.602,-8.789,602.539,0.000
1606130016.141,27.344,-31.738,-25.879,159.180,0.000
1606130016.145,-253.418,-44.434,-32.227,-523.438,0.000
1606130016.149,-254.883,-42.969,-20.020,-576.660,0.000
1606130016.153,42.969,-28.809,-3.906,112.793,0.000
1606130016.157,232.910,-11.230,-3.418,600.098,0.000
1606130016.160,67.871,-15.625,-20.996,256.348,0.000
1606130016.164,-234.863,-40.039,-43.945,-469.238,0.000
1606130016.168,-278.809,-39.062,-44.922,-631.348,0.000
1606130016.172,10.742,-10.742,-24.902,17.090,0.000
1606130016.176,236.328,-4.883,-6.836,576.660,0.000
1606130016.180,120.605,-22.461,-8.301,350.586,0.000
1606130016.184,-187.500,-43.457,-29.785,-376.953,0.000
1606130016.188,-285.645,-58.105,-37.598,-647.461,0.000
1606130016.192,-42.969,-37.598,-17.578,-79.102,0.000
1606130016.196,209.473,-12.207,1.465,543.945,0.000
1606130016.200,142.578,-15.625,0.977,433.105,0.000
1606130016.203,-173.340,-36.133,-23.926,-295.410,0.000
1606130016.207,-311.523,-55.176,-44.434,-664.551,0.000
1606130016.211,-95.703,-36.133,-33.203,-190.430,0.000
1606130016.215,181.641,-7.812,-14.648,477.539,0.000
1606130016.219,172.852,-14.160,-7.812,485.840,0.000
1606130016.223,-132.812,-44.922,-32.227,-223.145,0.000
1606130016.227,-314.941,-62.988,-50.781,-675.781,0.000
1606130016.231,-139.648,-48.340,-39.062,-292.480,0.000
1606130016.235,157.715,-14.160,-18.555,416.992,0.000
1606130016.239,193.848,-8.789,-11.719,532.715,0.000
1606130016.242,-90.332,-31.738,-28.320,-135.254,0.000
1606130016.246,-293.945,-46.875,-38.574,-657.227,0.000
1606130016.250,-151.367,-36.133,-38.574,-376.465,0.000
1606130016.254,159.180,-9.277,-35.156,347.168,0.000
1606130016.258,229.004,-12.207,-24.902,562.500,0.000
1606130016.262,-40.527,-52.246,-41.504,-42.969,0.000
1606130016.266,-275.391,-59.082,-62.988,-635.742,0.000
1606130016.270,-188.965,-33.203,-46.387,-467.773,0.000
1606130016.274,121.094,-0.977,-20.996,273.926,0.000
1606130016.278,240.723,-0.977,-24.414,596.191,0.000
1606130016.282,6.348,-30.273,-40.039,71.777,0.000
1606130016.285,-257.812,-39.062,-43.457,-566.895,0.000
1606130016.289,-223.633,-41.016,-39.551,-514.160,0.000
1606130016.293,83.496,-18.066,-22.461,203.125,0.000
1606130016.297,246.094,7.324,-2.930,615.723,0.000
1606130016.301,42.480,-7.812,-17.090,181.152,0.000
1606130016.305,-248.535,-34.668,-32.715,-512.207,0.000
1606130016.309,-254.395,-36.621,-31.738,-577.148,0.000
1606130016.313,41.016,-20.996,-14.160,108.887,0.000
1606130016.317,223.633,-16.602,-1.953,586.914,0.000
1606130016.321,64.453,-24.902,-21.973,255.371,0.000
1606130016.325,-232.422,-39.062,-42.969,-451.172,0.000
1606130016.328,-285.156,-43.945,-41.016,-625.977,0.000
1606130016.332,0.000,-24.902,-23.438,16.602,0.000
1606130016.336,226.074,-13.672,-14.160,587.402,0.000
1606130016.340,113.281,-24.414,-26.855,359.863,0.000
1606130016.344,-191.406,-37.598,-36.133,-371.094,0.000
1606130016.348,-296.387,-51.270,-45.898,-657.715,0.000
1606130016.352,-38.574,-33.691,-31.250,-88.379,0.000
1606130016.356,234.863,-7.812,1.465,562.988,0.000
1606130016.360,168.457,-2.441,-7.324,461.426,0.000
1606130016.364,-149.902,-27.832,-40.527,-270.996,0.000
1606130016.367,-285.156,-50.781,-42.969,-639.648,0.000
1606130016.371,-67.871,-30.273,-22.461,-167.480,0.000
1606130016.375,215.820,-7.812,0.977,509.277,0.000
1606130016.379,208.008,-18.066,0.488,520.508,0.000
1606130016.383,-106.934,-45.898,-25.879,-192.871,0.000
1606130016.387,-287.109,-52.246,-36.133,-644.043,0.000
1606130016.391,-107.422,-32.227,-28.809,-266.113,0.000
1606130016.395,184.082,-5.371,-16.113,435.547,0.000
1606130016.399,215.820,-2.930,-17.090,559.082,0.000
1606130016.403,-62.500,-29.785,-30.762,-96.191,0.000
1606130016.407,-265.625,-40.039,-38.574,-625.000,0.000
1606130016.410,-137.207,-16.602,-33.203,-353.516,0.000
1606130016.414,166.992,4.395,-13.672,375.488,0.000
1606130016.418,241.211,-9.277,-5.859,600.586,0.000
1606130016.422,-17.090,-21.973,-30.273,6.348,0.000
1606130016.426,-253.418,-26.855,-44.922,-586.914,0.000
1606130016.430,-180.176,-30.762,-33.203,-437.500,0.000
1606130016.434,124.512,-9.277,-15.137,294.434,0.000
1606130016.438,246.094,4.883,-13.672,618.164,0.000
1606130016.442,15.137,-14.648,-33.203,94.238,0.000
1606130016.446,-250.000,-35.645,-41.992,-554.199,0.000
1606130016.450,-214.844,-30.762,-26.367,-515.625,0.000
1606130016.453,93.750,-3.906,-1.953,205.566,0.000
1606130016.457,252.441,7.812,-2.930,623.535,0.000
1606130016.461,44.922,-15.137,-27.832,192.871,0.000
1606130016.465,-247.559,-46.387,-51.758,-502.930,0.000
1606130016.469,-255.859,-45.898,-51.270,-570.801,0.000
1606130016.473,41.504,-16.113,-27.832,107.910,0.000
1606130016.477,241.699,1.465,-2.441,610.840,0.000
1606130016.481,87.891,-9.766,-12.695,295.410,0.000
1606130016.485,-209.961,-37.109,-37.598,-430.664,0.000
1606130016.489,-264.160,-38.086,-34.668,-617.188,0.000
1606130016.492,13.672,-10.254,-14.648,9.766,0.000
1606130016.496,242.676,2.930,-4.395,574.219,0.000
1606130016.500,136.230,-3.906,-8.301,354.492,0.000
1606130016.504,-172.852,-34.668,-31.250,-374.512,0.000
1606130016.508,-280.273,-55.664,-45.410,-653.809,0.000
1606130016.512,-34.180,-35.156,-27.344,-101.074,0.000
1606130016.516,216.309,-15.137,-11.719,524.902,0.000
1606130016.520,158.203,-13.184,-12.207,430.176,0.000
1606130016.524,-144.531,-26.855,-25.879,-297.852,0.000
1606130016.528,-286.621,-45.898,-39.551,-675.293,0.000
1606130016.532,-74.707,-34.668,-23.926,-200.684,0.000
1606130016.535,200.684,-7.812,2.930,478.027,0.000
1606130016.539,184.082,-4.395,-3.418,493.164,0.000
1606130016.543,-120.117,-35.645,-27.832,-209.961,0.000
1606130016.547,-292.969,-49.316,-37.598,-660.645,0.000
1606130016.551,-121.582,-35.645,-26.367,-288.574,0.000
1606130016.555,163.574,-20.996,-9.277,410.645,0.000
1606130016.559,193.848,-21.484,-19.043,536.621,0.000
1606130016.563,-86.426,-39.062,-39.062,-118.652,0.000
1606130016.567,-289.062,-47.852,-39.551,-645.020,0.000
1606130016.571,-162.598,-40.039,-34.668,-379.883,0.000
1606130016.575,136.719,-21.973,-14.648,351.074,0.000
1606130016.578,218.750,-9.766,-4.883,592.285,0.000
1606130016.582,-43.945,-14.160,-23.926,-10.742,0.000
1606130016.586,-289.551,-41.992,-33.203,-614.258,0.000
1606130016.590,-205.566,-44.434,-31.738,-457.520,0.000
1606130016.594,118.652,-4.883,-0.977,283.203,0.000
1606130016.598,250.488,6.836,10.742,617.676,0.000
1606130016.602,20.020,-12.695,-20.996,104.492,0.000
1606130016.606,-248.535,-36.621,-35.156,-548.828,0.000
1606130016.610,-219.727,-46.387,-35.156,-522.949,0.000
1606130016.614,88.379,-17.578,-20.996,193.359,0.000
1606130016.617,251.465,-2.930,-10.742,615.723,0.000
1606130016.621,61.523,-17.090,-24.414,199.707,0.000
1606130016.625,-228.027,-40.039,-43.457,-492.188,0.000
1606130016.629,-244.629,-50.293,-44.434,-576.660,0.000
1606130016.633,53.711,-22.461,-20.996,104.980,0.000
1606130016.637,252.930,-6.348,-1.465,608.887,0.000
1606130016.641,103.027,-13.184,-17.090,292.480,0.000
1606130016.645,-207.520,-35.156,-44.922,-436.035,0.000
1606130016.649,-273.926,-50.293,-50.293,-627.930,0.000
1606130016.653,-8.789,-31.250,-31.250,-5.859,0.000
1606130016.657,221.191,-4.883,-8.789,566.406,0.000
1606130016.660,121.094,-8.789,-20.020,368.652,0.000
1606130016.664,-197.754,-33.203,-56.641,-370.605,0.000
1606130016.668,-305.664,-41.992,-60.547,-666.016,0.000
1606130016.672,-59.570,-23.438,-41.504,-112.793,0.000
1606130016.676,199.219,-1.465,-17.578,523.438,0.000
1606130016.680,136.719,-11.230,-18.066,428.711,0.000
1606130016.684,-171.875,-44.434,-50.293,-298.340,0.000
1606130016.688,-307.617,-50.293,-48.828,-670.410,0.000
1606130016.692,-101.562,-25.879,-20.020,-207.520,0.000
1606130016.696,179.688,3.418,4.883,479.004,0.000
1606130016.700,168.945,-5.859,-1.953,501.465,0.000
1606130016.703,-139.160,-41.992,-30.762,-212.402,0.000
1606130016.707,-327.148,-53.223,-45.898,-680.176,0.000
1606130016.711,-144.043,-44.922,-39.551,-305.664,0.000
1606130016.715,160.645,-12.695,-15.137,416.016,0.000
1606130016.719,166.504,5.371,-10.742,525.879,0.000
1606130016.723,-133.789,-19.531,-36.621,-144.531,0.000
1606130016.727,-341.309,-51.270,-43.457,-674.805,0.000
1606130016.731,-224.609,-54.688,-33.203,-428.223,0.000
1606130016.735,88.867,-29.785,-7.812,310.547,0.000
1606130016.739,185.059,-24.414,10.742,567.383,0.000
1606130016.742,-78.125,-53.223,-9.277,-21.484,0.000
1606130016.746,-318.848,-61.523,-20.508,-626.953,0.000
1606130016.750,-228.027,-35.156,-6.836,-482.422,0.000
1606130016.754,92.285,-14.160,9.766,251.953,0.000
1606130016.758,219.238,-10.254,12.207,589.355,0.000
1606130016.762,-13.672,-19.531,-20.508,79.590,0.000
1606130016.766,-286.621,-50.293,-45.898,-579.590,0.000
1606130016.770,-249.023,-57.617,-34.180,-542.969,0.000
1606130016.774,63.965,-30.273,-9.766,174.316,0.000
1606130016.778,229.004,-17.578,-2.930,597.656,0.000
1606130016.782,39.062,-18.066,-21.973,184.570,0.000
1606130016.785,-244.141,-41.016,-42.480,-513.184,0.000
1606130016.789,-251.953,-46.387,-31.738,-592.773,0.000
1606130016.793,41.016,-28.809,-1.953,85.449,0.000
1606130016.797,236.328,-22.461,4.395,586.426,0.000
1606130016.801,88.867,-23.438,-19.531,279.297,0.000
1606130016.805,-216.797,-39.551,-39.551,-439.453,0.000
1606130016.809,-279.297,-40.527,-35.156,-627.930,0.000
1606130016.813,-7.324,-12.207,-14.160,3.418,0.000
1606130016.817,223.633,2.930,3.906,578.613,0.000
1606130016.821,127.441,-2.441,-7.812,375.977,0.000
1606130016.825,-182.617,-22.461,-31.250,-357.422,0.000
1606130016.828,-289.551,-38.086,-25.391,-652.344,0.000
1606130016.832,-41.016,-13.184,-10.254,-100.586,0.000
1606130016.836,218.262,11.719,2.441,536.133,0.000
1606130016.840,161.621,-3.418,-6.836,445.801,0.000
1606130016.844,-149.414,-25.879,-30.273,-285.645,0.000
1606130016.848,-291.504,-33.691,-35.156,-669.434,0.000
1606130016.852,-83.008,-23.438,-24.414,-215.820,0.000
1606130016.856,194.336,-3.418,0.000,464.355,0.000
1606130016.860,190.430,22.949,7.324,505.371,0.000
1606130016.864,-109.375,10.742,-20.020,-193.848,0.000
1606130016.867,-294.434,-34.180,-33.203,-673.828,0.000
1606130016.871,-126.953,-28.320,-18.555,-327.637,0.000
1606130016.875,176.758,-4.395,-3.906,391.113,0.000
1606130016.879,214.355,0.000,-11.719,544.922,0.000
1606130016.883,-73.242,-20.020,-29.297,-98.633,0.000
1606130016.887,-287.109,-38.574,-33.203,-638.672,0.000
1606130016.891,-170.410,-35.645,-36.133,-395.996,0.000
1606130016.895,137.207,-7.324,-19.531,333.496,0.000
1606130016.899,225.586,3.906,-8.789,586.914,0.000
1606130016.903,-39.062,-23.438,-26.855,3.418,0.000
1606130016.907,-287.598,-47.852,-39.062,-607.910,0.000
1606130016.910,-212.402,-36.621,-24.902,-473.145,0.000
1606130016.914,102.051,-14.160,-0.488,258.789,0.000
1606130016.918,236.816,-1.953,1.465,607.910,0.000
1606130016.922,13.672,18.066,-22.949,115.234,0.000
1606130016.926,-261.230,-14.648,-46.875,-556.152,0.000
1606130016.930,-237.305,-50.293,-41.016,-541.504,0.000
1606130016.934,73.242,-16.602,-10.742,178.223,0.000
1606130016.938,243.164,0.000,0.977,615.234,0.000
1606130016.942,55.664,-20.508,-18.066,215.332,0.000
1606130016.946,-236.816,-49.316,-36.621,-484.863,0.000
1606130016.950,-260.254,-45.410,-30.273,-577.637,0.000
1606130016.953,38.086,-15.625,1.953,104.980,0.000
1606130016.957,244.629,-3.906,8.789,622.070,0.000
1606130016.961,101.074,5.859,-8.789,324.219,0.000
1606130016.965,-198.730,-27.344,-24.414,-403.320,0.000
1606130016.969,-266.602,-52.246,-31.250,-606.934,0.000
1606130016.973,8.301,-19.531,-7.324,11.230,0.000
1606130016.977,243.164,-7.812,8.301,590.332,0.000
1606130016.981,146.973,-16.113,-8.301,403.320,0.000
1606130016.985,-155.273,-32.227,-22.949,-325.195,0.000
1606130016.989,-265.137,-40.527,-22.461,-631.348,0.000
1606130016.992,-28.320,-20.020,-9.277,-100.098,0.000
1606130016.996,236.816,-7.324,-0.977,534.180,0.000
1606130017.000,185.059,-2.930,-20.508,458.984,0.000
1606130017.004,-130.371,-18.066,-50.781,-281.250,0.000
1606130017.008,-272.949,-45.898,-60.059,-683.105,0.000
1606130017.012,-78.125,-28.809,-41.504,-239.746,0.000
1606130017.016,195.312,-11.230,-22.461,441.406,0.000
1606130017.020,198.730,-21.973,-28.320,489.258,0.000
1606130017.024,-101.074,-46.387,-42.480,-214.355,0.000
1606130017.028,-285.645,-56.641,-49.805,-696.289,0.000
1606130017.032,-122.070,-36.621,-35.156,-338.379,0.000
1606130017.035,169.434,-13.184,-18.555,384.766,0.000
1606130017.039,211.426,-8.789,-12.695,542.480,0.000
1606130017.043,-73.730,-32.715,-35.645,-96.680,0.000
1606130017.047,-299.805,-57.617,-67.383,-649.414,0.000
1606130017.051,-188.477,-43.945,-51.270,-415.527,0.000
1606130017.055,120.117,-18.555,-13.672,320.312,0.000
1606130017.059,210.938,1.465,-20.020,577.148,0.000
1606130017.063,-52.246,-0.977,-42.969,-1.465,0.000
1606130017.067,-301.270,-39.062,-47.852,-611.816,0.000
1606130017.071,-227.539,-41.016,-36.133,-484.375,0.000
1606130017.075,85.938,-17.578,-15.625,247.070,0.000
1606130017.078,219.238,-13.184,-20.508,600.098,0.000
1606130017.082,-1.953,-35.645,-40.527,109.375,0.000
1606130017.086,-273.926,-55.664,-41.504,-553.711,0.000
1606130017.090,-246.094,-41.016,-34.668,-538.574,0.000
1606130017.094,62.988,-15.137,-11.719,175.781,0.000
1606130017.098,229.980,-7.324,3.418,604.004,0.000
1606130017.102,39.062,11.719,-19.043,198.730,0.000
1606130017.106,-251.953,-28.320,-42.480,-500.977,0.000
1606130017.110,-261.719,-71.777,-30.273,-595.703,0.000
1606130017.114,28.320,-24.902,-10.742,77.637,0.000
1606130017.117,224.609,-4.883,-9.766,588.379,0.000
1606130017.121,96.191,-15.137,-27.344,304.688,0.000
1606130017.125,-200.684,-28.320,-52.246,-414.062,0.000
1606130017.129,-272.949,-40.527,-47.363,-629.883,0.000
1606130017.133,-5.371,-17.578,-7.324,-16.602,0.000
1606130017.137,230.957,0.977,10.742,568.848,0.000
1606130017.141,134.277,-12.695,-14.160,386.719,0.000
1606130017.145,-179.688,-45.898,-42.969,-347.168,0.000
1606130017.149,-289.551,-62.500,-44.922,-657.715,0.000
1606130017.153,-46.875,-34.180,-24.414,-121.582,0.000
1606130017.157,220.703,0.977,0.977,531.738,0.000
1606130017.160,175.781,-6.836,-6.836,465.820,0.000
1606130017.164,-140.625,-42.969,-42.969,-259.766,0.000
1606130017.168,-293.945,-47.363,-49.316,-657.227,0.000
1606130017.172,-88.379,-20.508,-20.996,-210.938,0.000
1606130017.176,200.195,0.488,-0.488,474.609,0.000
1606130017.180,194.824,-12.695,-13.184,513.184,0.000
1606130017.184,-104.004,-44.922,-33.691,-172.852,0.000
1606130017.188,-280.273,-47.363,-45.410,-642.578,0.000
1606130017.192,-129.395,-36.621,-45.410,-312.500,0.000
1606130017.196,167.480,-17.090,-13.672,405.762,0.000
1606130017.200,221.680,0.488,-9.277,575.195,0.000
1606130017.203,-60.059,-12.695,-36.621,-68.848,0.000
1606130017.207,-282.227,-41.504,-45.898,-632.812,0.000
1606130017.211,-167.480,-38.086,-37.109,-409.668,0.000
1606130017.215,143.066,-9.277,-17.090,319.824,0.000
1606130017.219,236.816,-2.441,-13.672,586.914,0.000
1606130017.223,-12.695,-14.648,-28.809,19.043,0.000
1606130017.227,-269.043,-31.738,-50.781,-607.422,0.000
1606130017.231,-209.961,-29.297,-55.664,-500.977,0.000
1606130017.235,100.586,-10.254,-32.715,229.004,0.000
1606130017.239,233.887,-15.137,-10.254,587.402,0.000
1606130017.242,9.766,-33.691,-31.738,99.609,0.000
1606130017.246,-266.113,-48.340,-54.199,-570.312,0.000
1606130017.250,-242.676,-38.574,-40.039,-564.941,0.000
1606130017.254,60.547,-16.602,-26.855,142.090,0.000
1606130017.258,223.633,-8.301,-18.066,582.031,0.000
1606130017.262,41.992,-25.391,-22.949,200.195,0.000
1606130017.266,-241.699,-43.457,-41.016,-487.793,0.000
1606130017.270,-273.926,-49.316,-38.574,-591.797,0.000
1606130017.274,10.742,-37.598,-15.625,77.637,0.000
1606130017.278,229.004,-21.973,6.348,607.422,0.000
1606130017.282,92.773,-29.297,-14.648,330.566,0.000
1606130017.285,-215.332,-63.965,-49.316,-396.973,0.000
1606130017.289,-291.504,-78.125,-47.363,-627.930,0.000
1606130017.293,-29.785,-42.480,-20.020,-28.320,0.000
1606130017.297,215.820,-3.906,-2.930,576.660,0.000
1606130017.301,124.512,-7.324,-16.113,405.273,0.000
1606130017.305,-187.500,-37.598,-32.227,-333.008,0.000
1606130017.309,-300.293,-50.781,-36.133,-648.438,0.000
1606130017.313,-64.941,-29.297,-24.414,-131.348,0.000
1606130017.317,196.777,-14.648,-2.441,511.719,0.000
1606130017.321,166.016,-15.625,3.906,470.215,0.000
1606130017.325,-127.930,-35.645,-26.855,-239.258,0.000
1606130017.328,-285.645,-55.176,-39.062,-652.344,0.000
1606130017.332,-92.285,-40.527,-25.879,-229.004,0.000
1606130017.336,190.918,-13.184,-14.160,459.473,0.000
1606130017.340,193.848,3.906,-20.020,515.137,0.000
1606130017.344,-97.168,-11.230,-38.086,-169.434,0.000
1606130017.348,-287.598,-41.992,-46.387,-656.738,0.000
1606130017.352,-141.113,-35.645,-41.016,-341.309,0.000
1606130017.356,157.715,-10.254,-20.508,371.582,0.000
1606130017.360,217.285,-10.742,-19.531,550.781,0.000
1606130017.364,-63.965,-37.109,-39.551,-86.426,0.000
1606130017.367,-286.621,-50.781,-44.922,-645.996,0.000
1606130017.371,-168.457,-38.086,-34.180,-413.086,0.000
1606130017.375,130.371,-22.461,-29.297,316.406,0.000
1606130017.379,220.703,-3.906,-27.832,582.031,0.000
1606130017.383,-24.902,12.695,-31.250,22.461,0.000
1606130017.387,-278.809,-17.578,-45.898,-599.609,0.000
1606130017.391,-219.727,-41.992,-35.645,-487.793,0.000
1606130017.395,95.215,-20.996,-11.719,251.953,0.000
1606130017.399,238.281,-2.930,6.836,629.883,0.000
1606130017.403,27.344,-17.090,-0.488,163.086,0.000
1606130017.407,-242.676,-41.504,-32.715,-508.789,0.000
1606130017.410,-230.957,-41.016,-34.180,-527.832,0.000
1606130017.414,64.941,-23.926,-11.230,174.805,0.000
1606130017.418,245.117,-8.301,0.977,633.789,0.000
1606130017.422,70.312,-7.812,-14.648,252.441,0.000
1606130017.426,-222.656,-41.016,-32.715,-460.449,0.000
1606130017.430,-261.230,-57.129,-33.691,-591.309,0.000
1606130017.434,23.438,-26.367,-20.020,61.523,0.000
1606130017.438,241.699,-5.859,-6.348,594.727,0.000
1606130017.442,107.910,-12.207,-20.508,326.172,0.000
1606130017.446,-192.871,-33.691,-41.504,-397.949,0.000
1606130017.450,-266.113,-47.852,-42.969,-626.465,0.000
1606130017.453,-7.324,-18.555,-29.297,-34.668,0.000
1606130017.457,230.469,9.277,-9.277,553.711,0.000
1606130017.461,147.461,-5.859,-18.555,389.160,0.000
1606130017.465,-157.715,-34.668,-50.293,-342.773,0.000
1606130017.469,-280.273,-41.992,-50.293,-667.480,0.000
1606130017.473,-44.922,-29.297,-28.320,-146.973,0.000
1606130017.477,220.703,-12.695,-17.578,495.605,0.000
1606130017.481,175.293,-2.441,-19.531,444.336,0.000
1606130017.485,-125.977,-14.160,-37.598,-270.508,0.000
1606130017.489,-281.250,-40.527,-50.781,-683.594,0.000
1606130017.492,-89.355,-34.668,-40.527,-262.695,0.000
1606130017.496,197.266,-1.465,-17.090,431.641,0.000
1606130017.500,211.426,9.766,-8.301,509.766,0.000
1606130017.504,-85.938,-20.996,-29.785,-169.434,0.000
1606130017.508,-288.574,-48.340,-48.340,-662.109,0.000
1606130017.512,-141.113,-37.598,-37.109,-337.891,0.000
1606130017.516,162.598,-17.090,-11.230,392.090,0.000
1606130017.520,225.098,11.719,-4.883,581.543,0.000
1606130017.524,-58.594,-1.465,-27.344,-52.246,0.000
1606130017.528,-284.668,-48.340,-40.039,-620.605,0.000
1606130017.532,-175.293,-45.410,-24.414,-408.203,0.000
1606130017.535,135.742,-10.742,-4.395,328.125,0.000
1606130017.539,242.188,8.301,-12.695,614.258,0.000
1606130017.543,-10.742,-13.184,-28.809,51.758,0.000
1606130017.547,-266.113,-44.434,-45.898,-580.566,0.000
1606130017.551,-210.938,-44.434,-41.504,-487.793,0.000
1606130017.555,96.680,-12.695,-13.184,238.281,0.000
1606130017.559,242.676,7.324,-3.418,609.375,0.000
1606130017.563,31.738,-4.395,-18.066,147.949,0.000
1606130017.567,-238.770,-46.387,-38.086,-521.973,0.000
1606130017.571,-224.609,-51.758,-25.879,-541.992,0.000
1606130017.575,72.266,-23.926,-7.812,160.156,0.000
1606130017.578,248.047,-2.441,-15.137,611.816,0.000
1606130017.582,76.660,-2.441,-16.113,244.141,0.000
1606130017.586,-215.332,-37.109,-22.949,-461.914,0.000
1606130017.590,-257.324,-48.828,-37.109,-609.375,0.000
1606130017.594,26.367,-20.020,-21.484,52.246,0.000
1606130017.598,241.211,2.441,-5.371,595.215,0.000
1606130017.602,113.770,-13.184,-8.301,336.426,0.000
1606130017.606,-187.500,-39.551,-33.691,-383.789,0.000
1606130017.610,-265.625,-42.969,-48.828,-625.000,0.000
1606130017.614,1.465,-22.461,-37.109,-32.715,0.000
1606130017.617,234.375,-4.883,-11.719,566.895,0.000
1606130017.621,134.277,0.488,-8.789,403.809,0.000
1606130017.625,-171.387,-27.832,-31.738,-320.801,0.000
1606130017.629,-274.414,-52.246,-32.227,-632.812,0.000
1606130017.633,-33.691,-36.133,-30.273,-120.117,0.000
1606130017.637,234.863,-15.625,-20.996,535.156,0.000
1606130017.641,212.891,-13.672,-18.066,516.113,0.000
1606130017.645,-92.285,-40.527,-47.852,-198.242,0.000
1606130017.649,-258.789,-51.270,-47.852,-624.023,0.000
1606130017.653,-76.660,-31.738,-22.949,-205.078,0.000
1606130017.657,209.961,-11.230,-3.906,499.512,0.000
1606130017.660,239.746,4.395,6.836,590.332,0.000
1606130017.664,-61.523,-23.438,-25.879,-104.004,0.000
1606130017.668,-269.043,-60.547,-56.152,-623.535,0.000
1606130017.672,-119.629,-43.457,-38.086,-311.035,0.000
1606130017.676,185.547,-16.602,-9.277,416.504,0.000
1606130017.680,248.047,-19.043,-2.441,608.887,0.000
1606130017.684,-24.902,-39.062,-14.648,-14.648,0.000
1606130017.688,-258.789,-47.852,-27.832,-586.426,0.000
1606130017.692,-159.668,-39.062,-20.508,-390.137,0.000
1606130017.696,152.344,-19.531,1.953,337.402,0.000
1606130017.700,248.535,-11.719,-6.836,625.000,0.000
1606130017.703,0.000,-23.926,-28.320,78.125,0.000
1606130017.707,-255.371,-45.898,-42.480,-560.547,0.000
1606130017.711,-200.684,-44.922,-39.551,-476.562,0.000
1606130017.715,106.445,-25.391,-19.043,250.977,0.000
1606130017.719,256.348,2.441,-10.254,640.137,0.000
1606130017.723,53.711,-1.953,-13.672,186.035,0.000
1606130017.727,-224.121,-34.668,-31.250,-499.023,0.000
1606130017.731,-215.820,-32.227,-30.762,-526.367,0.000
1606130017.735,85.938,-7.324,3.418,177.246,0.000
1606130017.739,279.297,15.137,21.973,651.367,0.000
1606130017.742,104.492,-5.371,-8.301,289.062,0.000
1606130017.746,-209.473,-41.016,-51.270,-432.129,0.000
1606130017.750,-238.770,-45.410,-52.734,-556.641,0.000
1606130017.754,44.922,-22.461,-34.180,82.031,0.000
1606130017.758,233.398,-1.953,-21.484,583.984,0.000
1606130017.762,107.422,10.254,-27.832,329.102,0.000
1606130017.766,-190.918,-11.719,-41.504,-393.555,0.000
1606130017.770,-280.762,-42.480,-47.363,-650.391,0.000
1606130017.774,-27.344,-24.414,-34.180,-79.102,0.000
1606130017.778,218.262,-1.465,-9.277,528.320,0.000
1606130017.782,143.555,-9.277,-12.695,392.090,0.000
1606130017.785,-162.598,-39.551,-43.945,-337.891,0.000
1606130017.789,-285.156,-52.246,-55.176,-675.293,0.000
1606130017.793,-58.594,-29.297,-36.621,-168.457,0.000
1606130017.797,205.566,-13.184,-19.043,491.699,0.000
1606130017.801,171.875,-11.230,-21.484,466.797,0.000
1606130017.805,-132.812,-31.738,-42.480,-247.559,0.000
1606130017.809,-302.734,-60.547,-52.246,-683.105,0.000
1606130017.813,-120.605,-47.852,-40.039,-275.879,0.000
1606130017.817,168.457,-22.461,-20.020,426.270,0.000
1606130017.821,191.406,-20.508,-15.137,513.184,0.000
1606130017.825,-103.516,-42.480,-37.109,-167.969,0.000
1606130017.828,-311.523,-56.152,-53.223,-681.641,0.000
1606130017.832,-173.340,-46.387,-45.898,-384.277,0.000
1606130017.836,124.023,-25.879,-29.297,343.262,0.000
1606130017.840,189.453,-10.254,-20.508,550.293,0.000
1606130017.844,-72.266,-25.879,-34.668,-63.965,0.000
1606130017.848,-294.434,-46.387,-44.434,-633.789,0.000
1606130017.852,-192.383,-48.340,-32.227,-434.570,0.000
1606130017.856,122.559,-24.902,-11.719,303.711,0.000
1606130017.860,238.770,-4.883,-1.465,606.934,0.000
1606130017.864,1.465,-25.391,-15.137,69.824,0.000
1606130017.867,-255.859,-47.852,-29.785,-563.965,0.000
1606130017.871,-194.336,-44.922,-31.738,-489.746,0.000
1606130017.875,108.887,-16.113,-15.625,240.723,0.000
1606130017.879,246.582,-4.395,-11.719,635.742,0.000
1606130017.883,41.504,-31.250,-18.066,180.664,0.000
1606130017.887,-240.234,-42.969,-22.461,-496.582,0.000
1606130017.891,-244.141,-35.156,-31.250,-541.016,0.000
1606130017.895,49.805,-29.297,-16.113,145.020,0.000
1606130017.899,245.605,-9.766,5.859,624.512,0.000
1606130017.903,81.055,-9.277,-14.160,271.484,0.000
1606130017.907,-212.891,-33.203,-37.598,-437.988,0.000
1606130017.910,-250.977,-40.527,-31.738,-582.520,0.000
1606130017.914,27.832,-21.484,-12.207,62.988,0.000
1606130017.918,240.723,-5.371,-2.930,604.980,0.000
1606130017.922,123.047,-17.578,-7.812,359.863,0.000
1606130017.926,-177.734,-42.480,-22.461,-366.211,0.000
1606130017.930,-273.438,-47.363,-24.902,-625.488,0.000
1606130017.934,-24.414,-24.414,-20.020,-51.270,0.000
1606130017.938,225.586,-2.441,-15.625,563.965,0.000
1606130017.942,144.531,-7.812,-20.508,428.711,0.000
1606130017.946,-174.805,-35.156,-41.016,-317.383,0.000
1606130017.950,-301.758,-48.340,-41.016,-640.625,0.000
1606130017.953,-69.824,-27.344,-18.555,-122.559,0.000
1606130017.957,207.031,-6.836,-4.883,514.160,0.000
1606130017.961,172.363,-9.277,-20.996,486.328,0.000
1606130017.965,-144.531,-33.691,-41.504,-242.676,0.000
1606130017.969,-303.711,-51.758,-46.387,-674.805,0.000
1606130017.973,-111.328,-37.109,-40.039,-272.461,0.000
1606130017.977,164.062,-8.301,-21.484,414.062,0.000
1606130017.981,192.383,2.441,-8.301,524.414,0.000
1606130017.985,-92.773,-29.785,-24.414,-143.066,0.000
1606130017.989,-306.152,-58.594,-47.852,-676.270,0.000
1606130017.992,-150.391,-40.039,-37.109,-376.465,0.000
1606130017.996,156.250,-15.625,-11.719,355.469,0.000
1606130018.000,223.633,4.883,-8.789,558.594,0.000
1606130018.004,-40.527,-16.602,-29.785,-51.270,0.000
1606130018.008,-281.738,-55.176,-48.828,-637.695,0.000
1606130018.012,-189.941,-46.875,-42.969,-457.520,0.000
1606130018.016,126.465,-9.766,-11.230,284.668,0.000
1606130018.020,232.910,-6.348,-2.930,587.891,0.000
1606130018.024,-9.766,-33.691,-33.203,38.574,0.000
1606130018.028,-251.953,-44.922,-43.457,-573.730,0.000
1606130018.032,-198.242,-29.785,-26.367,-485.352,0.000
1606130018.035,91.309,-11.230,-2.930,218.262,0.000
1606130018.039,232.422,-5.371,-1.465,599.609,0.000
1606130018.043,32.715,-3.418,-22.949,151.855,0.000
1606130018.047,-244.141,-30.762,-35.645,-521.973,0.000
1606130018.051,-249.512,-40.039,-33.203,-566.406,0.000
1606130018.055,56.152,-18.066,-10.742,134.277,0.000
1606130018.059,257.812,2.930,-3.418,608.887,0.000
1606130018.063,86.914,-1.465,-9.277,260.254,0.000
1606130018.067,-215.332,-35.156,-20.020,-441.895,0.000
1606130018.071,-260.742,-43.457,-33.203,-598.633,0.000
1606130018.075,10.742,-17.578,-16.113,36.133,0.000
1606130018.078,221.680,-0.488,-6.348,578.125,0.000
1606130018.082,100.098,-16.602,-25.391,329.590,0.000
1606130018.086,-201.172,-38.574,-41.504,-399.902,0.000
1606130018.090,-289.551,-41.504,-41.016,-651.855,0.000
1606130018.094,-37.598,-20.996,-26.855,-67.383,0.000
1606130018.098,217.285,5.859,-8.301,554.688,0.000
1606130018.102,149.414,4.883,-17.090,426.270,0.000
1606130018.106,-154.297,-23.926,-41.016,-301.758,0.000
1606130018.110,-276.367,-43.457,-33.691,-651.855,0.000
1606130018.114,-50.293,-20.508,-12.695,-165.039,0.000
1606130018.117,218.262,3.906,-9.277,498.047,0.000
1606130018.121,191.406,2.441,-16.602,488.281,0.000
1606130018.125,-112.305,-19.531,-31.738,-225.586,0.000
1606130018.129,-292.969,-42.480,-51.270,-672.363,0.000
1606130018.133,-123.535,-34.668,-47.852,-281.250,0.000
1606130018.137,164.062,-16.113,-23.438,424.316,0.000
1606130018.141,190.430,2.441,-17.090,527.832,0.000
1606130018.145,-93.262,-5.859,-26.367,-138.184,0.000
1606130018.149,-293.945,-36.621,-31.738,-648.926,0.000
1606130018.153,-163.086,-38.574,-26.367,-366.699,0.000
1606130018.157,134.277,-20.020,-12.695,343.750,0.000
1606130018.160,206.543,-6.348,-14.160,559.082,0.000
1606130018.164,-62.012,-24.902,-34.668,-54.688,0.000
1606130018.168,-295.898,-42.969,-47.363,-649.902,0.000
1606130018.172,-193.359,-25.391,-31.250,-455.078,0.000
1606130018.176,115.234,-2.441,-7.812,276.367,0.000
1606130018.180,227.051,15.137,-5.371,584.473,0.000
1606130018.184,-14.160,-4.395,-23.438,57.617,0.000
1606130018.188,-275.879,-49.316,-32.715,-589.844,0.000
1606130018.192,-219.727,-39.551,-25.879,-526.367,0.000
1606130018.196,91.309,-9.277,-9.766,201.660,0.000
1606130018.200,236.328,-2.441,4.395,601.074,0.000
1606130018.203,27.344,-20.996,-8.301,166.016,0.000
1606130018.207,-250.977,-42.480,-37.109,-525.879,0.000
1606130018.211,-249.023,-32.715,-36.621,-591.309,0.000
1606130018.215,42.480,-10.742,-16.602,104.980,0.000
1606130018.219,231.445,3.418,-8.301,588.379,0.000
1606130018.223,74.707,4.395,-24.902,249.023,0.000
1606130018.227,-228.516,-26.367,-45.898,-458.008,0.000
1606130018.231,-277.344,-46.875,-35.645,-613.770,0.000
1606130018.235,7.324,-23.926,-15.137,30.762,0.000
1606130018.239,226.562,-5.371,-4.395,581.055,0.000
1606130018.242,115.234,-15.625,-4.395,354.492,0.000
1606130018.246,-190.918,-37.598,-22.949,-363.281,0.000
1606130018.250,-285.156,-50.293,-25.391,-629.883,0.000
1606130018.254,-30.762,-29.297,-11.230,-66.406,0.000
1606130018.258,216.797,-0.977,-5.371,548.340,0.000
1606130018.262,143.066,-8.789,-19.043,437.012,0.000
1606130018.266,-166.504,-39.551,-43.457,-284.668,0.000
1606130018.270,-289.062,-49.805,-43.945,-642.578,0.000
1606130018.274,-70.801,-25.391,-24.902,-161.133,0.000
1606130018.278,197.266,-2.441,-14.160,504.883,0.000
1606130018.282,183.105,1.953,-16.113,507.812,0.000
1606130018.285,-119.629,-30.762,-33.203,-202.637,0.000
1606130018.289,-299.805,-59.570,-38.574,-657.227,0.000
1606130018.293,-126.953,-45.410,-20.508,-276.367,0.000
1606130018.297,174.316,-11.230,-9.766,431.641,0.000
1606130018.301,214.844,-3.906,-11.719,547.363,0.000
1606130018.305,-65.918,-34.668,-22.949,-109.375,0.000
1606130018.309,-276.855,-51.270,-35.645,-638.672,0.000
1606130018.313,-145.508,-33.691,-25.391,-370.117,0.000
1606130018.317,162.109,-12.207,-9.766,364.258,0.000
1606130018.321,231.934,-6.348,-13.672,573.242,0.000
1606130018.325,-35.645,-23.926,-31.250,-37.109,0.000
1606130018.328,-279.297,-54.199,-47.852,-619.629,0.000
1606130018.332,-182.129,-46.875,-37.109,-442.871,0.000
1606130018.336,137.207,-2.441,-12.207,292.480,0.000
1606130018.340,247.070,16.113,-11.719,603.516,0.000
1606130018.344,10.254,-15.137,-19.043,79.590,0.000
1606130018.348,-252.930,-41.504,-32.715,-567.383,0.000
1606130018.352,-214.844,-34.180,-37.109,-525.879,0.000
1606130018.356,84.961,-9.277,-22.949,193.359,0.000
1606130018.360,241.211,11.230,-14.160,606.934,0.000
1606130018.364,44.434,-8.789,-23.438,170.410,0.000
1606130018.367,-238.281,-44.434,-46.387,-520.508,0.000
1606130018.371,-244.141,-50.293,-49.805,-577.637,0.000
1606130018.375,47.363,-31.738,-21.973,116.699,0.000
1606130018.379,244.629,-11.230,-5.371,614.258,0.000
1606130018.383,102.539,-13.184,-11.719,286.621,0.000
1606130018.387,-197.754,-33.203,-30.273,-433.105,0.000
1606130018.391,-276.855,-41.016,-45.410,-610.840,0.000
1606130018.395,-4.883,-18.555,-25.391,27.832,0.000
1606130018.399,232.422,0.977,-13.184,593.750,0.000
1606130018.403,127.441,-9.277,-23.438,375.977,0.000
1606130018.407,-180.176,-31.738,-27.832,-348.145,0.000
1606130018.410,-281.738,-36.133,-38.574,-629.395,0.000
1606130018.414,-33.691,-20.996,-28.320,-73.242,0.000
1606130018.418,212.891,-9.277,-5.371,549.316,0.000
1606130018.422,143.066,-5.371,-18.555,437.500,0.000
1606130018.426,-160.645,-21.973,-33.203,-282.715,0.000
1606130018.430,-296.875,-43.945,-32.227,-647.461,0.000
1606130018.434,-89.355,-40.039,-22.461,-187.012,0.000
1606130018.438,178.223,-26.367,-15.137,481.445,0.000
1606130018.442,162.598,-29.785,-20.996,492.188,0.000
1606130018.446,-129.883,-53.223,-27.344,-209.961,0.000
1606130018.450,-300.781,-62.500,-38.574,-657.227,0.000
1606130018.453,-133.789,-40.039,-41.992,-284.668,0.000
1606130018.457,153.809,-22.949,-18.066,414.551,0.000
1606130018.461,184.082,-15.625,-19.531,539.062,0.000
1606130018.465,-103.516,-30.762,-42.969,-120.605,0.000
1606130018.469,-305.664,-62.012,-48.340,-638.672,0.000
1606130018.473,-166.016,-53.711,-38.086,-369.141,0.000
1606130018.477,143.555,-21.973,-9.766,345.215,0.000
1606130018.481,221.680,-10.742,-14.648,570.312,0.000
1606130018.485,-41.992,-33.691,-42.480,-22.949,0.000
1606130018.489,-281.738,-47.852,-41.504,-610.352,0.000
1606130018.492,-196.777,-39.551,-25.391,-454.102,0.000
1606130018.496,114.746,-25.391,-10.254,275.391,0.000
1606130018.500,245.117,0.977,-4.395,615.234,0.000
1606130018.504,14.160,-2.441,-15.137,99.609,0.000
1606130018.508,-257.324,-42.480,-33.691,-565.918,0.000
1606130018.512,-219.238,-41.504,-31.738,-520.508,0.000
1606130018.516,87.891,-12.207,-11.230,201.660,0.000
1606130018.520,243.652,0.977,-11.230,613.770,0.000
1606130018.524,45.898,-15.625,-25.391,189.453,0.000
1606130018.528,-238.281,-40.039,-41.504,-508.301,0.000
1606130018.532,-242.676,-38.574,-42.480,-581.543,0.000
1606130018.535,52.734,-12.695,-20.020,107.422,0.000
1606130018.539,247.070,6.836,0.977,603.027,0.000
1606130018.543,94.238,-11.230,-11.719,277.344,0.000
1606130018.547,-210.449,-44.922,-45.410,-440.430,0.000
1606130018.551,-274.414,-51.270,-41.504,-625.488,0.000
1606130018.555,-6.836,-33.691,-21.973,4.395,0.000
1606130018.559,220.703,-9.766,-9.277,580.078,0.000
1606130018.563,113.770,-1.953,-21.484,366.699,0.000
1606130018.567,-197.754,-38.086,-43.457,-369.629,0.000
1606130018.571,-294.434,-51.270,-40.039,-654.297,0.000
1606130018.575,-49.316,-29.785,-13.672,-95.703,0.000
1606130018.578,212.402,-5.371,7.812,541.504,0.000
1606130018.582,155.273,-6.348,-3.418,445.801,0.000
1606130018.586,-155.273,-33.203,-25.391,-284.180,0.000
1606130018.590,-285.645,-36.133,-35.156,-655.762,0.000
1606130018.594,-69.824,-16.113,-21.484,-183.594,0.000
1606130018.598,201.172,-0.977,-0.977,491.699,0.000
1606130018.602,180.176,15.137,-7.812,505.859,0.000
1606130018.606,-119.141,-5.859,-25.879,-189.941,0.000
1606130018.610,-284.180,-36.133,-29.785,-642.578,0.000
1606130018.614,-107.910,-27.832,-17.090,-278.320,0.000
1606130018.617,182.617,-8.789,7.324,425.781,0.000
1606130018.621,223.633,-2.441,13.672,561.035,0.000
1606130018.625,-67.871,-27.344,-16.602,-101.562,0.000
1606130018.629,-281.738,-41.992,-40.039,-645.508,0.000
1606130018.633,-154.297,-35.645,-25.879,-371.094,0.000
1606130018.637,148.438,-20.996,-3.418,352.539,0.000
1606130018.641,228.516,17.090,-6.836,574.219,0.000
1606130018.645,-35.645,-1.465,-18.066,-14.160,0.000
1606130018.649,-278.809,-56.641,-38.574,-622.559,0.000
1606130018.653,-207.031,-49.805,-49.316,-475.586,0.000
1606130018.657,101.562,-20.996,-22.949,260.742,0.000
1606130018.660,232.422,-13.184,-8.789,596.191,0.000
1606130018.664,6.836,-26.855,-27.832,87.402,0.000
1606130018.668,-264.648,-46.875,-53.223,-577.637,0.000
1606130018.672,-229.980,-43.457,-45.898,-538.086,0.000
1606130018.676,83.496,-9.766,-10.254,189.453,0.000
1606130018.680,244.141,12.207,0.977,607.422,0.000
1606130018.684,50.293,-4.395,-17.578,194.824,0.000
1606130018.688,-240.234,-35.645,-39.551,-492.188,0.000
1606130018.692,-259.766,-39.062,-40.039,-584.961,0.000
1606130018.696,28.320,-25.879,-13.184,80.078,0.000
1606130018.700,217.285,-7.812,-4.395,590.820,0.000
1606130018.703,69.336,12.695,-20.996,289.062,0.000
1606130018.707,-224.609,-28.320,-37.598,-442.383,0.000
1606130018.711,-279.785,-51.758,-37.109,-633.789,0.000
1606130018.715,-4.883,-23.438,-17.090,-3.418,0.000
1606130018.719,215.820,-6.348,-14.160,562.500,0.000
1606130018.723,114.746,-14.160,-33.691,354.980,0.000
1606130018.727,-183.105,-42.969,-47.852,-368.652,0.000
1606130018.731,-281.738,-44.922,-41.016,-651.367,0.000
1606130018.735,-36.621,-29.785,-17.090,-101.562,0.000
1606130018.739,221.191,-1.953,0.977,531.250,0.000
1606130018.742,167.480,21.484,-7.812,451.172,0.000
1606130018.746,-145.996,-19.043,-32.227,-269.043,0.000
1606130018.750,-304.199,-48.828,-40.039,-657.227,0.000
1606130018.754,-96.680,-36.133,-21.484,-206.055,0.000
1606130018.758,182.617,-18.555,-8.789,465.332,0.000
1606130018.762,176.270,-13.672,-12.695,499.023,0.000
1606130018.766,-123.047,-40.527,-33.691,-198.242,0.000
1606130018.770,-310.059,-52.734,-38.574,-680.176,0.000
1606130018.774,-135.254,-31.738,-10.742,-318.359,0.000
1606130018.778,166.504,-8.789,-6.348,400.879,0.000
1606130018.782,206.543,5.859,-20.996,543.457,0.000
1606130018.785,-68.848,-20.996,-34.668,-101.074,0.000
1606130018.789,-283.691,-50.293,-41.016,-647.461,0.000
1606130018.793,-158.691,-41.504,-25.391,-398.926,0.000
1606130018.797,145.508,-22.949,-1.953,337.402,0.000
1606130018.801,223.145,-5.371,-1.465,592.285,0.000
1606130018.805,-31.250,-25.879,-14.648,13.184,0.000
1606130018.809,-269.531,-49.316,-30.273,-597.168,0.000
1606130018.813,-195.312,-37.598,-41.504,-457.031,0.000
1606130018.817,112.793,-15.625,-18.066,279.785,0.000
1606130018.821,243.652,-1.953,1.465,621.094,0.000
1606130018.825,12.207,-7.812,-13.184,118.164,0.000
1606130018.828,-257.324,-28.809,-27.832,-539.551,0.000
1606130018.832,-234.375,-41.016,-20.508,-531.738,0.000
1606130018.836,62.012,-26.367,-7.812,171.875,0.000
1606130018.840,234.375,0.488,-4.883,601.562,0.000
1606130018.844,48.828,-6.348,-19.043,195.312,0.000
1606130018.848,-246.094,-46.875,-36.133,-497.559,0.000
1606130018.852,-265.625,-64.941,-39.551,-594.727,0.000
1606130018.856,33.691,-44.434,-22.949,79.102,0.000
1606130018.860,239.258,-11.230,-5.371,602.051,0.000
1606130018.864,97.168,-17.090,-9.277,305.176,0.000
1606130018.867,-202.148,-48.828,-33.203,-428.223,0.000
1606130018.871,-269.043,-51.758,-41.992,-630.859,0.000
1606130018.875,-5.859,-24.414,-30.273,-17.090,0.000
1606130018.879,222.656,-4.883,-17.090,548.340,0.000
1606130018.883,126.953,-1.953,-20.996,354.004,0.000
1606130018.887,-174.805,-37.598,-41.992,-378.906,0.000
1606130018.891,-285.645,-67.871,-49.805,-681.152,0.000
1606130018.895,-48.340,-45.410,-34.668,-131.348,0.000
1606130018.899,212.402,-13.672,-11.719,515.625,0.000
1606130018.903,161.133,-19.531,-17.578,437.500,0.000
1606130018.907,-128.418,-44.922,-30.762,-271.484,0.000
1606130018.910,-281.738,-46.387,-40.527,-672.852,0.000
1606130018.914,-93.262,-34.668,-36.621,-240.723,0.000
1606130018.918,188.477,-14.160,-17.578,448.730,0.000
1606130018.922,180.176,1.465,-22.949,488.770,0.000
1606130018.926,-120.117,-34.180,-29.297,-205.566,0.000
1606130018.930,-308.105,-67.383,-30.273,-677.734,0.000
1606130018.934,-147.461,-43.945,-23.926,-327.637,0.000
1606130018.938,151.855,-14.648,-9.766,390.137,0.000
1606130018.942,206.543,-8.789,-3.418,550.781,0.000
1606130018.946,-70.801,-20.508,-20.996,-91.797,0.000
1606130018.950,-295.898,-44.434,-43.945,-648.926,0.000
1606130018.953,-171.387,-38.574,-30.762,-405.762,0.000
1606130018.957,142.090,-9.277,-10.742,331.055,0.000
1606130018.961,220.215,-9.766,-20.508,573.242,0.000
1606130018.965,-38.574,-32.227,-37.598,-9.766,0.000
1606130018.969,-280.762,-44.434,-47.852,-607.910,0.000
1606130018.973,-208.008,-35.645,-39.062,-476.562,0.000
1606130018.977,102.539,-16.113,-10.742,248.047,0.000
1606130018.981,234.863,-6.348,-0.977,599.121,0.000
1606130018.985,15.625,-18.555,-22.461,113.281,0.000
1606130018.989,-258.301,-49.805,-39.551,-545.898,0.000
1606130018.992,-228.516,-47.363,-23.926,-535.645,0.000
1606130018.996,86.914,-16.113,-1.465,174.316,0.000
1606130019.000,255.371,-5.371,-8.789,609.863,0.000
1606130019.004,71.289,-19.531,-28.809,214.355,0.000
1606130019.008,-215.332,-39.551,-46.387,-478.027,0.000
1606130019.012,-239.258,-39.551,-44.922,-584.473,0.000
1606130019.016,46.875,-19.531,-23.926,83.984,0.000
1606130019.020,246.094,-7.812,-4.883,601.562,0.000
1606130019.024,105.957,-17.578,-6.348,315.430,0.000
1606130019.028,-193.359,-43.457,-31.250,-407.227,0.000
1606130019.032,-257.812,-44.434,-37.598,-624.023,0.000
1606130019.035,11.230,-22.461,-13.184,-8.789,0.000
1606130019.039,244.141,-0.977,6.348,581.543,0.000
1606130019.043,146.484,0.977,-4.883,393.555,0.000
1606130019.047,-169.922,-25.391,-28.320,-340.820,0.000
1606130019.051,-290.527,-42.480,-34.668,-650.879,0.000
1606130019.055,-62.012,-32.227,-19.043,-126.953,0.000
1606130019.059,198.242,-3.906,-3.418,517.090,0.000
1606130019.063,151.367,-1.953,-6.836,454.590,0.000
1606130019.067,-160.156,-46.387,-25.879,-275.879,0.000
1606130019.071,-309.082,-59.570,-36.621,-676.270,0.000
1606130019.075,-108.887,-34.668,-24.414,-230.957,0.000
1606130019.078,169.922,-2.441,-5.371,451.172,0.000
1606130019.082,184.082,12.207,2.441,508.789,0.000
1606130019.086,-117.188,-25.879,-19.531,-179.199,0.000
1606130019.090,-319.824,-54.199,-41.016,-672.363,0.000
1606130019.094,-153.320,-38.086,-20.996,-322.754,0.000
1606130019.098,148.926,-11.719,3.906,402.832,0.000
1606130019.102,185.547,-17.578,-8.301,552.246,0.000
1606130019.106,-92.773,-38.086,-24.902,-85.449,0.000
1606130019.110,-305.664,-43.457,-36.621,-630.371,0.000
1606130019.114,-194.336,-36.621,-36.621,-408.203,0.000
1606130019.117,115.234,-15.625,-22.949,321.777,0.000
1606130019.121,212.402,-8.789,-10.742,587.402,0.000
1606130019.125,-36.621,-23.926,-20.996,17.578,0.000
1606130019.129,-284.180,-44.434,-38.086,-597.168,0.000
1606130019.133,-214.844,-52.246,-30.762,-481.934,0.000
1606130019.137,99.121,-26.367,-10.254,244.629,0.000
1606130019.141,231.934,-11.230,-16.602,598.145,0.000
1606130019.145,15.625,-32.227,-34.668,125.488,0.000
1606130019.149,-265.137,-55.664,-39.551,-541.504,0.000
1606130019.153,-248.047,-49.805,-41.504,-545.898,0.000
1606130019.157,63.477,-21.484,-26.855,169.922,0.000
1606130019.160,229.492,-1.953,-12.207,604.980,0.000
1606130019.164,48.828,-17.578,-21.484,211.426,0.000
1606130019.168,-231.445,-54.199,-39.062,-484.863,0.000
1606130019.172,-256.348,-59.570,-41.504,-599.121,0.000
1606130019.176,30.762,-27.344,-15.625,63.965,0.000
1606130019.180,234.863,-14.160,-6.348,579.590,0.000
1606130019.184,102.539,-26.367,-28.320,296.387,0.000
1606130019.188,-194.336,-56.641,-53.711,-416.504,0.000
1606130019.192,-270.020,-65.918,-53.223,-631.348,0.000
1606130019.196,-2.930,-31.250,-46.387,-29.297,0.000
1606130019.200,234.375,-3.418,-33.203,560.059,0.000
1606130019.203,140.625,-13.672,-33.691,387.207,0.000
1606130019.207,-165.039,-46.387,-55.176,-341.309,0.000
1606130019.211,-279.297,-50.781,-48.340,-656.250,0.000
1606130019.215,-48.340,-28.809,-29.785,-129.883,0.000
1606130019.219,210.449,-16.113,-19.531,514.648,0.000
1606130019.223,169.922,-19.531,-11.230,458.984,0.000
1606130019.227,-131.348,-35.645,-22.949,-253.906,0.000
