timestamps,TP9,AF7,AF8,TP10,Right AUX,Marker0
1606142142.525,0.000,0.000,0.000,0.000,0.000,0
1606142142.528,0.000,0.000,0.000,0.000,0.000,0
1606142142.532,-14.648,-1.953,-2.441,-35.156,0.000,0
1606142142.536,36.133,3.418,4.395,80.078,0.000,0
1606142142.540,-158.203,-19.043,-19.043,-360.840,0.000,0
1606142142.544,-378.418,-52.734,-60.059,-1000.000,0.000,0
1606142142.548,-36.133,-31.250,-18.066,-137.695,0.000,0
1606142142.552,337.402,-2.441,36.133,-947.266,0.000,0
1606142142.556,264.648,-12.207,7.324,746.582,0.000,0
1606142142.560,-173.340,-34.180,-45.410,-411.621,0.000,0
1606142142.564,-405.762,-41.504,-40.039,-1000.000,0.000,0
1606142142.567,-118.164,-32.715,-9.277,-314.453,0.000,0
1606142142.571,275.391,-15.625,4.395,924.805,0.000,0
1606142142.575,271.973,-16.602,2.930,864.746,0.000,0
1606142142.579,-143.066,-41.504,-18.066,-275.879,0.000,0
1606142142.583,-399.902,-49.805,-30.762,-1000.000,0.000,0
1606142142.587,-166.016,-41.504,-31.250,-490.234,0.000,0
1606142142.591,251.953,-24.414,-11.230,775.391,0.000,0
1606142142.595,321.289,-16.113,2.441,977.051,0.000,0
1606142142.599,-75.684,-33.203,-18.066,-135.742,0.000,0
1606142142.603,-395.508,-45.410,-46.387,-1000.000,0.000,0
1606142142.607,-214.844,-31.738,-41.992,-636.230,0.000,0
1606142142.610,212.891,-7.324,-9.277,597.656,0.000,0
1606142142.614,323.730,-7.812,-2.441,-940.430,0.000,0
1606142142.618,-38.086,-33.691,-28.809,13.184,0.000,0
1606142142.622,-388.672,-45.410,-57.129,-1000.000,0.000,0
1606142142.626,-283.691,-33.691,-51.270,-756.836,0.000,0
1606142142.630,152.832,-18.066,-19.043,415.039,0.000,0
1606142142.634,353.027,-8.301,4.395,-891.602,0.000,0
1606142142.638,51.758,-18.555,-2.441,214.844,0.000,0
1606142142.642,-327.148,-47.852,-41.016,-1000.000,0.000,0
1606142142.646,-307.617,-62.988,-51.758,-868.652,0.000,0
1606142142.650,118.652,-37.598,-6.348,272.949,0.000,0
1606142142.653,376.465,-11.719,19.043,-882.324,0.000,0
1606142142.657,118.164,-21.973,-2.441,390.137,0.000,0
1606142142.661,-298.828,-43.457,-27.344,-866.699,0.000,0
1606142142.665,-346.680,-41.992,-46.387,-983.398,0.000,0
1606142142.669,62.988,-20.996,-40.527,131.836,0.000,0
1606142142.673,355.957,-3.906,-4.883,-895.508,0.000,0
1606142142.677,162.598,-18.066,-0.488,549.316,0.000,0
1606142142.681,-266.113,-41.016,-35.156,-699.707,0.000,0
1606142142.685,-373.047,-44.922,-49.316,-1000.000,0.000,0
1606142142.689,9.766,-30.273,-17.090,5.371,0.000,0
1606142142.692,351.074,-8.789,7.324,-926.758,0.000,0
1606142142.696,215.332,-13.184,-9.766,668.945,0.000,0
1606142142.700,-227.539,-49.316,-38.086,-526.855,0.000,0
1606142142.704,-398.926,-61.523,-46.387,-1000.000,0.000,0
1606142142.708,-70.312,-36.621,-27.344,-185.059,0.000,0
1606142142.712,308.594,-9.766,0.488,-990.723,0.000,0
1606142142.716,259.277,-17.090,-12.207,781.250,0.000,0
1606142142.720,-167.969,-46.875,-39.062,-373.535,0.000,0
1606142142.724,-401.855,-53.711,-41.016,-1000.000,0.000,0
1606142142.728,-132.812,-33.203,-27.344,-374.023,0.000,0
1606142142.732,282.227,-4.883,-5.371,886.230,0.000,0
1606142142.735,302.246,3.418,1.953,902.344,0.000,0
1606142142.739,-125.000,-36.621,-31.250,-237.305,0.000,0
1606142142.743,-391.602,-75.195,-59.570,-1000.000,0.000,0
1606142142.747,-185.547,-52.246,-38.574,-548.828,0.000,0
1606142142.751,223.633,-5.859,-0.977,711.426,0.000,0
1606142142.755,326.660,3.906,2.930,-994.141,0.000,0
1606142142.759,-65.430,-25.391,-34.180,-99.121,0.000,0
1606142142.763,-395.996,-50.781,-47.852,-1000.000,0.000,0
1606142142.767,-251.953,-46.387,-33.691,-685.059,0.000,0
1606142142.771,183.594,-25.879,-17.090,524.414,0.000,0
1606142142.775,343.262,-14.160,-4.395,-922.363,0.000,0
1606142142.778,-13.184,-40.039,-20.508,64.941,0.000,0
1606142142.782,-387.695,-61.035,-46.875,-1000.000,0.000,0
1606142142.786,-297.363,-41.016,-46.387,-791.992,0.000,0
1606142142.790,147.949,-9.766,-27.344,369.141,0.000,0
1606142142.794,357.910,-4.883,-10.254,-887.207,0.000,0
1606142142.798,62.988,-26.367,-27.832,247.559,0.000,0
1606142142.802,-339.355,-48.340,-42.480,-976.074,0.000,0
1606142142.806,-340.332,-50.781,-37.598,-904.297,0.000,0
1606142142.810,85.938,-16.113,-16.113,227.051,0.000,0
1606142142.814,355.957,7.324,1.465,-886.719,0.000,0
1606142142.817,118.652,-20.508,-18.555,449.707,0.000,0
1606142142.821,-321.289,-53.223,-56.641,-853.027,0.000,0
1606142142.825,-352.539,-50.293,-53.223,-919.434,0.000,0
1606142142.829,73.242,-26.855,-17.578,256.836,0.000,0
1606142142.833,344.238,-16.602,-7.324,-917.969,0.000,0
1606142142.837,186.035,-29.785,-18.066,588.867,0.000,0
1606142142.841,-252.441,-59.570,-34.668,-631.836,0.000,0
1606142142.845,-400.391,-58.594,-35.645,-1000.000,0.000,0
1606142142.849,-34.180,-33.691,-23.926,-71.289,0.000,0
1606142142.853,328.613,-6.348,-4.883,-945.312,0.000,0
1606142142.857,244.629,-10.742,-8.789,715.332,0.000,0
1606142142.860,-198.242,-48.340,-32.227,-459.473,0.000,0
1606142142.864,-415.039,-60.547,-47.852,-1000.000,0.000,0
1606142142.868,-94.727,-43.945,-29.297,-260.742,0.000,0
1606142142.872,307.129,-13.672,-2.441,971.191,0.000,0
1606142142.876,270.508,-4.395,-6.836,825.684,0.000,0
1606142142.880,-171.387,-37.109,-38.574,-323.242,0.000,0
1606142142.884,-421.875,-56.641,-57.617,-1000.000,0.000,0
1606142142.888,-161.133,-39.551,-33.691,-440.918,0.000,0
1606142142.892,258.789,-30.273,-6.836,832.520,0.000,0
1606142142.896,305.176,-34.668,-11.230,932.129,0.000,0
1606142142.900,-109.375,-53.711,-38.574,-205.078,0.000,0
1606142142.903,-415.527,-62.500,-50.293,-1000.000,0.000,0
1606142142.907,-214.844,-44.922,-28.809,-591.309,0.000,0
1606142142.911,232.910,-16.113,-1.953,653.809,0.000,0
1606142142.915,349.609,-1.953,2.930,-963.379,0.000,0
1606142142.919,-33.203,-18.066,-20.508,-42.480,0.000,0
1606142142.923,-379.395,-41.504,-49.316,-1000.000,0.000,0
1606142142.927,-256.348,-43.945,-43.457,-730.957,0.000,0
1606142142.931,179.199,-18.555,-18.066,456.543,0.000,0
1606142142.935,354.492,-5.859,-1.465,-898.926,0.000,0
1606142142.939,15.137,-25.391,-17.090,129.395,0.000,0
1606142142.942,-376.953,-62.500,-49.316,-1000.000,0.000,0
1606142142.946,-324.707,-63.477,-39.062,-809.570,0.000,0
1606142142.950,111.328,-23.438,-11.230,306.641,0.000,0
1606142142.954,351.074,-11.230,1.465,-881.836,0.000,0
1606142142.958,75.195,-33.203,-20.508,312.500,0.000,0
1606142142.962,-341.309,-56.152,-55.176,-933.594,0.000,0
1606142142.966,-361.328,-58.105,-53.711,-939.453,0.000,0
1606142142.970,66.406,-34.180,-28.809,187.988,0.000,0
1606142142.974,347.656,-16.113,1.465,-885.742,0.000,0
1606142142.978,130.371,-23.438,-8.301,489.746,0.000,0
1606142142.982,-298.340,-56.641,-48.340,-766.113,0.000,0
1606142142.985,-386.719,-52.246,-50.781,-1000.000,0.000,0
1606142142.989,20.020,-29.297,-20.996,32.227,0.000,0
1606142142.993,349.609,-18.555,-7.324,-916.504,0.000,0
1606142142.997,183.594,-22.461,-13.672,637.695,0.000,0
1606142143.001,-241.699,-38.086,-41.504,-575.684,0.000,0
1606142143.005,-400.879,-43.457,-57.129,-1000.000,0.000,0
1606142143.009,-54.688,-21.484,-31.250,-123.047,0.000,0
1606142143.013,329.590,-5.859,-5.859,-962.402,0.000,0
1606142143.017,253.418,-26.855,-15.137,745.117,0.000,0
1606142143.021,-202.148,-37.109,-41.992,-417.969,0.000,0
1606142143.025,-428.223,-34.180,-59.082,-1000.000,0.000,0
1606142143.028,-126.465,-28.809,-38.086,-334.961,0.000,0
1606142143.032,284.668,-11.230,-14.648,927.734,0.000,0
1606142143.036,280.273,-12.207,-21.484,854.980,0.000,0
1606142143.040,-156.738,-38.574,-43.945,-296.875,0.000,0
1606142143.044,-433.105,-50.293,-50.781,-1000.000,0.000,0
1606142143.048,-193.359,-40.039,-31.250,-500.000,0.000,0
1606142143.052,246.582,-14.160,-1.953,766.602,0.000,0
1606142143.056,317.871,-11.230,-0.977,980.957,0.000,0
1606142143.060,-87.891,-35.156,-33.203,-137.207,0.000,0
1606142143.064,-407.227,-52.246,-63.965,-1000.000,0.000,0
1606142143.067,-236.816,-44.922,-43.945,-638.184,0.000,0
1606142143.071,215.820,-24.414,-5.859,594.727,0.000,0
1606142143.075,368.652,-18.555,-20.020,-935.547,0.000,0
1606142143.079,-18.066,-41.504,-36.133,15.137,0.000,0
1606142143.083,-403.809,-55.176,-32.227,-1000.000,0.000,0
1606142143.087,-294.922,-38.086,-21.973,-761.230,0.000,0
1606142143.091,156.738,-16.113,-2.441,410.156,0.000,0
1606142143.095,360.352,-6.836,4.883,-889.160,0.000,0
1606142143.099,44.434,-25.391,-23.438,208.984,0.000,0
1606142143.103,-345.215,-47.852,-50.293,-1000.000,0.000,0
1606142143.107,-315.430,-53.711,-23.926,-867.676,0.000,0
1606142143.110,119.629,-28.809,10.254,275.391,0.000,0
1606142143.114,377.930,-3.418,10.742,-880.371,0.000,0
1606142143.118,117.188,-29.785,-18.066,380.859,0.000,0
1606142143.122,-318.848,-57.129,-42.480,-875.000,0.000,0
1606142143.126,-371.094,-54.199,-46.875,-985.840,0.000,0
1606142143.130,53.711,-26.367,-35.156,132.324,0.000,0
1606142143.134,367.188,-3.906,-10.254,-895.508,0.000,0
1606142143.138,185.547,-14.160,-4.395,552.734,0.000,0
1606142143.142,-246.094,-42.480,-11.719,-687.500,0.000,0
1606142143.146,-381.348,-57.129,-45.898,-1000.000,0.000,0
1606142143.150,-3.418,-27.344,-55.664,-20.996,0.000,0
1606142143.153,356.934,6.348,2.930,-927.734,0.000,0
1606142143.157,241.699,0.000,11.230,677.734,0.000,0
1606142143.161,-222.656,-34.668,-38.574,-517.090,0.000,0
1606142143.165,-420.898,-50.781,-62.012,-1000.000,0.000,0
1606142143.169,-67.871,-30.273,-32.227,-202.637,0.000,0
1606142143.173,324.707,-12.207,2.930,-995.605,0.000,0
1606142143.177,267.578,-18.555,-18.555,792.480,0.000,0
1606142143.181,-176.270,-35.645,-49.805,-361.816,0.000,0
1606142143.185,-429.199,-50.293,-53.711,-1000.000,0.000,0
1606142143.189,-153.809,-35.156,-46.387,-395.020,0.000,0
1606142143.192,270.020,-16.602,-17.578,875.000,0.000,0
1606142143.196,279.297,-22.461,3.418,902.832,0.000,0
1606142143.200,-148.438,-45.410,-15.137,-238.770,0.000,0
1606142143.204,-423.340,-57.617,-36.133,-1000.000,0.000,0
1606142143.208,-225.098,-42.480,-26.367,-563.965,0.000,0
1606142143.212,209.473,-19.043,-10.254,696.777,0.000,0
1606142143.216,322.754,-17.090,-3.906,-989.258,0.000,0
1606142143.220,-93.262,-41.992,-22.461,-98.633,0.000,0
1606142143.224,-431.641,-65.430,-45.410,-1000.000,0.000,0
1606142143.228,-268.066,-54.199,-34.668,-688.477,0.000,0
1606142143.232,173.340,-19.531,-15.137,515.137,0.000,0
1606142143.235,330.078,-8.301,-12.207,-916.016,0.000,0
1606142143.239,-15.625,-35.156,-28.809,78.125,0.000,0
1606142143.243,-399.902,-59.082,-63.477,-1000.000,0.000,0
1606142143.247,-315.918,-49.805,-57.129,-801.270,0.000,0
1606142143.251,126.465,-28.809,-9.766,354.492,0.000,0
1606142143.255,329.102,-20.508,13.184,-883.789,0.000,0
1606142143.259,32.715,-33.203,1.953,255.371,0.000,0
1606142143.263,-382.812,-53.223,-20.996,-975.098,0.000,0
1606142143.267,-373.047,-47.852,-17.578,-913.574,0.000,0
1606142143.271,75.684,-17.090,-24.414,216.309,0.000,0
1606142143.275,349.121,-15.625,-12.695,-883.301,0.000,0
1606142143.278,106.934,-39.062,2.930,442.871,0.000,0
1606142143.282,-317.383,-58.594,-28.809,-815.918,0.000,0
1606142143.286,-374.023,-62.012,-56.152,-1000.000,0.000,0
1606142143.290,39.551,-19.043,-39.551,90.820,0.000,0
1606142143.294,352.539,14.648,2.441,-901.367,0.000,0
1606142143.298,165.039,5.371,-8.789,587.891,0.000,0
1606142143.302,-285.645,-22.461,-61.523,-637.695,0.000,0
1606142143.306,-428.711,-37.598,-62.988,-1000.000,0.000,0
1606142143.310,-68.359,-25.391,-32.715,-116.211,0.000,0
1606142143.314,291.992,8.789,-14.648,-944.336,0.000,0
1606142143.317,189.941,10.742,-18.066,681.641,0.000,0
1606142143.321,-260.254,-20.020,-62.500,-505.371,0.000,0
1606142143.325,-493.164,-33.203,-103.516,-1000.000,0.000,0
1606142143.329,-177.734,-26.367,-69.336,-339.844,0.000,0
1606142143.333,232.910,2.930,-20.020,943.359,0.000,0
1606142143.337,193.848,14.648,-33.203,787.598,0.000,0
1606142143.341,-243.652,-2.441,-66.895,-396.484,0.000,0
1606142143.345,-483.398,-23.438,-73.242,-1000.000,0.000,0
1606142143.349,-225.586,-9.766,-62.500,-518.555,0.000,0
1606142143.353,206.055,22.949,-51.270,770.996,0.000,0
1606142143.357,270.020,18.066,-54.199,931.152,0.000,0
1606142143.360,-145.996,6.836,-78.613,-231.934,0.000,0
1606142143.364,-456.543,-21.484,-90.332,-1000.000,0.000,0
1606142143.368,-253.906,-15.625,-76.660,-635.742,0.000,0
1606142143.372,195.801,0.977,-56.641,606.445,0.000,0
1606142143.376,327.637,-12.207,-86.426,-958.008,0.000,0
1606142143.380,-41.016,-17.090,-84.473,-43.457,0.000,0
1606142143.384,-386.719,-36.133,-33.691,-1000.000,0.000,0
1606142143.388,-269.043,-30.762,-29.297,-726.562,0.000,0
1606142143.392,178.711,-0.488,-20.508,460.449,0.000,0
1606142143.396,367.676,-0.488,-22.461,-900.879,0.000,0
1606142143.400,46.387,-7.324,-41.504,149.414,0.000,0
1606142143.403,-330.078,-24.902,-59.570,-1000.000,0.000,0
1606142143.407,-291.992,-41.992,-62.500,-835.449,0.000,0
1606142143.411,145.020,-22.949,-40.527,310.547,0.000,0
1606142143.415,390.137,-14.160,-13.672,-883.301,0.000,0
1606142143.419,121.582,-32.227,-31.738,366.699,0.000,0
1606142143.423,-294.922,-52.734,-59.570,-897.461,0.000,0
1606142143.427,-322.266,-51.758,-62.500,-941.895,0.000,0
1606142143.431,102.051,-24.902,-47.363,199.707,0.000,0
1606142143.435,396.484,-14.160,-21.484,-891.113,0.000,0
1606142143.439,190.918,-3.418,-25.391,527.832,0.000,0
1606142143.442,-252.930,-11.719,-52.246,-726.562,0.000,0
1606142143.446,-365.723,-59.570,-60.547,-1000.000,0.000,0
1606142143.450,31.738,-46.875,-21.973,35.156,0.000,0
1606142143.454,386.719,-9.766,-4.883,-919.922,0.000,0
1606142143.458,241.699,-13.184,-21.973,661.621,0.000,0
1606142143.462,-209.473,-48.828,-38.086,-544.922,0.000,0
1606142143.466,-376.465,-62.988,-45.410,-1000.000,0.000,0
1606142143.470,-25.391,-32.227,-20.020,-120.605,0.000,0
1606142143.474,344.727,0.000,-18.066,-970.215,0.000,0
1606142143.478,266.113,-5.859,-41.016,767.090,0.000,0
1606142143.482,-170.898,-28.320,-33.203,-384.766,0.000,0
1606142143.485,-392.090,-43.945,-40.039,-1000.000,0.000,0
1606142143.489,-105.469,-35.645,-33.691,-328.613,0.000,0
1606142143.493,302.734,-19.043,-6.836,921.387,0.000,0
1606142143.497,305.176,-21.973,-11.719,873.535,0.000,0
1606142143.501,-119.141,-20.020,-36.621,-266.113,0.000,0
1606142143.505,-390.625,-36.621,-52.734,-1000.000,0.000,0
1606142143.509,-161.133,-47.363,-37.109,-499.512,0.000,0
1606142143.513,271.973,-14.648,-5.859,762.207,0.000,0
1606142143.517,342.285,-7.324,-3.418,988.281,0.000,0
1606142143.521,-65.430,-31.738,-28.320,-119.629,0.000,0
1606142143.525,-405.273,-55.664,-41.504,-1000.000,0.000,0
1606142143.528,-243.652,-41.504,-30.273,-634.766,0.000,0
1606142143.532,205.566,-13.184,-8.301,593.750,0.000,0
1606142143.536,343.750,-6.348,-4.395,-932.617,0.000,0
1606142143.540,-24.902,-17.578,-28.320,35.156,0.000,0
1606142143.544,-393.066,-41.016,-49.805,-1000.000,0.000,0
1606142143.548,-292.480,-48.340,-34.668,-768.066,0.000,0
1606142143.552,155.273,-25.391,-20.508,401.367,0.000,0
1606142143.556,359.375,-15.137,-21.484,-893.066,0.000,0
1606142143.560,64.453,-39.062,-34.668,212.402,0.000,0
1606142143.564,-319.336,-57.129,-49.316,-994.141,0.000,0
1606142143.567,-317.871,-48.340,-38.574,-890.625,0.000,0
1606142143.571,104.980,-20.508,-19.531,241.211,0.000,0
1606142143.575,367.676,-2.930,-13.672,-880.371,0.000,0
1606142143.579,116.699,-11.230,-20.020,413.086,0.000,0
1606142143.583,-306.152,-43.457,-49.805,-848.145,0.000,0
1606142143.587,-373.535,-51.758,-53.223,-1000.000,0.000,0
1606142143.591,52.734,-27.832,-25.391,110.840,0.000,0
1606142143.595,369.141,-12.207,-13.672,-897.949,0.000,0
1606142143.599,151.855,-28.320,-26.367,561.523,0.000,0
1606142143.603,-278.320,-47.852,-53.223,-679.688,0.000,0
1606142143.607,-391.602,-44.922,-62.012,-1000.000,0.000,0
1606142143.610,-14.160,-30.762,-32.227,-25.391,0.000,0
1606142143.614,339.844,-11.230,-2.441,-933.594,0.000,0
1606142143.618,227.539,-10.254,-16.602,689.453,0.000,0
1606142143.622,-204.590,-37.598,-48.828,-496.094,0.000,0
1606142143.626,-382.324,-46.875,-39.551,-1000.000,0.000,0
1606142143.630,-66.895,-37.598,-14.160,-213.867,0.000,0
1606142143.634,305.176,-23.926,-12.207,992.188,0.000,0
1606142143.638,254.395,-13.184,-7.812,798.828,0.000,0
1606142143.642,-171.875,-20.020,-21.484,-353.516,0.000,0
1606142143.646,-412.109,-37.109,-49.805,-1000.000,0.000,0
1606142143.650,-149.414,-39.551,-32.227,-406.250,0.000,0
1606142143.653,278.809,-13.184,11.719,862.793,0.000,0
1606142143.657,306.152,0.000,9.766,907.715,0.000,0
1606142143.661,-130.371,-28.320,-31.738,-234.863,0.000,0
1606142143.665,-429.688,-51.758,-60.059,-1000.000,0.000,0
1606142143.669,-211.914,-35.156,-37.109,-560.547,0.000,0
1606142143.673,229.492,-11.719,-17.578,698.730,0.000,0
1606142143.677,320.801,-8.301,-8.301,-989.746,0.000,0
1606142143.681,-68.848,-18.066,-9.277,-88.867,0.000,0
1606142143.685,-409.668,-31.250,-41.504,-1000.000,0.000,0
1606142143.689,-258.789,-39.062,-41.504,-697.754,0.000,0
1606142143.692,178.711,-19.531,-4.883,505.371,0.000,0
1606142143.696,329.102,-3.418,8.301,-919.434,0.000,0
1606142143.700,-16.602,-22.461,-22.461,79.102,0.000,0
1606142143.704,-390.137,-41.016,-47.363,-1000.000,0.000,0
1606142143.708,-323.730,-35.645,-38.574,-811.035,0.000,0
1606142143.712,109.375,-21.973,-16.113,335.938,0.000,0
1606142143.716,339.355,-11.230,-2.930,-880.371,0.000,0
1606142143.720,59.082,-17.578,-11.230,285.645,0.000,0
1606142143.724,-349.121,-37.109,-47.363,-955.566,0.000,0
1606142143.728,-358.887,-43.945,-55.176,-930.664,0.000,0
1606142143.732,53.711,-30.762,-20.020,193.848,0.000,0
1606142143.735,340.332,-20.020,-2.441,-882.812,0.000,0
1606142143.739,122.070,-31.250,-14.160,459.961,0.000,0
1606142143.743,-310.059,-52.734,-44.434,-798.340,0.000,0
1606142143.747,-386.230,-53.223,-51.758,-1000.000,0.000,0
1606142143.751,17.090,-24.902,-25.879,60.059,0.000,0
1606142143.755,345.215,-5.859,0.977,-905.762,0.000,0
1606142143.759,199.707,-12.695,-10.742,597.656,0.000,0
1606142143.763,-247.559,-38.086,-48.340,-631.836,0.000,0
1606142143.767,-400.391,-53.711,-48.828,-1000.000,0.000,0
1606142143.771,-33.691,-32.715,-17.090,-82.031,0.000,0
1606142143.775,308.594,-19.531,-3.418,-951.172,0.000,0
1606142143.778,201.172,-13.672,-14.648,721.680,0.000,0
1606142143.782,-219.727,0.977,-37.598,-449.219,0.000,0
1606142143.786,-420.898,-37.109,-60.059,-1000.000,0.000,0
1606142143.790,-113.770,-49.316,-37.109,-287.109,0.000,0
1606142143.794,285.156,-22.461,3.418,951.660,0.000,0
1606142143.798,262.695,-23.926,-1.465,846.680,0.000,0
1606142143.802,-157.227,-45.410,-30.273,-297.363,0.000,0
1606142143.806,-397.461,-58.594,-41.016,-1000.000,0.000,0
1606142143.810,-155.762,-45.898,-34.668,-469.238,0.000,0
1606142143.814,244.141,-22.949,-29.297,803.223,0.000,0
1606142143.817,301.758,-11.719,-18.555,949.219,0.000,0
1606142143.821,-99.121,-27.344,-39.551,-182.617,0.000,0
1606142143.825,-402.832,-53.711,-57.617,-1000.000,0.000,0
1606142143.829,-221.680,-44.434,-35.156,-619.629,0.000,0
1606142143.833,211.426,-17.090,-4.395,622.559,0.000,0
1606142143.837,327.637,-11.230,0.977,-958.496,0.000,0
1606142143.841,-53.223,-35.156,-28.320,-35.156,0.000,0
1606142143.845,-401.367,-59.082,-47.363,-1000.000,0.000,0
1606142143.849,-271.973,-43.457,-34.668,-735.352,0.000,0
1606142143.853,180.664,-11.230,-12.695,448.730,0.000,0
1606142143.857,360.840,-1.465,-11.719,-899.902,0.000,0
1606142143.860,36.621,-14.160,-38.086,166.992,0.000,0
1606142143.864,-348.145,-42.969,-63.477,-1000.000,0.000,0
1606142143.868,-315.918,-56.152,-54.688,-857.422,0.000,0
1606142143.872,123.535,-27.344,-16.113,287.109,0.000,0
1606142143.876,342.285,-10.742,-3.418,-883.301,0.000,0
1606142143.880,66.895,-29.785,-34.668,334.473,0.000,0
1606142143.884,-329.590,-64.941,-67.383,-907.715,0.000,0
1606142143.888,-363.770,-68.848,-45.410,-961.914,0.000,0
1606142143.892,59.082,-20.020,-5.371,159.180,0.000,0
1606142143.896,355.957,-1.465,-6.836,-890.137,0.000,0
1606142143.900,138.672,-28.320,-21.484,512.695,0.000,0
1606142143.903,-263.672,-48.828,-29.785,-731.445,0.000,0
1606142143.907,-349.121,-51.758,-37.109,-1000.000,0.000,0
1606142143.911,-11.719,-43.945,-28.809,1.953,0.000,0
1606142143.915,315.918,-21.484,-10.742,-920.898,0.000,0
1606142143.919,196.289,-20.996,-16.602,643.555,0.000,0
1606142143.923,-250.488,-45.410,-49.805,-563.965,0.000,0
1606142143.927,-392.578,-51.270,-67.383,-1000.000,0.000,0
1606142143.931,-53.223,-33.691,-39.551,-162.109,0.000,0
1606142143.935,297.363,-22.461,-6.348,-979.004,0.000,0
1606142143.939,231.445,-27.832,-14.648,766.113,0.000,0
1606142143.942,-198.730,-43.945,-40.527,-393.066,0.000,0
1606142143.946,-404.785,-50.293,-31.250,-1000.000,0.000,0
1606142143.950,-122.559,-40.527,-12.695,-337.891,0.000,0
1606142143.954,267.578,-16.602,-18.555,911.133,0.000,0
1606142143.958,276.855,-10.742,-23.438,880.859,0.000,0
1606142143.962,-140.137,-35.645,-24.902,-259.277,0.000,0
1606142143.966,-406.738,-60.059,-45.410,-1000.000,0.000,0
1606142143.970,-176.758,-46.875,-50.781,-520.508,0.000,0
1606142143.974,249.512,-10.742,-16.113,748.047,0.000,0
1606142143.978,312.988,-10.254,-3.906,979.492,0.000,0
1606142143.982,-81.055,-32.227,-39.551,-140.625,0.000,0
1606142143.985,-378.906,-51.270,-61.523,-1000.000,0.000,0
1606142143.989,-228.516,-48.340,-45.410,-666.504,0.000,0
1606142143.993,187.012,-24.902,-17.578,543.457,0.000,0
1606142143.997,339.844,-13.184,0.000,-928.223,0.000,0
1606142144.001,-6.348,-35.156,-15.137,42.969,0.000,0
1606142144.005,-373.535,-51.270,-43.945,-1000.000,0.000,0
1606142144.009,-282.227,-47.852,-35.645,-779.297,0.000,0
1606142144.013,146.973,-37.109,-19.043,383.301,0.000,0
1606142144.017,352.051,-4.395,-17.090,-891.602,0.000,0
1606142144.021,53.223,-12.695,-21.484,228.027,0.000,0
1606142144.025,-331.543,-46.387,-42.480,-988.281,0.000,0
1606142144.028,-305.664,-40.527,-53.223,-887.695,0.000,0
1606142144.032,93.750,-19.043,-22.949,246.582,0.000,0
1606142144.036,335.449,-17.090,-1.465,-882.812,0.000,0
1606142144.040,104.492,-38.086,-26.367,413.086,0.000,0
1606142144.044,-311.523,-55.664,-44.434,-846.680,0.000,0
1606142144.048,-360.840,-45.410,-35.156,-993.652,0.000,0
1606142144.052,60.547,-21.973,-8.789,125.000,0.000,0
1606142144.056,362.305,-10.742,7.812,-895.996,0.000,0
1606142144.060,155.762,-37.109,-14.648,552.246,0.000,0
1606142144.064,-279.785,-65.430,-52.734,-683.594,0.000,0
1606142144.067,-372.070,-45.898,-53.223,-1000.000,0.000,0
1606142144.071,13.184,-16.602,-15.625,-42.969,0.000,0
1606142144.075,343.750,0.977,0.488,-938.965,0.000,0
1606142144.079,212.891,-8.789,-16.602,702.148,0.000,0
1606142144.083,-235.352,-49.316,-51.270,-480.957,0.000,0
1606142144.087,-431.641,-67.871,-49.316,-1000.000,0.000,0
1606142144.091,-88.379,-38.086,-11.230,-217.773,0.000,0
1606142144.095,307.617,-11.230,4.883,998.535,0.000,0
1606142144.099,249.023,-22.461,-7.324,786.621,0.000,0
1606142144.103,-183.594,-49.316,-38.086,-368.652,0.000,0
1606142144.107,-394.043,-53.223,-47.363,-1000.000,0.000,0
1606142144.110,-139.648,-37.598,-20.508,-419.434,0.000,0
1606142144.114,238.281,-20.996,-5.371,843.750,0.000,0
1606142144.118,278.320,-18.555,-16.113,917.969,0.000,0
1606142144.122,-124.023,-47.852,-41.504,-222.168,0.000,0
1606142144.126,-414.551,-66.895,-42.480,-1000.000,0.000,0
1606142144.130,-217.285,-45.898,-33.691,-583.984,0.000,0
1606142144.134,220.215,-12.695,-5.859,669.922,0.000,0
1606142144.138,359.375,-5.371,1.953,-980.469,0.000,0
1606142144.142,-40.527,-34.180,-38.086,-71.777,0.000,0
1606142144.146,-404.297,-53.711,-53.711,-1000.000,0.000,0
1606142144.150,-264.648,-41.016,-48.828,-709.961,0.000,0
1606142144.153,181.641,-12.695,-11.719,485.352,0.000,0
1606142144.157,358.398,-2.930,4.395,-914.551,0.000,0
1606142144.161,2.441,-40.527,-28.809,103.027,0.000,0
1606142144.165,-369.141,-65.918,-56.152,-1000.000,0.000,0
1606142144.169,-285.645,-61.035,-37.109,-819.336,0.000,0
1606142144.173,141.602,-29.785,10.254,373.535,0.000,0
1606142144.177,325.684,-9.766,9.766,-966.309,0.000,0
1606142144.181,51.270,-24.414,-23.438,130.371,0.000,0
1606142144.185,-313.965,-42.969,-48.340,-945.801,0.000,0
1606142144.189,-312.012,-44.922,-54.199,-930.176,0.000,0
1606142144.192,113.770,-17.090,-32.715,187.500,0.000,0
1606142144.196,371.094,-5.371,-9.766,-881.348,0.000,0
1606142144.200,94.727,-25.391,-22.461,453.125,0.000,0
1606142144.204,-333.496,-47.852,-39.062,-800.781,0.000,0
1606142144.208,-397.461,-55.664,-52.246,-1000.000,0.000,0
1606142144.212,10.742,-30.762,-28.809,53.711,0.000,0
1606142144.216,352.539,-11.719,-1.953,-914.062,0.000,0
1606142144.220,190.918,-21.973,-9.766,622.070,0.000,0
1606142144.224,-260.254,-44.434,-45.898,-591.309,0.000,0
1606142144.228,-404.297,-55.176,-52.734,-1000.000,0.000,0
1606142144.232,-35.645,-27.832,-26.367,-119.141,0.000,0
1606142144.235,327.637,7.324,-10.742,-955.078,0.000,0
1606142144.239,220.215,-5.859,-18.066,718.750,0.000,0
1606142144.243,-201.172,-41.016,-53.711,-450.684,0.000,0
1606142144.247,-389.160,-54.199,-38.574,-1000.000,0.000,0
1606142144.251,-121.582,-40.527,-17.578,-317.383,0.000,0
1606142144.255,269.043,-24.902,-7.324,932.129,0.000,0
1606142144.259,275.391,-24.902,-8.301,855.469,0.000,0
1606142144.263,-142.578,-40.039,-36.133,-293.457,0.000,0
1606142144.267,-413.086,-58.105,-54.199,-1000.000,0.000,0
1606142144.271,-163.574,-43.945,-38.086,-479.492,0.000,0
1606142144.275,232.910,-26.855,-18.555,779.297,0.000,0
1606142144.278,301.270,-11.230,-24.902,966.797,0.000,0
1606142144.282,-47.852,-8.301,-39.062,-153.320,0.000,0
1606142144.286,-370.117,-42.480,-61.523,-1000.000,0.000,0
1606142144.290,-219.727,-42.969,-41.504,-632.812,0.000,0
1606142144.294,204.590,-11.230,7.812,599.121,0.000,0
1606142144.298,328.125,-5.371,5.371,-948.242,0.000,0
1606142144.302,-44.434,-46.387,-32.227,-3.906,0.000,0
1606142144.306,-392.578,-72.266,-52.734,-1000.000,0.000,0
1606142144.310,-282.715,-40.039,-43.945,-754.883,0.000,0
1606142144.314,132.324,-14.648,-24.414,420.410,0.000,0
1606142144.317,323.242,-3.906,-20.508,-897.461,0.000,0
1606142144.321,30.762,-24.414,-31.738,184.082,0.000,0
1606142144.325,-345.215,-44.434,-44.434,-1000.000,0.000,0
1606142144.329,-319.824,-37.109,-42.969,-858.398,0.000,0
1606142144.333,119.629,-22.949,-21.973,283.203,0.000,0
1606142144.337,363.281,-15.625,-15.137,-886.230,0.000,0
1606142144.341,92.285,-30.273,-33.691,373.535,0.000,0
1606142144.345,-290.039,-45.898,-53.223,-878.906,0.000,0
1606142144.349,-350.098,-54.688,-49.316,-965.332,0.000,0
1606142144.353,50.781,-27.344,-34.668,161.133,0.000,0
1606142144.357,372.559,5.859,-19.043,-891.602,0.000,0
1606142144.360,147.949,-10.254,-22.461,514.648,0.000,0
1606142144.364,-276.367,-39.062,-65.918,-726.074,0.000,0
1606142144.368,-375.488,-46.387,-123.535,-1000.000,0.000,0
1606142144.372,-30.762,-29.297,-67.871,-19.043,0.000,0
1606142144.376,304.199,-18.066,20.508,-924.316,0.000,0
1606142144.380,201.660,-23.438,-2.441,651.367,0.000,0
1606142144.384,-241.211,-44.922,-27.832,-549.316,0.000,0
1606142144.388,-414.551,-50.781,-27.832,-1000.000,0.000,0
1606142144.392,-83.496,-27.832,-17.578,-196.289,0.000,0
1606142144.396,279.785,-6.836,-4.395,-991.211,0.000,0
1606142144.400,230.469,-14.648,-4.883,762.207,0.000,0
1606142144.403,-192.383,-46.387,-29.785,-403.809,0.000,0
1606142144.407,-427.246,-51.270,-61.035,-1000.000,0.000,0
1606142144.411,-174.805,-48.828,-57.617,-399.902,0.000,0
1606142144.415,218.262,-37.598,-1.953,868.164,0.000,0
1606142144.419,251.953,-18.555,18.066,896.484,0.000,0
1606142144.423,-149.902,-33.203,-14.160,-250.977,0.000,0
1606142144.427,-425.781,-50.293,-36.621,-1000.000,0.000,0
1606142144.431,-213.379,-45.410,-25.879,-545.410,0.000,0
1606142144.435,202.148,-36.133,-2.441,713.867,0.000,0
1606142144.439,288.086,-18.555,-6.348,991.699,0.000,0
1606142144.442,-105.469,-19.043,-35.156,-121.094,0.000,0
1606142144.446,-432.617,-46.875,-56.152,-1000.000,0.000,0
1606142144.450,-249.512,-49.805,-54.199,-680.664,0.000,0
1606142144.454,160.645,-25.391,-30.762,528.320,0.000,0
1606142144.458,278.320,-11.719,-19.531,-925.293,0.000,0
1606142144.462,-29.297,-25.879,-24.414,61.523,0.000,0
1606142144.466,-376.465,-44.922,-45.410,-1000.000,0.000,0
1606142144.470,-294.434,-42.969,-49.316,-799.316,0.000,0
1606142144.474,125.488,-25.391,-20.020,358.398,0.000,0
1606142144.478,319.336,-6.348,-14.160,-894.043,0.000,0
1606142144.482,28.320,-13.672,-28.320,220.215,0.000,0
1606142144.485,-361.328,-35.645,-45.898,-982.910,0.000,0
1606142144.489,-336.914,-36.133,-55.664,-905.762,0.000,0
1606142144.493,69.336,-16.602,-34.668,218.262,0.000,0
1606142144.497,310.547,-8.301,-19.043,-884.277,0.000,0
1606142144.501,83.984,-15.625,-23.926,423.340,0.000,0
1606142144.505,-319.824,-36.621,-41.992,-827.148,0.000,0
1606142144.509,-378.418,-43.457,-52.246,-1000.000,0.000,0
1606142144.513,6.836,-24.414,-33.691,84.473,0.000,0
1606142144.517,293.945,-5.859,-9.277,-899.902,0.000,0
1606142144.521,102.051,-25.879,-21.973,555.176,0.000,0
1606142144.525,-319.336,-56.152,-45.898,-671.875,0.000,0
1606142144.528,-437.988,-52.734,-40.527,-1000.000,0.000,0
1606142144.532,-76.660,-31.738,-20.508,-98.633,0.000,0
1606142144.536,252.441,-13.184,1.953,-946.289,0.000,0
1606142144.540,128.418,-22.949,-3.418,678.223,0.000,0
1606142144.544,-280.762,-45.410,-34.668,-512.207,0.000,0
1606142144.548,-472.168,-52.734,-46.387,-1000.000,0.000,0
1606142144.552,-183.594,-38.086,-31.250,-313.477,0.000,0
1606142144.556,190.918,-10.742,-15.137,947.266,0.000,0
1606142144.560,165.039,-11.719,-20.996,791.016,0.000,0
1606142144.564,-234.863,-35.645,-45.898,-382.812,0.000,0
1606142144.567,-468.750,-48.340,-59.082,-1000.000,0.000,0
1606142144.571,-212.891,-33.203,-47.363,-470.703,0.000,0
1606142144.575,202.637,-5.371,-29.297,804.199,0.000,0
1606142144.579,247.070,-3.418,-25.879,926.270,0.000,0
1606142144.583,-136.719,-33.691,-43.457,-218.262,0.000,0
1606142144.587,-413.574,-45.410,-64.453,-1000.000,0.000,0
1606142144.591,-200.195,-41.504,-61.035,-599.121,0.000,0
1606142144.595,217.285,-15.625,-35.156,650.391,0.000,0
1606142144.599,295.410,0.977,-39.551,-976.562,0.000,0
1606142144.603,-61.523,-31.738,-68.848,-67.383,0.000,0
1606142144.607,-375.488,-50.293,-70.801,-1000.000,0.000,0
1606142144.610,-238.281,-27.832,-56.152,-702.637,0.000,0
1606142144.614,188.477,1.465,-35.156,489.258,0.000,0
1606142144.618,351.562,0.000,-34.668,-908.203,0.000,0
1606142144.622,34.180,-40.527,-57.129,140.625,0.000,0
1606142144.626,-321.289,-52.734,-66.895,-1000.000,0.000,0
1606142144.630,-254.395,-34.668,-56.152,-812.012,0.000,0
1606142144.634,164.551,-12.695,-31.250,344.238,0.000,0
1606142144.638,371.094,-6.348,-23.926,-886.719,0.000,0
1606142144.642,101.562,-24.902,-38.086,342.285,0.000,0
1606142144.646,-275.879,-44.922,-45.410,-912.109,0.000,0
1606142144.650,-293.457,-51.758,-59.570,-926.758,0.000,0
1606142144.653,104.492,-17.578,-40.527,215.332,0.000,0
1606142144.657,374.512,7.324,-14.648,-890.625,0.000,0
1606142144.661,155.762,-22.461,-28.320,503.418,0.000,0
1606142144.665,-255.371,-55.176,-47.852,-750.488,0.000,0
1606142144.669,-328.613,-53.223,-50.781,-1000.000,0.000,0
1606142144.673,48.828,-21.973,-30.762,58.594,0.000,0
1606142144.677,354.492,-5.371,-10.742,-915.039,0.000,0
1606142144.681,203.125,-18.066,-19.043,629.395,0.000,0
1606142144.685,-221.191,-44.922,-47.363,-583.008,0.000,0
1606142144.689,-362.305,-43.945,-48.340,-1000.000,0.000,0
1606142144.692,-18.066,-20.020,-26.855,-109.863,0.000,0
1606142144.696,333.984,-3.418,-18.066,-964.355,0.000,0
1606142144.700,244.629,-13.672,-23.926,752.441,0.000,0
1606142144.704,-178.223,-40.039,-40.039,-407.715,0.000,0
1606142144.708,-374.512,-47.852,-55.664,-1000.000,0.000,0
1606142144.712,-83.008,-30.273,-42.480,-305.176,0.000,0
1606142144.716,296.875,-8.301,-20.996,936.523,0.000,0
1606142144.720,273.438,-21.484,-43.945,856.934,0.000,0
1606142144.724,-129.395,-43.945,-64.453,-284.668,0.000,0
1606142144.728,-368.652,-51.270,-57.129,-1000.000,0.000,0
1606142144.732,-166.016,-49.805,-38.574,-486.816,0.000,0
1606142144.735,225.098,-26.855,-13.184,774.902,0.000,0
1606142144.739,297.363,-13.672,-14.648,971.191,0.000,0
1606142144.743,-85.449,-32.715,-35.645,-145.996,0.000,0
1606142144.747,-385.254,-41.992,-54.199,-1000.000,0.000,0
1606142144.751,-212.891,-33.203,-49.805,-628.906,0.000,0
1606142144.755,200.684,-15.137,-14.160,601.074,0.000,0
1606142144.759,324.707,-16.113,3.418,-945.801,0.000,0
1606142144.763,-18.555,-30.762,-24.902,8.789,0.000,0
1606142144.767,-356.934,-35.645,-53.711,-1000.000,0.000,0
1606142144.771,-258.789,-34.180,-36.133,-751.465,0.000,0
1606142144.775,155.273,-20.020,-7.324,426.270,0.000,0
1606142144.778,334.961,-10.742,-9.277,-898.926,0.000,0
1606142144.782,31.738,-27.832,-30.273,181.152,0.000,0
1606142144.786,-343.750,-45.898,-60.059,-1000.000,0.000,0
1606142144.790,-309.570,-41.992,-54.688,-865.234,0.000,0
1606142144.794,99.609,-18.555,-20.508,274.902,0.000,0
1606142144.798,337.891,-2.441,-18.066,-884.766,0.000,0
1606142144.802,86.426,-27.344,-45.410,368.164,0.000,0
1606142144.806,-316.406,-49.805,-53.711,-878.418,0.000,0
1606142144.810,-341.797,-43.945,-54.199,-979.004,0.000,0
1606142144.814,58.105,-21.484,-32.227,136.719,0.000,0
1606142144.817,339.844,-7.812,-1.465,-895.508,0.000,0
1606142144.821,153.809,-16.113,-16.113,547.363,0.000,0
1606142144.825,-262.207,-45.410,-42.969,-695.801,0.000,0
1606142144.829,-376.465,-58.105,-43.457,-1000.000,0.000,0
1606142144.833,-25.391,-44.434,-19.043,-10.742,0.000,0
1606142144.837,294.434,-32.715,3.906,-931.641,0.000,0
1606142144.841,173.828,-22.949,0.000,676.758,0.000,0
1606142144.845,-247.559,-43.945,-21.484,-516.113,0.000,0
1606142144.849,-398.926,-57.617,-27.344,-1000.000,0.000,0
1606142144.853,-75.684,-33.691,-12.207,-197.266,0.000,0
1606142144.857,275.391,-22.461,0.488,-1000.000,0.000,0
1606142144.860,217.285,-5.859,2.441,776.367,0.000,0
1606142144.864,-196.777,-28.809,-23.438,-383.789,0.000,0
1606142144.868,-407.715,-66.895,-41.504,-1000.000,0.000,0
1606142144.872,-130.859,-47.363,-21.973,-376.465,0.000,0
1606142144.876,246.582,-23.926,-7.812,881.348,0.000,0
1606142144.880,265.137,-28.320,-13.672,896.484,0.000,0
1606142144.884,-125.000,-52.246,-24.902,-242.188,0.000,0
1606142144.888,-395.020,-58.594,-34.668,-1000.000,0.000,0
1606142144.892,-177.734,-37.109,-23.438,-539.062,0.000,0
1606142144.896,221.680,-20.508,-9.766,715.332,0.000,0
1606142144.900,287.109,-20.508,-15.625,997.559,0.000,0
1606142144.903,-85.938,-24.414,-30.762,-105.469,0.000,0
1606142144.907,-375.488,-48.828,-38.086,-1000.000,0.000,0
1606142144.911,-217.285,-52.734,-29.297,-669.434,0.000,0
1606142144.915,185.059,-25.879,-16.602,537.109,0.000,0
1606142144.919,315.430,-25.391,-14.648,-923.828,0.000,0
1606142144.923,-10.254,-47.363,-27.344,80.078,0.000,0
1606142144.927,-351.074,-55.664,-45.410,-1000.000,0.000,0
1606142144.931,-270.996,-49.805,-33.203,-786.621,0.000,0
1606142144.935,142.090,-25.879,-9.277,376.465,0.000,0
1606142144.939,335.449,-12.695,-7.324,-891.113,0.000,0
1606142144.942,48.340,-29.297,-23.438,278.809,0.000,0
1606142144.946,-310.547,-52.734,-42.480,-957.031,0.000,0
1606142144.950,-292.969,-52.734,-31.250,-887.207,0.000,0
1606142144.954,83.008,-24.902,-7.812,257.812,0.000,0
1606142144.958,328.613,-11.719,0.977,-887.207,0.000,0
1606142144.962,107.422,-27.832,-7.812,464.844,0.000,0
1606142144.966,-296.875,-49.805,-38.574,-799.316,0.000,0
1606142144.970,-350.586,-51.758,-41.992,-1000.000,0.000,0
1606142144.974,30.762,-23.926,-22.461,102.539,0.000,0
1606142144.978,335.449,-2.930,-7.812,-899.414,0.000,0
1606142144.982,169.922,-14.160,-14.648,579.590,0.000,0
1606142144.985,-244.629,-40.527,-48.340,-659.668,0.000,0
1606142144.989,-363.281,-47.363,-50.293,-1000.000,0.000,0
1606142144.993,-26.855,-25.879,-23.926,-62.988,0.000,0
1606142144.997,330.566,-16.602,-16.113,-947.266,0.000,0
1606142145.001,223.633,21.484,-26.855,717.285,0.000,0
1606142145.005,-206.543,21.973,-55.664,-455.566,0.000,0
1606142145.009,-374.512,-37.598,-56.641,-1000.000,0.000,0
1606142145.013,-68.359,-33.691,-31.738,-246.094,0.000,0
1606142145.017,281.738,-0.977,-16.602,972.656,0.000,0
1606142145.021,246.582,-4.395,-14.648,822.754,0.000,0
1606142145.025,-144.531,-38.086,-38.086,-321.777,0.000,0
1606142145.028,-382.324,-52.246,-62.012,-1000.000,0.000,0
1606142145.032,-146.973,-41.016,-48.340,-440.918,0.000,0
1606142145.036,242.188,-16.113,-23.438,822.754,0.000,0
1606142145.040,274.902,-23.926,-28.320,934.082,0.000,0
1606142145.044,-105.957,-48.828,-47.363,-196.289,0.000,0
1606142145.048,-385.254,-52.246,-57.129,-1000.000,0.000,0
1606142145.052,-213.867,-42.969,-47.852,-607.910,0.000,0
1606142145.056,207.031,-20.508,-26.367,660.645,0.000,0
1606142145.060,272.461,-16.113,-19.043,981.934,0.000,0
1606142145.064,-94.238,-36.133,-37.109,-120.605,0.000,0
1606142145.067,-374.512,-49.805,-45.898,-1000.000,0.000,0
1606142145.071,-258.789,-37.109,-53.711,-728.516,0.000,0
1606142145.075,171.387,-13.184,-22.461,460.938,0.000,0
1606142145.079,338.379,2.441,2.930,-904.785,0.000,0
1606142145.083,19.531,-8.301,-32.715,145.508,0.000,0
1606142145.087,-332.031,-48.828,-48.828,-1000.000,0.000,0
1606142145.091,-280.762,-48.828,-46.387,-821.289,0.000,0
1606142145.095,135.742,-19.043,-19.531,331.055,0.000,0
1606142145.099,342.285,-9.277,-4.395,-887.207,0.000,0
1606142145.103,74.707,-27.832,-23.438,356.934,0.000,0
1606142145.107,-293.945,-49.805,-43.945,-903.809,0.000,0
1606142145.110,-306.152,-44.434,-36.621,-920.898,0.000,0
1606142145.114,91.309,-29.297,-4.395,229.492,0.000,0
1606142145.118,345.215,-17.090,8.789,-896.484,0.000,0
1606142145.122,137.695,-20.020,-14.648,550.781,0.000,0
1606142145.126,-250.000,-39.062,-39.062,-708.496,0.000,0
1606142145.130,-327.637,-47.852,-38.574,-1000.000,0.000,0
1606142145.134,41.016,-32.227,-21.484,87.402,0.000,0
1606142145.138,343.750,-8.301,-1.465,-918.945,0.000,0
1606142145.142,193.848,-10.742,-15.625,666.016,0.000,0
1606142145.146,-228.516,-46.387,-48.340,-540.039,0.000,0
1606142145.150,-373.535,-54.688,-51.270,-1000.000,0.000,0
1606142145.153,-38.086,-27.344,-33.691,-86.426,0.000,0
1606142145.157,301.758,-9.277,-13.672,-961.426,0.000,0
1606142145.161,215.820,-19.043,-14.160,762.695,0.000,0
1606142145.165,-173.340,-44.922,-37.109,-390.625,0.000,0
1606142145.169,-363.281,-49.805,-48.340,-1000.000,0.000,0
1606142145.173,-84.473,-22.949,-34.180,-276.367,0.000,0
1606142145.177,290.039,-3.418,-9.277,949.707,0.000,0
1606142145.181,271.484,-22.461,-19.531,871.094,0.000,0
1606142145.185,-121.094,-43.945,-54.199,-258.301,0.000,0
1606142145.189,-367.676,-45.410,-61.523,-1000.000,0.000,0
1606142145.192,-145.020,-32.715,-41.992,-483.398,0.000,0
1606142145.196,250.977,-14.160,-11.230,778.809,0.000,0
1606142145.200,313.477,-10.254,-8.789,986.816,0.000,0
1606142145.204,-72.266,-29.785,-32.715,-120.605,0.000,0
1606142145.208,-367.188,-45.410,-51.270,-1000.000,0.000,0
1606142145.212,-196.289,-38.574,-43.945,-628.418,0.000,0
1606142145.216,211.914,-19.043,-17.578,598.145,0.000,0
1606142145.220,334.473,0.977,-16.113,-929.199,0.000,0
1606142145.224,-8.301,-19.531,-40.527,44.434,0.000,0
1606142145.228,-349.121,-48.828,-55.664,-1000.000,0.000,0
1606142145.232,-237.793,-40.527,-45.410,-750.488,0.000,0
1606142145.235,184.570,-13.672,-17.578,424.805,0.000,0
1606142145.239,348.145,-1.465,-12.695,-888.672,0.000,0
1606142145.243,53.711,-20.996,-26.855,245.605,0.000,0
1606142145.247,-308.594,-54.199,-37.109,-986.816,0.000,0
1606142145.251,-286.133,-50.293,-37.109,-874.512,0.000,0
1606142145.255,114.746,-22.949,-19.531,273.926,0.000,0
1606142145.259,348.633,-11.230,-6.836,-884.277,0.000,0
1606142145.263,110.840,-14.160,-18.555,417.480,0.000,0
1606142145.267,-274.414,-41.504,-37.598,-844.727,0.000,0
1606142145.271,-320.801,-53.223,-42.969,-981.934,0.000,0
1606142145.275,66.406,-23.438,-22.949,145.996,0.000,0
1606142145.278,344.238,-0.977,-8.301,-896.973,0.000,0
1606142145.282,154.297,-22.949,-23.926,560.059,0.000,0
1606142145.286,-251.465,-53.223,-47.363,-678.223,0.000,0
1606142145.290,-357.422,-55.176,-51.270,-1000.000,0.000,0
1606142145.294,-9.766,-33.691,-33.691,-21.973,0.000,0
1606142145.298,306.152,-10.742,-19.043,-935.547,0.000,0
1606142145.302,196.289,-12.207,-20.020,698.242,0.000,0
1606142145.306,-200.195,-38.574,-43.945,-487.305,0.000,0
1606142145.310,-363.770,-53.223,-50.293,-1000.000,0.000,0
1606142145.314,-48.828,-33.203,-28.809,-204.590,0.000,0
1606142145.317,290.527,-13.672,-14.160,988.770,0.000,0
1606142145.321,233.398,-31.738,-20.020,808.594,0.000,0
1606142145.325,-145.508,-51.758,-43.945,-336.426,0.000,0
1606142145.329,-354.004,-49.316,-54.199,-1000.000,0.000,0
1606142145.333,-109.863,-41.016,-43.457,-407.715,0.000,0
1606142145.337,249.512,-26.367,-25.879,849.609,0.000,0
1606142145.341,274.902,-20.508,-18.555,919.434,0.000,0
1606142145.345,-96.191,-36.133,-33.203,-209.961,0.000,0
1606142145.349,-355.469,-52.734,-46.875,-1000.000,0.000,0
1606142145.353,-163.574,-42.969,-29.785,-564.941,0.000,0
1606142145.357,208.496,-13.184,-7.812,679.688,0.000,0
1606142145.360,279.297,-15.137,-16.602,-989.746,0.000,0
1606142145.364,-50.781,-43.457,-35.645,-67.871,0.000,0
1606142145.368,-337.891,-52.246,-40.527,-1000.000,0.000,0
1606142145.372,-234.375,-48.828,-28.320,-709.473,0.000,0
1606142145.376,139.648,-22.949,-10.742,484.375,0.000,0
1606142145.380,285.156,-11.230,-21.973,-925.293,0.000,0
1606142145.384,-17.090,-31.738,-41.016,95.703,0.000,0
1606142145.388,-336.426,-45.410,-48.828,-1000.000,0.000,0
1606142145.392,-267.578,-34.668,-41.016,-819.824,0.000,0
1606142145.396,105.469,-13.184,-17.090,327.637,0.000,0
1606142145.400,295.410,-7.812,0.000,-897.461,0.000,0
1606142145.403,52.734,-19.531,-12.207,301.758,0.000,0
1606142145.407,-289.551,-36.133,-43.945,-920.898,0.000,0
1606142145.411,-291.992,-45.410,-45.410,-921.875,0.000,0
1606142145.415,74.219,-24.902,-17.578,205.078,0.000,0
1606142145.419,310.547,-5.859,-0.488,-894.531,0.000,0
1606142145.423,115.234,-14.648,-8.789,474.121,0.000,0
1606142145.427,-241.699,-32.227,-34.180,-767.090,0.000,0
1606142145.431,-302.246,-40.039,-43.945,-1000.000,0.000,0
1606142145.435,36.133,-24.414,-21.484,49.805,0.000,0
1606142145.439,312.988,-2.930,-10.742,-919.434,0.000,0
1606142145.442,177.246,-10.742,-26.367,607.910,0.000,0
1606142145.446,-206.055,-40.527,-37.598,-601.074,0.000,0
1606142145.450,-341.309,-50.293,-39.062,-1000.000,0.000,0
1606142145.454,-27.832,-24.902,-20.020,-106.445,0.000,0
1606142145.458,289.062,-1.465,3.906,-965.332,0.000,0
1606142145.462,197.754,-20.508,-7.812,712.402,0.000,0
1606142145.466,-181.641,-41.504,-36.621,-460.449,0.000,0
1606142145.470,-343.262,-41.016,-42.969,-1000.000,0.000,0
1606142145.474,-82.031,-31.250,-25.391,-310.059,0.000,0
1606142145.478,251.953,-9.766,-5.371,926.270,0.000,0
1606142145.482,230.957,-12.695,-7.812,825.195,0.000,0
1606142145.485,-137.695,-37.598,-39.062,-330.566,0.000,0
1606142145.489,-352.539,-48.340,-57.617,-1000.000,0.000,0
1606142145.493,-145.020,-37.598,-37.598,-488.281,0.000,0
1606142145.497,215.332,-14.160,-12.207,764.648,0.000,0
1606142145.501,270.508,-5.859,-16.113,939.453,0.000,0
1606142145.505,-78.613,-21.973,-33.691,-187.988,0.000,0
1606142145.509,-336.426,-38.574,-52.734,-1000.000,0.000,0
1606142145.513,-180.664,-36.621,-52.246,-641.113,0.000,0
1606142145.517,183.594,-10.742,-22.949,585.449,0.000,0
1606142145.521,282.715,-4.395,-13.184,-974.609,0.000,0
1606142145.525,-40.039,-28.320,-38.574,-42.480,0.000,0
1606142145.528,-339.844,-46.875,-59.082,-1000.000,0.000,0
1606142145.532,-241.699,-43.945,-42.969,-756.348,0.000,0
1606142145.536,133.301,-20.508,-22.461,414.551,0.000,0
1606142145.540,285.645,-7.812,-20.020,-921.875,0.000,0
1606142145.544,10.742,-21.484,-26.367,147.461,0.000,0
1606142145.548,-306.152,-43.945,-43.945,-1000.000,0.000,0
1606142145.552,-272.949,-50.781,-39.551,-861.816,0.000,0
1606142145.556,90.820,-34.180,-18.066,276.367,0.000,0
1606142145.560,294.434,-17.090,-15.137,-896.973,0.000,0
1606142145.564,66.406,-21.973,-27.344,337.891,0.000,0
1606142145.567,-284.180,-47.852,-53.711,-882.812,0.000,0
1606142145.571,-310.547,-57.129,-46.387,-958.008,0.000,0
1606142145.575,42.969,-32.715,-10.742,149.414,0.000,0
1606142145.579,287.109,-13.184,4.395,-901.855,0.000,0
1606142145.583,110.840,-21.484,-8.789,517.090,0.000,0
1606142145.587,-249.512,-42.480,-34.180,-716.797,0.000,0
1606142145.591,-323.242,-42.969,-37.598,-1000.000,0.000,0
1606142145.595,10.742,-20.996,-25.391,16.113,0.000,0
1606142145.599,288.574,-12.695,-16.602,-933.105,0.000,0
1606142145.603,160.645,-23.926,-22.949,642.578,0.000,0
1606142145.607,-206.055,-42.969,-36.133,-548.828,0.000,0
1606142145.610,-337.891,-53.223,-41.992,-1000.000,0.000,0
1606142145.614,-50.781,-34.180,-25.879,-167.480,0.000,0
1606142145.618,262.695,-12.695,-3.906,997.070,0.000,0
1606142145.622,204.590,-12.695,-13.672,770.996,0.000,0
1606142145.626,-163.574,-30.273,-36.621,-386.719,0.000,0
1606142145.630,-352.051,-41.016,-51.270,-1000.000,0.000,0
1606142145.634,-106.445,-32.715,-46.387,-368.164,0.000,0
1606142145.638,238.770,-5.859,-19.531,871.582,0.000,0
1606142145.642,234.375,14.648,-17.090,874.512,0.000,0
1606142145.646,-129.395,-20.996,-44.434,-267.578,0.000,0
1606142145.650,-363.770,-54.688,-54.199,-1000.000,0.000,0
1606142145.653,-175.781,-41.504,-28.320,-534.180,0.000,0
1606142145.657,189.941,-13.184,-1.465,716.309,0.000,0
1606142145.661,258.301,-7.324,-2.930,962.891,0.000,0
1606142145.665,-93.262,-34.668,-31.250,-145.996,0.000,0
1606142145.669,-368.164,-49.316,-52.734,-1000.000,0.000,0
1606142145.673,-223.633,-44.922,-41.016,-678.711,0.000,0
1606142145.677,137.207,-27.344,-13.184,522.949,0.000,0
1606142145.681,248.535,-15.625,-12.207,-956.543,0.000,0
1606142145.685,-42.480,-23.926,-26.855,33.691,0.000,0
1606142145.689,-336.914,-40.527,-33.691,-1000.000,0.000,0
1606142145.692,-257.812,-39.551,-39.062,-792.480,0.000,0
1606142145.696,108.398,-20.996,-24.414,365.234,0.000,0
1606142145.700,271.484,-5.371,-12.695,-908.203,0.000,0
1606142145.704,21.484,-12.207,-29.785,237.793,0.000,0
1606142145.708,-302.246,-42.480,-50.293,-957.520,0.000,0
1606142145.712,-289.062,-46.875,-45.410,-892.090,0.000,0
1606142145.716,70.801,-28.809,-22.949,240.234,0.000,0
1606142145.720,289.551,-15.625,-5.371,-899.902,0.000,0
1606142145.724,84.961,-26.855,-20.020,422.363,0.000,0
1606142145.728,-261.230,-49.805,-44.922,-809.570,0.000,0
1606142145.732,-308.105,-49.316,-41.992,-981.445,0.000,0
1606142145.735,48.340,-25.391,-16.602,117.188,0.000,0
1606142145.739,310.059,-19.531,-16.113,-913.574,0.000,0
1606142145.743,132.324,-36.621,-38.086,564.453,0.000,0
1606142145.747,-244.629,-50.781,-41.504,-650.391,0.000,0
1606142145.751,-346.680,-51.758,-41.504,-1000.000,0.000,0
1606142145.755,-23.438,-34.180,-22.461,-59.082,0.000,0
1606142145.759,280.273,-22.461,-6.836,-958.496,0.000,0
1606142145.763,162.598,-30.762,-20.508,699.219,0.000,0
1606142145.767,-226.562,-47.363,-36.621,-480.957,0.000,0
1606142145.771,-356.445,-51.270,-45.410,-1000.000,0.000,0
1606142145.775,-71.777,-41.016,-34.180,-241.699,0.000,0
1606142145.778,239.258,-19.531,-6.836,950.195,0.000,0
1606142145.782,212.402,-9.277,-5.371,808.105,0.000,0
1606142145.786,-147.949,-31.250,-39.062,-345.215,0.000,0
1606142145.790,-362.793,-47.363,-59.082,-1000.000,0.000,0
1606142145.794,-135.742,-31.250,-45.410,-446.777,0.000,0
1606142145.798,215.332,-7.812,-20.020,804.199,0.000,0
1606142145.802,245.605,-7.324,-5.859,910.645,0.000,0
1606142145.806,-125.000,-26.855,-29.785,-223.145,0.000,0
1606142145.810,-374.512,-47.852,-47.363,-1000.000,0.000,0
1606142145.814,-200.195,-42.969,-35.156,-606.445,0.000,0
1606142145.817,146.484,-22.461,-13.672,621.582,0.000,0
1606142145.821,239.258,-12.207,-3.906,-998.535,0.000,0
1606142145.825,-66.895,-23.438,-24.414,-76.660,0.000,0
1606142145.829,-343.750,-43.945,-50.781,-1000.000,0.000,0
1606142145.833,-228.516,-43.457,-49.805,-721.191,0.000,0
1606142145.837,125.977,-28.809,-31.250,457.031,0.000,0
1606142145.841,263.184,-8.301,-14.160,-933.105,0.000,0
1606142145.845,-14.160,-19.531,-26.855,119.629,0.000,0
1606142145.849,-325.195,-50.293,-52.246,-1000.000,0.000,0
1606142145.853,-268.555,-41.992,-43.457,-830.078,0.000,0
1606142145.857,83.984,-23.926,-12.695,316.895,0.000,0
1606142145.860,279.785,-25.879,-1.465,-904.297,0.000,0
1606142145.864,43.945,-32.227,-20.996,315.430,0.000,0
1606142145.868,-305.664,-43.945,-35.645,-899.902,0.000,0
1606142145.872,-298.340,-47.363,-34.668,-922.852,0.000,0
1606142145.876,60.547,-22.949,-9.766,204.590,0.000,0
1606142145.880,284.180,-4.395,1.953,-902.344,0.000,0
1606142145.884,88.379,-10.254,-12.695,471.680,0.000,0
1606142145.888,-253.418,-38.086,-34.668,-751.953,0.000,0
1606142145.892,-315.918,-50.781,-34.668,-1000.000,0.000,0
1606142145.896,-0.488,-34.668,-15.625,40.039,0.000,0
1606142145.900,260.254,-20.508,-16.602,-931.152,0.000,0
1606142145.903,137.207,-27.344,-18.066,632.812,0.000,0
1606142145.907,-212.891,-44.922,-35.156,-561.523,0.000,0
1606142145.911,-315.918,-46.387,-58.105,-1000.000,0.000,0
1606142145.915,-11.230,-27.344,-31.738,-125.977,0.000,0
1606142145.919,266.113,-6.836,-2.930,-989.746,0.000,0
1606142145.923,196.289,-13.672,-16.113,752.441,0.000,0
1606142145.927,-157.227,-39.062,-41.504,-411.621,0.000,0
1606142145.931,-331.055,-46.387,-41.504,-1000.000,0.000,0
1606142145.935,-85.938,-33.203,-14.648,-317.871,0.000,0
1606142145.939,227.051,-5.859,2.930,901.855,0.000,0
1606142145.942,197.266,-2.441,-16.113,830.078,0.000,0
1606142145.946,-156.250,-28.320,-39.062,-320.801,0.000,0
1606142145.950,-361.328,-34.668,-29.785,-1000.000,0.000,0
1606142145.954,-179.199,-28.809,-19.531,-528.320,0.000,0
1606142145.958,153.809,-13.184,-3.906,758.301,0.000,0
1606142145.962,163.086,-7.324,7.324,850.586,0.000,0
1606142145.966,-182.617,-27.344,-12.695,-343.262,0.000,0
1606142145.970,-409.668,-41.504,-19.531,-1000.000,0.000,0
1606142145.974,-284.180,-24.902,-5.859,-697.266,0.000,0
1606142145.978,56.641,3.906,14.160,507.812,0.000,0
1606142145.982,148.926,15.625,18.555,994.629,0.000,0
1606142145.985,-166.016,0.488,-3.906,-104.004,0.000,0
1606142145.989,-457.031,-14.160,-20.508,-1000.000,0.000,0
1606142145.993,-381.348,-11.230,-11.230,-821.777,0.000,0
1606142145.997,-47.852,13.184,11.719,318.848,0.000,0
1606142146.001,104.980,27.344,25.879,-939.941,0.000,0
1606142146.005,-156.738,5.371,7.324,63.965,0.000,0
1606142146.009,-472.656,-16.113,-19.531,-1000.000,0.000,0
1606142146.013,-422.852,-5.859,-7.324,-899.414,0.000,0
1606142146.017,-75.684,18.555,9.766,199.707,0.000,0
1606142146.021,99.121,25.879,-15.137,-908.203,0.000,0
1606142146.025,-98.633,0.000,-28.809,263.672,0.000,0
1606142146.028,-402.344,-20.020,-35.156,-911.621,0.000,0
1606142146.032,-412.109,-13.184,-44.922,-978.027,0.000,0
1606142146.036,-71.289,3.906,-21.484,89.844,0.000,0
1606142146.040,179.199,10.742,-2.441,-909.180,0.000,0
1606142146.044,25.391,2.930,-21.484,486.328,0.000,0
1606142146.048,-296.387,-15.625,-41.992,-733.887,0.000,0
1606142146.052,-356.934,-28.320,-42.480,-1000.000,0.000,0
1606142146.056,-43.457,-16.113,-17.578,1.465,0.000,0
1606142146.060,229.492,-5.371,-9.766,-942.871,0.000,0
1606142146.064,146.484,-21.973,-17.578,680.664,0.000,0
1606142146.067,-196.289,-50.293,-26.855,-504.395,0.000,0
1606142146.071,-338.867,-61.035,-39.551,-1000.000,0.000,0
1606142146.075,-52.246,-51.270,-29.297,-155.273,0.000,0
1606142146.079,255.371,-37.109,-11.230,991.699,0.000,0
1606142146.083,208.496,-33.203,-7.812,793.945,0.000,0
1606142146.087,-123.535,-50.293,-38.086,-352.539,0.000,0
1606142146.091,-297.852,-70.801,-62.012,-1000.000,0.000,0
1606142146.095,-72.754,-58.594,-58.105,-338.379,0.000,0
1606142146.099,262.695,-34.180,-26.855,877.930,0.000,0
1606142146.103,277.344,-30.273,-5.859,902.344,0.000,0
1606142146.107,-66.895,-48.340,-30.273,-215.820,0.000,0
1606142146.110,-276.855,-67.383,-50.293,-1000.000,0.000,0
1606142146.114,-90.332,-54.199,-39.062,-503.418,0.000,0
1606142146.118,229.492,-36.621,-19.043,729.980,0.000,0
1606142146.122,289.551,-51.270,-30.762,991.699,0.000,0
1606142146.126,-27.344,-62.500,-60.059,-81.543,0.000,0
1606142146.130,-287.109,-66.895,-62.988,-1000.000,0.000,0
1606142146.134,-143.066,-58.594,-52.734,-653.809,0.000,0
1606142146.138,207.031,-34.668,-32.715,548.340,0.000,0
1606142146.142,317.871,-27.832,-21.973,-938.965,0.000,0
1606142146.146,36.133,-43.457,-42.480,90.332,0.000,0
1606142146.150,-260.742,-63.477,-59.082,-1000.000,0.000,0
1606142146.153,-182.617,-55.664,-47.363,-771.484,0.000,0
1606142146.157,164.062,-29.785,-24.414,396.484,0.000,0
1606142146.161,318.848,-38.086,-21.484,-906.738,0.000,0
1606142146.165,78.613,-55.176,-39.062,277.832,0.000,0
1606142146.169,-249.512,-59.570,-57.129,-937.500,0.000,0
1606142146.173,-226.074,-54.199,-54.688,-881.836,0.000,0
1606142146.177,118.652,-32.715,-31.738,261.719,0.000,0
1606142146.181,320.801,-27.344,-20.508,-901.855,0.000,0
1606142146.185,122.070,-46.387,-39.062,455.566,0.000,0
1606142146.189,-206.055,-58.594,-57.617,-778.809,0.000,0
1606142146.192,-246.582,-56.641,-55.176,-986.816,0.000,0
1606142146.196,74.219,-40.527,-35.645,116.699,0.000,0
1606142146.200,324.219,-17.578,-13.672,-920.410,0.000,0
1606142146.204,182.617,-15.137,-18.066,609.375,0.000,0
1606142146.208,-158.691,-40.039,-50.293,-596.680,0.000,0
1606142146.212,-255.859,-48.340,-59.082,-1000.000,0.000,0
1606142146.216,26.367,-29.785,-31.250,-54.688,0.000,0
1606142146.220,300.293,-22.949,-5.859,-964.844,0.000,0
1606142146.224,219.238,-32.227,-7.812,717.285,0.000,0
1606142146.228,-134.277,-44.434,-31.738,-451.660,0.000,0
1606142146.232,-280.273,-49.316,-44.922,-1000.000,0.000,0
1606142146.235,-21.973,-35.645,-33.203,-245.605,0.000,0
1606142146.239,265.137,-18.555,-17.578,940.918,0.000,0
1606142146.243,223.145,-18.066,-15.137,820.312,0.000,0
1606142146.247,-100.098,-30.273,-33.691,-328.125,0.000,0
1606142146.251,-286.133,-45.410,-52.246,-1000.000,0.000,0
1606142146.255,-88.867,-42.969,-37.598,-435.547,0.000,0
1606142146.259,229.492,-22.461,-16.113,793.457,0.000,0
1606142146.263,251.953,-19.531,-22.461,919.922,0.000,0
1606142146.267,-65.918,-42.969,-46.387,-197.266,0.000,0
1606142146.271,-276.367,-54.199,-41.504,-1000.000,0.000,0
1606142146.275,-114.258,-47.852,-20.996,-583.008,0.000,0
1606142146.278,200.684,-33.203,-18.555,630.859,0.000,0
1606142146.282,293.945,-22.949,-14.648,-991.699,0.000,0
1606142146.286,-1.465,-34.668,-29.785,-28.809,0.000,0
1606142146.290,-277.344,-46.387,-43.457,-1000.000,0.000,0
1606142146.294,-162.598,-39.551,-20.020,-704.102,0.000,0
1606142146.298,166.016,-20.996,-6.348,480.957,0.000,0
1606142146.302,284.180,-5.371,-13.184,-938.477,0.000,0
1606142146.306,20.996,-28.320,-27.344,144.531,0.000,0
1606142146.310,-274.414,-58.105,-42.480,-1000.000,0.000,0
1606142146.314,-223.145,-46.387,-42.969,-827.637,0.000,0
1606142146.317,108.887,-25.391,-22.949,326.172,0.000,0
1606142146.321,263.184,-21.484,-10.254,-914.551,0.000,0
1606142146.325,46.387,-33.691,-15.137,329.102,0.000,0
1606142146.329,-240.723,-44.434,-36.621,-868.164,0.000,0
1606142146.333,-251.465,-46.387,-47.852,-932.617,0.000,0
1606142146.337,55.176,-31.738,-26.855,184.570,0.000,0
1606142146.341,266.602,-14.648,-7.324,-909.180,0.000,0
1606142146.345,93.750,-24.902,-22.949,500.488,0.000,0
1606142146.349,-212.402,-48.340,-46.387,-718.750,0.000,0
1606142146.353,-286.621,-52.246,-47.852,-1000.000,0.000,0
1606142146.357,-12.207,-38.574,-26.855,38.574,0.000,0
1606142146.360,239.746,-16.602,-11.719,-939.453,0.000,0
1606142146.364,121.582,-19.531,-21.484,627.441,0.000,0
1606142146.368,-194.824,-42.969,-38.574,-561.035,0.000,0
1606142146.372,-295.898,-44.434,-47.363,-1000.000,0.000,0
1606142146.376,-30.762,-26.855,-26.367,-142.090,0.000,0
1606142146.380,238.770,-14.648,-7.812,989.258,0.000,0
1606142146.384,171.875,-17.578,-18.555,750.488,0.000,0
1606142146.388,-153.809,-38.086,-36.621,-415.527,0.000,0
1606142146.392,-304.688,-52.246,-40.527,-1000.000,0.000,0
1606142146.396,-82.520,-37.598,-26.855,-325.195,0.000,0
1606142146.400,208.496,-17.578,-10.742,866.699,0.000,0
1606142146.403,200.684,-19.531,-8.789,859.863,0.000,0
1606142146.407,-113.770,-37.598,-31.250,-276.367,0.000,0
1606142146.411,-311.523,-45.410,-46.875,-1000.000,0.000,0
1606142146.415,-132.812,-38.574,-30.273,-499.512,0.000,0
1606142146.419,172.852,-19.043,-10.742,724.609,0.000,0
1606142146.423,230.469,-19.043,-10.254,950.195,0.000,0
1606142146.427,-56.641,-41.016,-23.926,-139.160,0.000,0
1606142146.431,-314.453,-50.781,-40.039,-1000.000,0.000,0
1606142146.435,-185.059,-39.551,-36.133,-628.906,0.000,0
1606142146.439,146.973,-21.973,-10.254,573.730,0.000,0
1606142146.442,249.512,-11.719,-3.906,-976.074,0.000,0
1606142146.446,-18.555,-25.391,-24.902,26.855,0.000,0
1606142146.450,-295.898,-47.363,-43.457,-1000.000,0.000,0
1606142146.454,-216.309,-38.086,-38.086,-763.184,0.000,0
1606142146.458,111.328,-20.996,-13.672,405.273,0.000,0
1606142146.462,250.000,-18.066,-6.348,-931.152,0.000,0
1606142146.466,16.113,-27.832,-28.809,203.613,0.000,0
1606142146.470,-278.320,-42.969,-47.363,-960.449,0.000,0
1606142146.474,-249.023,-47.852,-43.945,-861.816,0.000,0
1606142146.478,81.543,-25.391,-26.855,279.785,0.000,0
1606142146.482,255.371,-11.230,-10.742,-910.645,0.000,0
1606142146.485,71.777,-30.273,-17.090,408.203,0.000,0
1606142146.489,-229.980,-46.387,-49.316,-804.688,0.000,0
1606142146.493,-276.367,-46.387,-48.340,-964.355,0.000,0
1606142146.497,26.367,-27.344,-25.391,134.766,0.000,0
1606142146.501,262.207,3.906,-21.484,-919.922,0.000,0
1606142146.505,125.000,-8.301,-23.926,564.941,0.000,0
1606142146.509,-205.078,-40.527,-39.062,-645.020,0.000,0
1606142146.513,-290.039,-45.410,-44.434,-1000.000,0.000,0
1606142146.517,-5.371,-35.156,-15.137,-18.555,0.000,0
1606142146.521,248.047,-17.090,-3.906,-958.984,0.000,0
1606142146.525,145.996,-19.043,-27.344,677.246,0.000,0
1606142146.528,-179.199,-36.133,-41.016,-502.930,0.000,0
1606142146.532,-307.617,-49.805,-49.316,-1000.000,0.000,0
1606142146.536,-58.594,-38.086,-34.180,-208.496,0.000,0
1606142146.540,221.191,-1.465,-18.066,956.543,0.000,0
1606142146.544,177.734,-1.465,-27.832,784.668,0.000,0
1606142146.548,-145.996,-39.551,-35.156,-376.465,0.000,0
1606142146.552,-315.918,-54.199,-46.875,-1000.000,0.000,0
1606142146.556,-104.004,-38.086,-43.457,-385.742,0.000,0
1606142146.560,192.383,-21.484,-14.160,827.148,0.000,0
1606142146.564,188.965,-23.438,-5.371,884.766,0.000,0
1606142146.567,-128.418,-41.992,-20.020,-240.723,0.000,0
1606142146.571,-333.496,-54.199,-37.598,-1000.000,0.000,0
1606142146.575,-170.898,-51.758,-31.250,-558.105,0.000,0
1606142146.579,147.949,-12.207,-9.766,666.992,0.000,0
1606142146.583,212.402,25.391,-7.812,964.355,0.000,0
1606142146.587,-77.637,-21.484,-30.762,-115.723,0.000,0
1606142146.591,-314.941,-54.199,-47.852,-1000.000,0.000,0
1606142146.595,-196.289,-48.340,-35.156,-685.547,0.000,0
1606142146.599,126.953,-24.902,-13.184,499.512,0.000,0
1606142146.603,232.422,-14.160,-11.719,-967.285,0.000,0
1606142146.607,-15.137,-40.039,-21.484,75.684,0.000,0
1606142146.610,-281.738,-56.152,-46.387,-1000.000,0.000,0
1606142146.614,-215.332,-48.828,-47.363,-792.969,0.000,0
1606142146.618,118.164,-19.043,-9.766,370.605,0.000,0
1606142146.622,257.324,-10.742,-3.418,-925.293,0.000,0
1606142146.626,34.180,-30.273,-24.902,263.184,0.000,0
1606142146.630,-254.883,-47.363,-44.922,-912.109,0.000,0
1606142146.634,-242.188,-49.316,-37.598,-895.996,0.000,0
1606142146.638,75.195,-30.762,-22.461,226.562,0.000,0
1606142146.642,246.094,-3.906,-14.160,-913.574,0.000,0
1606142146.646,60.059,-21.973,-22.461,442.871,0.000,0
1606142146.650,-236.328,-56.641,-41.504,-771.484,0.000,0
1606142146.653,-268.555,-56.152,-41.504,-973.633,0.000,0
1606142146.657,21.973,-31.738,-21.484,107.422,0.000,0
1606142146.661,244.141,-19.531,-17.578,-930.664,0.000,0
1606142146.665,113.281,-34.668,-36.133,587.891,0.000,0
1606142146.669,-202.637,-54.688,-39.062,-610.352,0.000,0
1606142146.673,-286.133,-45.898,-33.691,-1000.000,0.000,0
1606142146.677,-14.160,-30.273,-21.973,-67.383,0.000,0
1606142146.681,239.258,-12.695,-8.789,-983.398,0.000,0
1606142146.685,154.297,-16.602,-14.160,709.473,0.000,0
1606142146.689,-162.109,-45.898,-35.645,-459.473,0.000,0
1606142146.692,-299.805,-52.246,-43.945,-1000.000,0.000,0
1606142146.696,-76.172,-45.410,-28.809,-273.438,0.000,0
1606142146.700,207.031,-23.438,-16.113,909.180,0.000,0
1606142146.704,181.641,-14.648,-12.207,815.918,0.000,0
1606142146.708,-130.859,-31.250,-27.344,-335.449,0.000,0
1606142146.712,-304.199,-41.016,-41.504,-1000.000,0.000,0
1606142146.716,-109.375,-30.762,-28.809,-450.684,0.000,0
1606142146.720,186.523,-5.859,-9.277,774.414,0.000,0
1606142146.724,200.195,0.000,-12.207,908.203,0.000,0
1606142146.728,-105.957,-31.250,-43.457,-211.914,0.000,0
1606142146.732,-320.312,-53.223,-51.758,-1000.000,0.000,0
1606142146.735,-162.109,-38.086,-32.715,-605.957,0.000,0
1606142146.739,150.391,-15.137,-18.066,604.492,0.000,0
1606142146.743,232.910,-16.602,-12.695,988.281,0.000,0
1606142146.747,-46.387,-35.156,-31.738,-60.547,0.000,0
1606142146.751,-316.895,-47.852,-50.293,-1000.000,0.000,0
1606142146.755,-215.820,-45.898,-40.039,-730.957,0.000,0
1606142146.759,105.469,-30.273,-18.555,440.918,0.000,0
1606142146.763,237.793,-18.066,-14.160,-947.754,0.000,0
1606142146.767,-2.930,-32.227,-33.691,141.602,0.000,0
1606142146.771,-282.227,-48.340,-45.898,-990.234,0.000,0
1606142146.775,-232.422,-41.992,-33.691,-837.891,0.000,0
1606142146.778,82.031,-19.531,-21.973,312.012,0.000,0
1606142146.782,243.164,-0.488,-24.414,-922.363,0.000,0
1606142146.786,39.062,-23.926,-34.180,312.012,0.000,0
1606142146.790,-251.465,-47.852,-39.551,-872.070,0.000,0
1606142146.794,-258.789,-39.551,-38.574,-925.293,0.000,0
1606142146.798,44.434,-26.855,-26.367,182.129,0.000,0
1606142146.802,242.188,-12.695,-13.672,-916.504,0.000,0
1606142146.806,77.148,-20.508,-26.367,491.211,0.000,0
1606142146.810,-228.516,-44.434,-30.762,-716.797,0.000,0
1606142146.814,-284.180,-45.898,-33.691,-1000.000,0.000,0
1606142146.817,-4.395,-33.691,-19.043,18.555,0.000,0
1606142146.821,226.074,-8.301,-8.301,-947.754,0.000,0
1606142146.825,121.582,-17.578,-25.879,623.047,0.000,0
1606142146.829,-187.500,-49.805,-38.574,-563.477,0.000,0
1606142146.833,-311.523,-53.223,-40.039,-1000.000,0.000,0
1606142146.837,-57.129,-39.551,-27.344,-158.691,0.000,0
1606142146.841,210.938,-22.461,-13.672,975.586,0.000,0
1606142146.845,150.391,-20.020,-9.766,747.559,0.000,0
1606142146.849,-166.992,-42.969,-31.738,-419.922,0.000,0
1606142146.853,-322.266,-56.152,-57.129,-1000.000,0.000,0
1606142146.857,-105.957,-50.293,-44.434,-353.516,0.000,0
1606142146.860,189.941,-6.836,-24.414,856.934,0.000,0
1606142146.864,181.641,10.742,-34.668,841.797,0.000,0
1606142146.868,-112.305,-39.062,-44.922,-304.688,0.000,0
1606142146.872,-294.922,-57.617,-49.316,-1000.000,0.000,0
1606142146.876,-136.230,-44.922,-37.598,-520.996,0.000,0
1606142146.880,159.668,-26.367,-10.742,696.289,0.000,0
1606142146.884,205.078,-21.973,-1.465,946.777,0.000,0
1606142146.888,-75.195,-27.832,-21.484,-143.066,0.000,0
1606142146.892,-300.293,-34.668,-43.457,-1000.000,0.000,0
1606142146.896,-184.570,-26.367,-38.574,-658.203,0.000,0
1606142146.900,120.117,-6.836,-21.484,536.621,0.000,0
1606142146.903,216.797,-1.953,-26.855,-990.723,0.000,0
1606142146.907,-45.410,-10.742,-52.734,-10.254,0.000,0
1606142146.911,-302.246,-21.484,-67.871,-1000.000,0.000,0
1606142146.915,-216.797,-18.066,-59.570,-778.320,0.000,0
1606142146.919,98.633,16.602,-40.527,378.418,0.000,0
1606142146.923,235.352,39.062,-34.180,-937.500,0.000,0
1606142146.927,10.742,5.371,-47.852,188.965,0.000,0
1606142146.931,-271.973,-18.555,-70.801,-957.031,0.000,0
1606142146.935,-233.887,-14.648,-68.359,-873.047,0.000,0
1606142146.939,70.312,2.441,-46.387,260.254,0.000,0
1606142146.942,226.562,2.441,-34.668,-916.016,0.000,0
1606142146.946,46.875,-18.555,-43.945,375.000,0.000,0
1606142146.950,-241.699,-38.086,-61.035,-822.754,0.000,0
1606142146.954,-259.277,-40.527,-60.547,-953.613,0.000,0
1606142146.958,42.480,-20.996,-42.480,138.672,0.000,0
1606142146.962,253.906,22.461,-31.738,-925.781,0.000,0
1606142146.966,107.422,5.859,-42.969,543.457,0.000,0
1606142146.970,-200.684,-42.969,-55.176,-655.762,0.000,0
1606142146.974,-270.508,-43.945,-59.082,-1000.000,0.000,0
1606142146.978,7.324,-32.227,-44.434,-16.602,0.000,0
1606142146.982,250.488,-17.578,-16.113,-962.891,0.000,0
1606142146.985,154.297,-16.602,-20.508,676.758,0.000,0
1606142146.989,-162.109,-35.156,-49.316,-497.070,0.000,0
1606142146.993,-287.598,-45.410,-56.152,-1000.000,0.000,0
1606142146.997,-42.969,-34.180,-34.668,-205.078,0.000,0
1606142147.001,230.469,15.625,-20.996,951.660,0.000,0
1606142147.005,182.617,14.648,-25.391,783.691,0.000,0
1606142147.009,-135.742,-36.133,-40.527,-373.047,0.000,0
1606142147.013,-298.828,-43.457,-50.781,-1000.000,0.000,0
1606142147.017,-95.215,-36.133,-39.062,-403.809,0.000,0
1606142147.021,189.453,-26.855,-17.090,808.105,0.000,0
1606142147.025,194.336,-24.414,-14.648,882.812,0.000,0
1606142147.028,-98.145,-33.691,-30.273,-243.652,0.000,0
1606142147.032,-291.992,-41.992,-47.363,-1000.000,0.000,0
1606142147.036,-133.301,-31.250,-51.270,-557.617,0.000,0
1606142147.040,176.270,-7.812,-27.832,656.250,0.000,0
1606142147.044,242.188,-2.930,-19.531,973.145,0.000,0
1606142147.048,-28.809,-21.484,-40.527,-85.938,0.000,0
1606142147.052,-264.160,-35.645,-54.199,-1000.000,0.000,0
1606142147.056,-156.738,-36.621,-42.969,-695.801,0.000,0
1606142147.060,148.926,-16.602,-19.043,488.281,0.000,0
1606142147.064,250.977,9.766,-9.277,-960.938,0.000,0
1606142147.067,-5.859,-18.555,-30.273,87.891,0.000,0
1606142147.071,-283.691,-54.199,-55.176,-1000.000,0.000,0
1606142147.075,-218.262,-47.363,-50.293,-802.246,0.000,0
1606142147.079,105.469,-20.508,-29.297,356.934,0.000,0
1606142147.083,270.996,-10.254,-20.996,-926.758,0.000,0
1606142147.087,57.129,-22.461,-35.645,269.531,0.000,0
1606142147.091,-255.859,-38.086,-53.223,-906.250,0.000,0
1606142147.095,-247.559,-45.898,-50.293,-895.996,0.000,0
1606142147.099,63.965,-16.602,-30.762,230.469,0.000,0
1606142147.103,247.559,10.742,-15.137,-916.504,0.000,0
1606142147.107,69.824,-24.902,-22.949,443.359,0.000,0
1606142147.110,-229.980,-57.617,-55.176,-761.719,0.000,0
1606142147.114,-260.254,-47.852,-54.688,-984.863,0.000,0
1606142147.118,34.668,-21.973,-20.996,86.426,0.000,0
1606142147.122,253.906,-8.301,1.953,-933.594,0.000,0
1606142147.126,129.883,-17.090,-9.766,601.562,0.000,0
1606142147.130,-189.941,-40.527,-38.574,-593.750,0.000,0
1606142147.134,-290.527,-46.875,-44.922,-1000.000,0.000,0
1606142147.138,-28.320,-33.203,-24.414,-85.938,0.000,0
1606142147.142,224.121,15.137,-11.230,-986.328,0.000,0
1606142147.146,140.137,11.230,-22.949,709.473,0.000,0
1606142147.150,-177.246,-47.852,-41.992,-461.914,0.000,0
1606142147.153,-313.965,-64.941,-50.293,-1000.000,0.000,0
1606142147.157,-82.031,-43.457,-38.574,-287.109,0.000,0
1606142147.161,199.707,-16.602,-25.391,897.461,0.000,0
1606142147.165,176.758,-17.578,-19.531,821.289,0.000,0
1606142147.169,-123.535,-41.016,-40.527,-331.055,0.000,0
1606142147.173,-290.039,-47.363,-57.617,-1000.000,0.000,0
1606142147.177,-109.375,-37.598,-42.969,-459.961,0.000,0
1606142147.181,173.828,-23.926,-21.973,754.883,0.000,0
1606142147.185,201.660,-16.602,-18.555,919.434,0.000,0
1606142147.189,-90.332,-33.691,-34.180,-187.500,0.000,0
1606142147.192,-301.758,-47.363,-48.828,-1000.000,0.000,0
1606142147.196,-156.738,-46.387,-44.922,-613.770,0.000,0
1606142147.200,152.832,-18.066,-22.461,589.844,0.000,0
1606142147.204,232.910,-8.789,-18.555,997.559,0.000,0
1606142147.208,-32.227,-31.250,-37.598,-32.227,0.000,0
1606142147.212,-275.391,-40.527,-50.293,-1000.000,0.000,0
1606142147.216,-183.594,-40.527,-36.133,-720.703,0.000,0
1606142147.220,131.836,-20.020,-11.230,456.055,0.000,0
1606142147.224,252.930,-3.418,-2.930,-947.754,0.000,0
1606142147.228,7.324,-20.508,-19.531,152.832,0.000,0
1606142147.232,-272.461,-41.992,-46.387,-984.375,0.000,0
1606142147.235,-228.027,-37.598,-44.922,-835.449,0.000,0
1606142147.239,90.820,-14.160,-25.879,315.430,0.000,0
1606142147.243,250.488,0.000,-9.766,-922.363,0.000,0
1606142147.247,48.828,-21.973,-17.090,324.219,0.000,0
1606142147.251,-241.211,-45.898,-33.203,-861.328,0.000,0
1606142147.255,-248.535,-46.387,-32.227,-928.711,0.000,0
1606142147.259,50.293,-10.742,-22.949,176.758,0.000,0
1606142147.263,251.953,14.160,-12.695,-917.969,0.000,0
1606142147.267,97.168,-10.254,-16.113,504.883,0.000,0
1606142147.271,-212.891,-32.227,-40.039,-706.055,0.000,0
1606142147.275,-270.020,-44.434,-41.992,-1000.000,0.000,0
1606142147.278,10.742,-29.297,-25.879,27.344,0.000,0
1606142147.282,241.699,-5.859,-15.625,-946.289,0.000,0
1606142147.286,126.465,-21.484,-16.602,629.883,0.000,0
1606142147.290,-182.129,-40.527,-30.762,-553.711,0.000,0
1606142147.294,-288.574,-45.410,-39.062,-1000.000,0.000,0
1606142147.298,-37.109,-31.250,-31.738,-159.180,0.000,0
1606142147.302,229.980,-9.277,-16.602,979.004,0.000,0
1606142147.306,155.762,-17.578,-15.625,746.094,0.000,0
1606142147.310,-166.016,-32.715,-33.691,-422.852,0.000,0
1606142147.314,-312.500,-47.852,-46.875,-1000.000,0.000,0
1606142147.317,-100.098,-45.410,-37.109,-354.492,0.000,0
1606142147.321,187.500,-22.461,-17.090,849.121,0.000,0
1606142147.325,180.664,-22.949,-10.254,855.957,0.000,0
1606142147.329,-119.629,-36.133,-32.715,-282.227,0.000,0
1606142147.333,-306.641,-48.340,-55.664,-1000.000,0.000,0
1606142147.337,-137.207,-47.852,-41.016,-526.855,0.000,0
1606142147.341,166.992,-11.230,-26.855,695.312,0.000,0
1606142147.345,215.332,3.418,-26.367,945.801,0.000,0
1606142147.349,-69.336,-34.180,-29.785,-143.066,0.000,0
1606142147.353,-297.363,-47.363,-45.898,-1000.000,0.000,0
1606142147.357,-171.875,-30.762,-37.598,-654.297,0.000,0
1606142147.360,145.020,-11.230,-17.090,543.945,0.000,0
1606142147.364,241.211,-19.043,-9.766,-980.469,0.000,0
1606142147.368,-22.949,-44.434,-21.484,22.949,0.000,0
1606142147.372,-284.668,-48.828,-46.387,-1000.000,0.000,0
1606142147.376,-214.355,-39.551,-45.410,-772.461,0.000,0
1606142147.380,108.887,-15.137,-20.996,390.625,0.000,0
1606142147.384,253.906,-3.418,-14.160,-936.523,0.000,0
1606142147.388,18.066,-25.879,-29.297,213.379,0.000,0
1606142147.392,-265.625,-41.504,-41.992,-944.336,0.000,0
1606142147.396,-241.211,-41.992,-38.086,-868.652,0.000,0
1606142147.400,73.730,-27.344,-10.742,272.949,0.000,0
1606142147.403,248.047,-17.578,-0.977,-914.551,0.000,0
1606142147.407,49.316,-29.297,-19.043,394.531,0.000,0
1606142147.411,-246.582,-52.246,-35.156,-807.617,0.000,0
1606142147.415,-268.555,-53.223,-32.715,-963.379,0.000,0
1606142147.419,29.297,-30.273,-18.555,131.348,0.000,0
1606142147.423,245.605,-12.207,-14.648,-922.852,0.000,0
1606142147.427,102.051,-21.973,-19.531,558.105,0.000,0
1606142147.431,-207.520,-47.363,-35.645,-643.555,0.000,0
1606142147.435,-284.668,-49.805,-32.715,-1000.000,0.000,0
1606142147.439,-14.160,-34.668,-9.277,-34.180,0.000,0
1606142147.442,239.746,-22.461,-5.859,-966.309,0.000,0
1606142147.446,148.926,-23.438,-10.742,683.105,0.000,0
1606142147.450,-170.410,-39.062,-25.879,-495.605,0.000,0
1606142147.454,-287.109,-43.945,-35.645,-1000.000,0.000,0
1606142147.458,-44.922,-24.902,-20.020,-212.891,0.000,0
1606142147.462,219.238,-10.254,-7.812,945.312,0.000,0
1606142147.466,178.223,-14.160,-11.719,793.457,0.000,0
1606142147.470,-134.766,-37.598,-33.203,-358.887,0.000,0
1606142147.474,-309.082,-57.129,-54.199,-1000.000,0.000,0
1606142147.478,-101.562,-35.645,-34.668,-406.250,0.000,0
1606142147.482,196.777,-14.160,-8.789,811.523,0.000,0
1606142147.485,197.266,-19.531,-2.930,883.301,0.000,0
1606142147.489,-108.887,-33.203,-18.555,-242.676,0.000,0
1606142147.493,-306.641,-41.992,-39.062,-1000.000,0.000,0
1606142147.497,-147.461,-38.086,-31.738,-569.824,0.000,0
1606142147.501,160.645,-21.973,-14.160,645.508,0.000,0
1606142147.505,221.191,-13.672,-6.836,975.098,0.000,0
1606142147.509,-62.500,-27.344,-25.879,-85.449,0.000,0
1606142147.513,-290.527,-41.016,-39.062,-1000.000,0.000,0
1606142147.517,-175.781,-36.133,-25.879,-691.406,0.000,0
1606142147.521,135.254,-18.066,-14.648,496.582,0.000,0
1606142147.525,237.793,-14.160,-15.137,-967.285,0.000,0
1606142147.528,-15.625,-40.039,-41.016,76.660,0.000,0
1606142147.532,-286.133,-57.129,-61.035,-1000.000,0.000,0
1606142147.536,-225.098,-44.922,-40.527,-803.711,0.000,0
1606142147.540,92.773,-27.832,-12.207,351.562,0.000,0
1606142147.544,242.188,-20.996,-6.348,-924.805,0.000,0
1606142147.548,26.367,-27.832,-15.625,276.367,0.000,0
1606142147.552,-262.695,-49.316,-26.855,-899.902,0.000,0
1606142147.556,-262.695,-56.152,-33.203,-911.133,0.000,0
1606142147.560,47.363,-26.367,-18.555,209.473,0.000,0
1606142147.564,247.070,-5.371,-0.977,-913.574,0.000,0
1606142147.567,64.941,-24.414,-14.648,448.242,0.000,0
1606142147.571,-240.723,-48.340,-36.133,-759.277,0.000,0
1606142147.575,-283.203,-50.293,-44.434,-992.676,0.000,0
1606142147.579,5.371,-30.273,-37.109,73.242,0.000,0
1606142147.583,236.328,-18.066,-17.578,-932.617,0.000,0
1606142147.587,111.816,-27.344,-20.508,591.309,0.000,0
1606142147.591,-202.148,-47.363,-39.062,-604.980,0.000,0
1606142147.595,-288.086,-46.875,-39.062,-1000.000,0.000,0
1606142147.599,-25.879,-26.855,-22.461,-88.379,0.000,0
1606142147.603,226.562,-15.625,-4.395,-994.141,0.000,0
1606142147.607,160.156,-15.137,-13.672,726.562,0.000,0
1606142147.610,-148.438,-26.367,-35.645,-440.918,0.000,0
1606142147.614,-295.410,-41.992,-37.109,-1000.000,0.000,0
1606142147.618,-83.008,-39.551,-19.531,-286.621,0.000,0
1606142147.622,188.477,-27.344,-7.812,895.996,0.000,0
1606142147.626,167.969,-26.367,-11.230,816.895,0.000,0
1606142147.630,-137.207,-42.480,-27.832,-334.473,0.000,0
1606142147.634,-299.316,-54.199,-34.668,-1000.000,0.000,0
1606142147.638,-121.582,-43.945,-23.438,-477.539,0.000,0
1606142147.642,164.062,-25.879,-0.977,746.582,0.000,0
1606142147.646,204.102,-20.508,5.859,917.969,0.000,0
1606142147.650,-98.633,-41.992,-25.391,-194.336,0.000,0
1606142147.653,-312.012,-54.199,-49.805,-1000.000,0.000,0
1606142147.657,-166.016,-36.621,-37.598,-610.840,0.000,0
1606142147.661,140.625,-15.625,-18.066,593.262,0.000,0
1606142147.665,216.797,-14.160,-12.207,989.258,0.000,0
1606142147.669,-54.688,-34.668,-24.902,-49.316,0.000,0
1606142147.673,-294.434,-55.664,-41.504,-1000.000,0.000,0
1606142147.677,-201.172,-50.781,-40.039,-738.281,0.000,0
1606142147.681,113.770,-19.043,-25.391,434.570,0.000,0
1606142147.685,236.816,-7.812,-17.090,-948.730,0.000,0
1606142147.689,-5.859,-29.297,-27.344,144.043,0.000,0
1606142147.692,-271.973,-46.875,-44.922,-984.863,0.000,0
1606142147.696,-232.910,-45.898,-44.922,-844.238,0.000,0
1606142147.700,77.637,-18.555,-30.273,299.805,0.000,0
1606142147.704,245.605,-1.953,-6.348,-916.504,0.000,0
1606142147.708,41.016,-27.344,-11.230,333.008,0.000,0
1606142147.712,-254.883,-49.316,-37.109,-858.887,0.000,0
1606142147.716,-268.555,-50.293,-41.992,-942.871,0.000,0
1606142147.720,26.855,-24.414,-23.438,155.273,0.000,0
1606142147.724,230.957,-0.977,-11.230,-917.480,0.000,0
1606142147.728,79.102,-18.066,-19.531,498.047,0.000,0
1606142147.732,-225.098,-37.598,-32.715,-711.426,0.000,0
1606142147.735,-289.551,-48.828,-45.898,-1000.000,0.000,0
1606142147.739,-9.277,-31.250,-30.762,20.996,0.000,0
1606142147.743,227.539,-13.184,-11.719,-950.195,0.000,0
1606142147.747,123.535,-25.879,-25.391,650.391,0.000,0
1606142147.751,-183.105,-41.016,-39.062,-529.297,0.000,0
1606142147.755,-291.992,-48.828,-41.992,-1000.000,0.000,0
1606142147.759,-45.410,-33.203,-20.020,-161.621,0.000,0
1606142147.763,219.238,-4.883,1.465,977.051,0.000,0
1606142147.767,160.645,-13.184,-6.836,756.348,0.000,0
1606142147.771,-154.297,-33.691,-27.344,-407.227,0.000,0
1606142147.775,-301.270,-35.645,-34.180,-1000.000,0.000,0
1606142147.778,-88.867,-20.996,-28.320,-344.727,0.000,0
1606142147.782,198.242,4.395,-9.766,854.980,0.000,0
1606142147.786,197.754,1.953,3.906,859.863,0.000,0
1606142147.790,-113.281,-33.691,-26.855,-277.344,0.000,0
1606142147.794,-305.664,-39.551,-52.246,-1000.000,0.000,0
1606142147.798,-130.859,-22.949,-35.156,-506.836,0.000,0
1606142147.802,168.945,0.488,-12.207,707.031,0.000,0
1606142147.806,211.426,4.395,-6.836,944.824,0.000,0
1606142147.810,-79.590,-25.391,-22.949,-143.555,0.000,0
1606142147.814,-304.688,-35.645,-38.574,-1000.000,0.000,0
1606142147.817,-180.664,-30.762,-32.227,-659.668,0.000,0
1606142147.821,128.418,-18.555,-17.090,534.668,0.000,0
1606142147.825,216.309,-19.531,-15.625,-982.422,0.000,0
1606142147.829,-47.363,-35.645,-32.227,26.367,0.000,0
1606142147.833,-298.828,-52.734,-42.969,-1000.000,0.000,0
1606142147.837,-222.656,-53.223,-38.574,-781.738,0.000,0
1606142147.841,94.727,-21.484,-27.832,380.859,0.000,0
1606142147.845,241.211,-4.883,-30.273,-934.570,0.000,0
1606142147.849,16.602,-30.762,-34.180,209.961,0.000,0
1606142147.853,-265.625,-46.387,-38.574,-947.266,0.000,0
1606142147.857,-239.746,-44.922,-39.062,-872.559,0.000,0
1606142147.860,67.871,-27.832,-23.926,262.695,0.000,0
1606142147.864,244.141,-13.672,-18.555,-916.504,0.000,0
1606142147.868,60.547,-28.809,-21.973,395.996,0.000,0
1606142147.872,-242.188,-47.363,-41.992,-806.152,0.000,0
1606142147.876,-264.160,-45.898,-51.270,-964.844,0.000,0
1606142147.880,42.480,-24.414,-26.855,125.000,0.000,0
1606142147.884,249.512,-12.695,-15.137,-925.293,0.000,0
1606142147.888,95.215,-25.391,-25.879,550.781,0.000,0
1606142147.892,-213.379,-37.598,-40.039,-646.484,0.000,0
1606142147.896,-286.133,-48.340,-53.223,-1000.000,0.000,0
1606142147.900,-20.020,-40.039,-39.551,-53.711,0.000,0
1606142147.903,224.121,-5.859,-24.902,-974.609,0.000,0
1606142147.907,137.695,-9.277,-28.809,672.363,0.000,0
1606142147.911,-170.410,-38.086,-35.645,-506.836,0.000,0
1606142147.915,-299.316,-47.363,-35.156,-1000.000,0.000,0
1606142147.919,-68.848,-30.762,-17.090,-221.680,0.000,0
1606142147.923,213.867,-19.531,5.859,942.871,0.000,0
1606142147.927,163.574,-26.367,-1.953,791.016,0.000,0
1606142147.931,-140.137,-44.434,-32.715,-370.605,0.000,0
1606142147.935,-299.805,-55.664,-43.945,-1000.000,0.000,0
1606142147.939,-124.023,-37.109,-29.785,-407.715,0.000,0
1606142147.942,170.898,-8.789,-11.230,795.410,0.000,0
1606142147.946,186.523,-13.672,-3.906,887.695,0.000,0
1606142147.950,-118.652,-34.668,-21.973,-239.746,0.000,0
1606142147.954,-322.754,-46.875,-38.574,-1000.000,0.000,0
1606142147.958,-170.898,-39.062,-35.645,-590.332,0.000,0
1606142147.962,137.207,-20.508,-20.996,621.582,0.000,0
1606142147.966,204.590,-17.090,-3.906,973.633,0.000,0
1606142147.970,-69.824,-29.297,-20.020,-91.797,0.000,0
1606142147.974,-297.852,-43.457,-40.039,-1000.000,0.000,0
1606142147.978,-190.918,-39.551,-33.691,-698.242,0.000,0
1606142147.982,121.582,-13.184,-21.484,481.934,0.000,0
1606142147.985,234.375,-7.324,-4.395,-961.426,0.000,0
1606142147.989,-20.996,-26.855,-7.812,89.355,0.000,0
1606142147.993,-295.410,-45.898,-34.668,-1000.000,0.000,0
1606142147.997,-232.910,-48.828,-30.762,-808.105,0.000,0
1606142148.001,82.031,-17.090,-9.277,347.168,0.000,0
1606142148.005,227.051,1.465,-0.488,-922.363,0.000,0
1606142148.009,28.320,-25.391,-11.719,290.039,0.000,0
1606142148.013,-253.906,-41.016,-32.715,-895.020,0.000,0
1606142148.017,-247.070,-37.109,-35.645,-904.297,0.000,0
1606142148.021,66.895,-22.461,-21.973,220.215,0.000,0
1606142148.025,251.953,-12.207,-7.812,-917.480,0.000,0
1606142148.028,79.590,-20.508,-20.020,456.055,0.000,0
1606142148.032,-219.238,-37.598,-43.457,-748.535,0.000,0
1606142148.036,-266.602,-46.875,-44.434,-992.676,0.000,0
1606142148.040,16.602,-11.719,-24.414,75.195,0.000,0
1606142148.044,235.840,8.789,-10.254,-935.059,0.000,0
1606142148.048,113.281,-20.996,-17.090,604.980,0.000,0
1606142148.052,-205.566,-42.969,-33.691,-585.938,0.000,0
1606142148.056,-295.898,-53.711,-40.039,-1000.000,0.000,0
1606142148.060,-21.973,-32.715,-32.227,-102.051,0.000,0
1606142148.064,215.820,-15.625,-20.020,-992.676,0.000,0
1606142148.067,133.301,-26.367,-20.996,715.820,0.000,0
1606142148.071,-177.246,-47.852,-44.922,-456.055,0.000,0
1606142148.075,-315.430,-65.430,-54.199,-1000.000,0.000,0
1606142148.079,-87.891,-24.414,-38.574,-290.527,0.000,0
1606142148.083,190.918,26.855,-28.809,896.973,0.000,0
1606142148.087,163.574,-6.836,-25.391,824.219,0.000,0
1606142148.091,-141.113,-42.480,-31.738,-328.613,0.000,0
1606142148.095,-315.918,-51.758,-40.039,-1000.000,0.000,0
1606142148.099,-136.230,-46.387,-37.109,-466.309,0.000,0
1606142148.103,160.156,-26.367,-26.855,742.188,0.000,0
1606142148.107,199.707,-21.973,-14.160,926.270,0.000,0
1606142148.110,-85.938,-29.785,-31.738,-178.223,0.000,0
1606142148.114,-297.363,-41.016,-44.922,-1000.000,0.000,0
1606142148.118,-149.414,-37.598,-29.785,-604.004,0.000,0
1606142148.122,161.621,-21.484,-7.812,601.562,0.000,0
1606142148.126,237.793,-13.184,-5.371,-993.652,0.000,0
1606142148.130,-34.180,-26.367,-23.438,-15.137,0.000,0
1606142148.134,-281.738,-44.922,-33.203,-1000.000,0.000,0
1606142148.138,-191.895,-39.062,-26.367,-739.746,0.000,0
1606142148.142,117.188,-9.277,-15.137,435.547,0.000,0
1606142148.146,236.328,-2.930,-5.371,-943.359,0.000,0
1606142148.150,4.883,-20.020,-22.461,157.227,0.000,0
1606142148.153,-272.461,-43.945,-41.504,-982.422,0.000,0
1606142148.157,-243.164,-53.223,-36.621,-842.773,0.000,0
1606142148.161,76.660,-33.691,-20.508,306.152,0.000,0
1606142148.165,245.605,-20.020,-12.207,-917.969,0.000,0
1606142148.169,40.527,-31.738,-22.949,337.402,0.000,0
1606142148.173,-247.559,-52.246,-37.109,-853.027,0.000,0
1606142148.177,-254.883,-56.641,-38.086,-939.453,0.000,0
1606142148.181,42.969,-27.344,-19.531,162.109,0.000,0
1606142148.185,243.164,-5.371,-0.977,-918.945,0.000,0
1606142148.189,92.285,-23.926,-16.602,510.254,0.000,0
1606142148.192,-208.008,-51.270,-40.527,-696.289,0.000,0
1606142148.196,-268.555,-56.641,-40.527,-1000.000,0.000,0
1606142148.200,8.301,-35.645,-17.090,13.184,0.000,0
1606142148.204,243.652,-12.695,-0.977,-948.242,0.000,0
1606142148.208,138.184,-18.555,-11.230,642.090,0.000,0
1606142148.212,-178.711,-44.922,-32.227,-546.875,0.000,0
1606142148.216,-282.715,-45.898,-44.434,-1000.000,0.000,0
1606142148.220,-31.250,-16.113,-23.926,-154.297,0.000,0
1606142148.224,228.516,-0.488,-6.836,975.586,0.000,0
1606142148.228,167.480,-18.555,-12.207,752.441,0.000,0
1606142148.232,-146.484,-40.527,-28.809,-413.574,0.000,0
1606142148.235,-297.363,-48.340,-44.434,-1000.000,0.000,0
1606142148.239,-78.613,-43.945,-37.109,-351.074,0.000,0
1606142148.243,197.266,-36.621,-18.066,853.516,0.000,0
1606142148.247,172.852,-31.250,-16.113,854.492,0.000,0
1606142148.251,-127.930,-41.504,-27.832,-287.109,0.000,0
1606142148.255,-307.129,-52.246,-36.133,-1000.000,0.000,0
1606142148.259,-133.789,-41.016,-31.738,-518.066,0.000,0
1606142148.263,172.852,-17.090,-8.789,696.777,0.000,0
1606142148.267,217.285,-16.602,-10.254,958.008,0.000,0
1606142148.271,-75.684,-38.086,-29.785,-122.070,0.000,0
1606142148.275,-303.223,-53.223,-43.457,-1000.000,0.000,0
1606142148.278,-181.641,-44.434,-40.527,-663.574,0.000,0
1606142148.282,125.977,3.418,-25.391,531.738,0.000,0
1606142148.286,218.750,6.836,-11.719,-978.027,0.000,0
1606142148.290,-30.762,-32.715,-14.648,33.691,0.000,0
1606142148.294,-279.785,-50.781,-41.016,-1000.000,0.000,0
1606142148.298,-208.496,-45.410,-40.527,-770.996,0.000,0
1606142148.302,103.027,-19.531,-10.254,396.973,0.000,0
1606142148.306,238.281,-14.160,-12.695,-936.523,0.000,0
1606142148.310,12.695,-28.809,-25.879,224.121,0.000,0
1606142148.314,-261.230,-42.480,-33.203,-934.082,0.000,0
1606142148.317,-236.328,-45.410,-38.574,-874.512,0.000,0
1606142148.321,63.965,-14.160,-18.066,265.625,0.000,0
1606142148.325,255.859,1.465,-9.766,-914.062,0.000,0
1606142148.329,85.449,-16.602,-20.996,414.062,0.000,0
1606142148.333,-234.863,-39.551,-39.062,-794.922,0.000,0
1606142148.337,-263.184,-52.246,-37.109,-958.008,0.000,0
1606142148.341,39.551,-33.203,-17.578,140.137,0.000,0
1606142148.345,246.094,-15.625,-7.812,-923.340,0.000,0
1606142148.349,101.074,-25.391,-14.648,567.871,0.000,0
1606142148.353,-208.496,-46.875,-38.574,-635.254,0.000,0
1606142148.357,-283.691,-51.270,-44.922,-1000.000,0.000,0
1606142148.360,-14.160,-22.461,-28.320,-29.785,0.000,0
1606142148.364,223.633,-3.418,-17.578,-966.797,0.000,0
1606142148.368,130.859,-18.555,-16.113,684.570,0.000,0
1606142148.372,-179.688,-38.086,-28.320,-489.258,0.000,0
1606142148.376,-303.711,-49.316,-42.480,-1000.000,0.000,0
1606142148.380,-62.988,-34.668,-30.273,-235.840,0.000,0
1606142148.384,216.797,-16.602,-10.742,934.570,0.000,0
1606142148.388,194.824,-24.902,-14.648,803.711,0.000,0
1606142148.392,-125.488,-38.086,-30.762,-351.562,0.000,0
1606142148.396,-312.500,-48.340,-38.574,-1000.000,0.000,0
1606142148.400,-114.258,-44.922,-22.461,-407.715,0.000,0
1606142148.403,174.805,-22.461,-5.371,805.664,0.000,0
1606142148.407,184.570,-14.648,-5.371,890.137,0.000,0
1606142148.411,-116.699,-35.156,-27.832,-234.375,0.000,0
1606142148.415,-316.895,-57.129,-44.922,-1000.000,0.000,0
1606142148.419,-162.109,-46.875,-35.645,-573.730,0.000,0
1606142148.423,144.531,-18.555,-20.996,637.207,0.000,0
1606142148.427,209.961,-17.578,-13.672,979.004,0.000,0
1606142148.431,-64.941,-35.156,-24.902,-75.684,0.000,0
1606142148.435,-287.598,-48.340,-39.062,-1000.000,0.000,0
1606142148.439,-179.199,-43.457,-37.109,-699.219,0.000,0
1606142148.442,124.512,-27.344,-14.160,482.910,0.000,0
1606142148.446,236.816,-17.578,1.953,-960.449,0.000,0
1606142148.450,-8.789,-29.297,-17.090,100.098,0.000,0
1606142148.454,-267.578,-42.969,-36.133,-1000.000,0.000,0
1606142148.458,-207.520,-37.109,-34.180,-807.617,0.000,0
1606142148.462,97.656,-34.180,-17.090,349.121,0.000,0
1606142148.466,244.141,-25.391,-8.789,-923.828,0.000,0
1606142148.470,34.668,-29.785,-19.531,288.574,0.000,0
1606142148.474,-242.188,-47.363,-37.109,-892.090,0.000,0
1606142148.478,-235.352,-45.898,-38.574,-909.180,0.000,0
1606142148.482,60.059,-28.320,-20.996,210.938,0.000,0
1606142148.485,246.582,-18.555,-7.812,-914.551,0.000,0
1606142148.489,75.195,-32.227,-15.625,461.914,0.000,0
1606142148.493,-225.098,-47.852,-38.086,-749.023,0.000,0
1606142148.497,-266.113,-41.992,-41.992,-991.699,0.000,0
1606142148.501,17.578,-31.250,-22.461,78.613,0.000,0
1606142148.505,233.398,-19.531,-9.277,-933.105,0.000,0
1606142148.509,115.234,-17.578,-12.695,601.562,0.000,0
1606142148.513,-186.035,-39.551,-40.039,-590.820,0.000,0
1606142148.517,-283.691,-46.387,-47.852,-1000.000,0.000,0
1606142148.521,-11.719,-24.902,-21.484,-98.633,0.000,0
1606142148.525,240.234,-6.836,-13.672,-991.699,0.000,0
1606142148.528,140.137,-17.090,-24.414,717.285,0.000,0
1606142148.532,-166.992,-42.480,-41.016,-452.637,0.000,0
1606142148.536,-291.016,-44.434,-46.387,-1000.000,0.000,0
1606142148.540,-66.895,-26.367,-30.273,-299.316,0.000,0
1606142148.544,205.078,-14.648,-11.719,888.672,0.000,0
1606142148.548,186.523,-16.602,-7.812,829.102,0.000,0
1606142148.552,-121.582,-38.086,-30.273,-322.266,0.000,0
1606142148.556,-299.316,-49.316,-45.898,-1000.000,0.000,0
1606142148.560,-123.535,-43.945,-28.809,-484.863,0.000,0
1606142148.564,166.992,-31.738,-8.789,740.723,0.000,0
1606142148.567,201.172,-17.090,-4.395,923.828,0.000,0
1606142148.571,-90.332,-32.715,-23.926,-186.523,0.000,0
1606142148.575,-300.293,-46.875,-39.551,-1000.000,0.000,0
1606142148.579,-158.691,-36.133,-30.762,-617.188,0.000,0
1606142148.583,144.531,-16.602,-8.301,589.844,0.000,0
1606142148.587,208.008,-18.066,-3.418,-998.535,0.000,0
1606142148.591,-69.336,-40.039,-27.344,-26.855,0.000,0
1606142148.595,-305.664,-50.293,-44.922,-1000.000,0.000,0
1606142148.599,-210.449,-52.246,-36.133,-735.840,0.000,0
1606142148.603,96.680,-49.805,-12.695,433.594,0.000,0
1606142148.607,218.750,-33.203,-5.859,-945.312,0.000,0
1606142148.610,-2.930,-27.832,-20.996,159.180,0.000,0
1606142148.614,-250.000,-37.598,-34.180,-979.980,0.000,0
1606142148.618,-222.168,-41.504,-34.668,-843.262,0.000,0
1606142148.622,73.730,-22.461,-16.113,304.199,0.000,0
1606142148.626,239.258,-11.230,-7.324,-916.016,0.000,0
1606142148.630,41.992,-29.297,-20.020,352.051,0.000,0
1606142148.634,-242.676,-49.316,-39.062,-848.633,0.000,0
1606142148.638,-253.906,-48.828,-40.527,-933.594,0.000,0
1606142148.642,41.992,-25.879,-18.066,178.711,0.000,0
1606142148.646,234.375,-16.113,-11.230,-917.480,0.000,0
1606142148.650,75.195,-29.785,-29.785,508.301,0.000,0
1606142148.653,-220.703,-42.480,-41.016,-699.219,0.000,0
1606142148.657,-273.926,-44.922,-36.133,-1000.000,0.000,0
1606142148.661,2.930,-31.250,-19.043,20.508,0.000,0
1606142148.665,231.445,-18.066,-10.742,-947.754,0.000,0
1606142148.669,116.699,-27.344,-24.902,643.066,0.000,0
1606142148.673,-195.312,-47.363,-40.039,-540.527,0.000,0
1606142148.677,-297.852,-54.688,-41.016,-1000.000,0.000,0
1606142148.681,-48.828,-35.645,-21.973,-166.016,0.000,0
1606142148.685,209.473,-14.648,-4.883,972.656,0.000,0
1606142148.689,155.762,-12.207,-17.090,760.742,0.000,0
1606142148.692,-148.438,-27.832,-39.551,-401.855,0.000,0
1606142148.696,-302.246,-41.992,-46.875,-1000.000,0.000,0
1606142148.700,-99.121,-34.668,-34.668,-357.910,0.000,0
1606142148.704,187.988,-17.578,-10.254,851.562,0.000,0
1606142148.708,179.688,-16.113,-6.836,856.445,0.000,0
1606142148.712,-116.211,-35.156,-39.062,-281.738,0.000,0
1606142148.716,-309.570,-50.781,-44.922,-1000.000,0.000,0
1606142148.720,-151.855,-37.109,-25.391,-525.391,0.000,0
1606142148.724,151.855,-17.090,-15.137,695.312,0.000,0
1606142148.728,192.383,-13.672,-9.766,953.613,0.000,0
1606142148.732,-83.496,-27.832,-24.902,-125.000,0.000,0
1606142148.735,-292.969,-41.992,-40.039,-1000.000,0.000,0
1606142148.739,-168.945,-24.414,-30.762,-657.715,0.000,0
1606142148.743,130.859,-0.977,-12.207,534.668,0.000,0
1606142148.747,223.145,-14.160,-6.836,-979.492,0.000,0
1606142148.751,-34.668,-33.691,-29.297,27.832,0.000,0
1606142148.755,-284.180,-45.410,-40.527,-1000.000,0.000,0
1606142148.759,-208.496,-44.434,-37.109,-778.320,0.000,0
1606142148.763,93.262,-24.414,-22.949,379.395,0.000,0
1606142148.767,229.004,-8.301,-8.301,-933.594,0.000,0
1606142148.771,9.766,-18.066,-27.344,225.586,0.000,0
1606142148.775,-272.461,-41.504,-54.688,-937.012,0.000,0
1606142148.778,-252.930,-31.738,-55.664,-880.371,0.000,0
1606142148.782,58.105,5.859,-30.762,252.441,0.000,0
1606142148.786,240.723,-0.977,-13.184,-913.574,0.000,0
1606142148.790,56.152,-27.832,-22.461,400.879,0.000,0
1606142148.794,-228.027,-39.551,-34.180,-804.688,0.000,0
1606142148.798,-249.023,-33.691,-38.574,-966.797,0.000,0
1606142148.802,18.555,-15.625,-24.902,117.676,0.000,0
1606142148.806,227.539,-2.441,-6.836,-926.270,0.000,0
1606142148.810,85.938,-15.137,-17.578,553.223,0.000,0
1606142148.814,-220.215,-45.410,-38.086,-648.438,0.000,0
1606142148.817,-292.969,-45.410,-37.109,-1000.000,0.000,0
1606142148.821,-21.973,-23.438,-16.113,-41.504,0.000,0
1606142148.825,227.539,-6.836,-2.441,-970.215,0.000,0
1606142148.829,135.254,-8.789,-17.090,687.012,0.000,0
1606142148.833,-170.410,-34.180,-34.180,-488.281,0.000,0
1606142148.837,-288.574,-51.758,-36.133,-1000.000,0.000,0
1606142148.841,-67.383,-21.484,-30.762,-240.723,0.000,0
1606142148.845,203.125,17.090,-16.113,933.105,0.000,0
1606142148.849,171.875,1.953,-13.672,794.434,0.000,0
1606142148.853,-134.766,-28.809,-36.133,-363.770,0.000,0
1606142148.857,-303.711,-44.922,-43.457,-1000.000,0.000,0
1606142148.860,-112.305,-32.715,-21.973,-405.762,0.000,0
1606142148.864,184.570,-15.137,1.465,807.129,0.000,0
1606142148.868,196.777,-19.531,0.977,889.160,0.000,0
1606142148.872,-104.492,-41.016,-28.809,-233.887,0.000,0
1606142148.876,-307.617,-59.570,-46.387,-1000.000,0.000,0
1606142148.880,-141.602,-35.156,-34.668,-567.871,0.000,0
1606142148.884,158.691,-10.254,-17.578,644.043,0.000,0
1606142148.888,199.219,-20.996,-16.602,980.957,0.000,0
1606142148.892,-68.848,-41.992,-23.926,-73.242,0.000,0
1606142148.896,-290.039,-58.594,-32.715,-1000.000,0.000,0
1606142148.900,-174.805,-39.062,-27.832,-692.383,0.000,0
1606142148.903,131.348,-16.113,-9.766,488.770,0.000,0
1606142148.907,234.375,-14.648,-12.695,-958.008,0.000,0
1606142148.911,-5.371,-28.809,-29.297,104.492,0.000,0
1606142148.915,-259.766,-47.852,-39.062,-1000.000,0.000,0
1606142148.919,-198.242,-29.297,-38.574,-799.805,0.000,0
1606142148.923,114.746,4.883,-20.508,362.305,0.000,0
1606142148.927,251.953,-10.742,-11.230,-926.758,0.000,0
1606142148.931,29.785,-33.691,-31.738,272.461,0.000,0
1606142148.935,-250.488,-52.246,-47.363,-901.855,0.000,0
1606142148.939,-241.699,-42.969,-36.133,-905.273,0.000,0
1606142148.942,54.199,-11.719,-14.648,214.844,0.000,0
1606142148.946,235.840,-8.789,-0.977,-914.062,0.000,0
1606142148.950,68.848,-17.578,-8.301,467.285,0.000,0
1606142148.954,-224.121,-40.039,-41.504,-745.605,0.000,0
1606142148.958,-260.742,-38.574,-47.363,-991.699,0.000,0
1606142148.962,26.367,-20.996,-19.531,79.590,0.000,0
1606142148.966,244.141,-13.672,-6.836,-934.570,0.000,0
1606142148.970,119.141,-19.531,-11.719,605.957,0.000,0
1606142148.974,-194.336,-43.945,-39.551,-584.961,0.000,0
1606142148.978,-274.902,-46.387,-48.340,-1000.000,0.000,0
1606142148.982,-17.578,-11.230,-21.973,-96.680,0.000,0
1606142148.985,212.402,-8.301,-4.883,-991.699,0.000,0
1606142148.989,145.020,-25.391,-7.324,722.168,0.000,0
1606142148.993,-162.598,-41.504,-27.832,-444.336,0.000,0
1606142148.997,-304.688,-57.129,-36.621,-1000.000,0.000,0
1606142149.001,-79.590,-48.340,-24.902,-285.645,0.000,0
1606142149.005,199.219,-27.344,-12.207,897.949,0.000,0
1606142149.009,173.340,-20.020,-7.812,831.543,0.000,0
1606142149.013,-129.395,-39.062,-29.297,-317.383,0.000,0
1606142149.017,-295.898,-51.270,-43.457,-1000.000,0.000,0
1606142149.021,-123.535,-23.926,-40.039,-467.773,0.000,0
1606142149.025,155.762,15.625,-25.879,744.629,0.000,0
1606142149.028,191.406,-6.348,-9.766,916.992,0.000,0
1606142149.032,-89.844,-39.551,-28.320,-188.477,0.000,0
1606142149.036,-297.852,-43.457,-55.176,-1000.000,0.000,0
1606142149.040,-157.227,-31.250,-40.039,-611.816,0.000,0
1606142149.044,145.020,-16.113,-9.277,591.309,0.000,0
1606142149.048,215.332,-18.555,-9.766,-999.512,0.000,0
1606142149.052,-55.176,-36.133,-31.250,-24.414,0.000,0
1606142149.056,-284.668,-48.828,-41.016,-1000.000,0.000,0
1606142149.060,-178.711,-35.645,-30.273,-721.191,0.000,0
1606142149.064,111.816,-21.484,-14.648,453.613,0.000,0
1606142149.067,229.004,-26.367,-12.207,-946.777,0.000,0
1606142149.071,4.395,-35.156,-23.438,164.062,0.000,0
1606142149.075,-264.648,-47.363,-38.574,-977.539,0.000,0
1606142149.079,-225.586,-31.250,-49.316,-840.332,0.000,0
1606142149.083,85.938,-7.812,-32.227,312.500,0.000,0
1606142149.087,238.281,-11.719,-17.578,-920.410,0.000,0
1606142149.091,29.297,-25.879,-26.855,342.773,0.000,0
1606142149.095,-250.000,-42.480,-41.992,-846.680,0.000,0
1606142149.099,-252.930,-44.434,-40.527,-931.152,0.000,0
1606142149.103,38.574,-32.227,-20.508,175.293,0.000,0
1606142149.107,238.770,-23.926,-2.930,-919.922,0.000,0
1606142149.110,92.773,-29.297,-9.277,520.020,0.000,0
1606142149.114,-207.520,-48.828,-33.691,-687.012,0.000,0
1606142149.118,-268.066,-54.199,-40.039,-1000.000,0.000,0
1606142149.122,7.324,-10.742,-21.973,13.184,0.000,0
1606142149.126,236.328,0.488,-10.254,-951.172,0.000,0
1606142149.130,128.906,-30.762,-18.066,644.531,0.000,0
1606142149.134,-183.105,-49.805,-37.109,-543.457,0.000,0
1606142149.138,-287.598,-54.199,-41.016,-1000.000,0.000,0
1606142149.142,-39.062,-33.691,-23.438,-144.531,0.000,0
1606142149.146,213.379,-17.578,-12.207,978.027,0.000,0
1606142149.150,149.414,-26.855,-18.066,757.812,0.000,0
1606142149.153,-161.133,-46.875,-38.086,-403.809,0.000,0
1606142149.157,-297.363,-55.664,-56.641,-1000.000,0.000,0
1606142149.161,-82.520,-33.691,-44.434,-349.121,0.000,0
1606142149.165,179.688,-15.625,-16.113,851.562,0.000,0
1606142149.169,173.828,-20.996,-11.230,860.352,0.000,0
1606142149.173,-123.047,-32.227,-26.367,-274.902,0.000,0
1606142149.177,-310.059,-44.434,-41.504,-1000.000,0.000,0
1606142149.181,-146.484,-39.062,-39.551,-528.320,0.000,0
1606142149.185,154.785,-19.531,-13.672,691.895,0.000,0
1606142149.189,203.613,-13.184,-5.859,947.754,0.000,0
1606142149.192,-86.426,-34.668,-28.320,-143.066,0.000,0
1606142149.196,-309.570,-53.711,-43.457,-1000.000,0.000,0
1606142149.200,-184.570,-38.086,-45.898,-651.367,0.000,0
1606142149.204,125.488,-12.695,-28.809,542.969,0.000,0
1606142149.208,221.680,-11.719,-10.742,-982.910,0.000,0
1606142149.212,-35.156,-35.645,-28.809,22.949,0.000,0
1606142149.216,-288.574,-58.105,-53.711,-1000.000,0.000,0
1606142149.220,-209.473,-36.621,-43.457,-764.648,0.000,0
1606142149.224,107.910,-4.395,-17.578,400.391,0.000,0
1606142149.228,237.793,-17.090,-12.695,-934.082,0.000,0
1606142149.232,2.930,-41.992,-29.785,223.633,0.000,0
1606142149.235,-266.113,-48.828,-43.457,-939.941,0.000,0
1606142149.239,-236.328,-31.738,-43.457,-870.117,0.000,0
1606142149.243,62.500,-18.555,-24.414,270.508,0.000,0
1606142149.247,241.211,-11.719,-18.555,-915.039,0.000,0
1606142149.251,60.547,-22.949,-24.902,395.996,0.000,0
1606142149.255,-235.840,-48.828,-39.062,-803.223,0.000,0
1606142149.259,-264.648,-36.133,-50.293,-970.215,0.000,0
1606142149.263,21.484,-6.348,-31.738,112.305,0.000,0
1606142149.267,239.746,-6.348,-18.066,-926.270,0.000,0
1606142149.271,111.328,-21.973,-22.461,553.223,0.000,0
1606142149.275,-212.891,-43.945,-41.016,-647.949,0.000,0
1606142149.278,-298.340,-48.828,-48.340,-1000.000,0.000,0
1606142149.282,-24.414,-29.297,-16.602,-40.527,0.000,0
1606142149.286,218.750,-13.184,-5.859,-969.727,0.000,0
1606142149.290,125.488,-20.020,-17.578,680.176,0.000,0
1606142149.294,-180.176,-39.062,-29.297,-497.559,0.000,0
1606142149.298,-297.852,-41.992,-39.062,-1000.000,0.000,0
1606142149.302,-63.965,-10.742,-28.809,-216.797,0.000,0
1606142149.306,205.078,3.906,-7.324,942.871,0.000,0
1606142149.310,158.203,-16.113,-8.789,783.203,0.000,0
1606142149.314,-153.320,-32.715,-36.621,-376.953,0.000,0
1606142149.317,-310.059,-45.410,-48.828,-1000.000,0.000,0
1606142149.321,-105.957,-35.156,-39.551,-413.086,0.000,0
1606142149.325,182.129,-16.602,-24.902,797.852,0.000,0
1606142149.329,193.848,-15.625,-12.695,891.113,0.000,0
1606142149.333,-103.027,-41.016,-28.320,-230.957,0.000,0
1606142149.337,-306.641,-57.617,-49.805,-1000.000,0.000,0
1606142149.341,-141.113,-39.551,-43.945,-562.012,0.000,0
1606142149.345,166.016,-23.926,-23.438,655.273,0.000,0
1606142149.349,212.891,-20.508,-17.578,975.586,0.000,0
1606142149.353,-63.965,-39.062,-40.039,-85.938,0.000,0
1606142149.357,-294.922,-57.617,-49.316,-1000.000,0.000,0
1606142149.360,-182.129,-38.574,-41.992,-691.406,0.000,0
1606142149.364,129.883,-21.973,-23.926,489.258,0.000,0
1606142149.368,240.234,-22.949,-16.113,-965.332,0.000,0
1606142149.372,-6.348,-32.227,-29.297,87.891,0.000,0
1606142149.376,-265.137,-51.270,-47.363,-1000.000,0.000,0
1606142149.380,-207.031,-52.734,-52.734,-806.641,0.000,0
1606142149.384,104.492,-26.855,-32.227,348.145,0.000,0
1606142149.388,251.953,-10.742,-17.578,-924.805,0.000,0
1606142149.392,35.156,-24.414,-30.273,288.574,0.000,0
1606142149.396,-243.652,-49.316,-46.387,-891.113,0.000,0
1606142149.400,-237.793,-40.527,-50.293,-904.785,0.000,0
1606142149.403,56.641,-0.977,-30.762,217.773,0.000,0
1606142149.407,261.719,-0.488,-5.859,-916.504,0.000,0
1606142149.411,82.520,-28.320,-12.207,455.566,0.000,0
1606142149.415,-236.328,-50.293,-39.062,-751.465,0.000,0
1606142149.419,-261.719,-46.875,-45.898,-984.863,0.000,0
1606142149.423,29.297,-22.461,-26.367,84.961,0.000,0
1606142149.427,244.629,-14.648,-15.137,-936.035,0.000,0
1606142149.431,111.816,-22.949,-15.625,607.910,0.000,0
1606142149.435,-198.730,-41.504,-36.621,-586.914,0.000,0
1606142149.439,-286.621,-49.316,-38.574,-1000.000,0.000,0
1606142149.442,-20.508,-21.484,-15.625,-74.707,0.000,0
1606142149.446,230.469,-8.301,-10.742,-987.305,0.000,0
1606142149.450,161.621,-16.113,-14.648,711.914,0.000,0
1606142149.454,-167.969,-31.250,-38.574,-458.008,0.000,0
1606142149.458,-323.242,-34.180,-64.941,-1000.000,0.000,0
1606142149.462,-89.844,-16.602,-55.664,-313.965,0.000,0
1606142149.466,184.082,-0.977,-37.109,884.766,0.000,0
1606142149.470,151.367,-9.277,-41.016,812.012,0.000,0
1606142149.474,-152.344,-29.785,-56.641,-347.656,0.000,0
1606142149.478,-315.918,-29.297,-76.660,-1000.000,0.000,0
1606142149.482,-118.652,-4.883,-66.406,-478.516,0.000,0
1606142149.485,177.734,11.230,-33.203,747.559,0.000,0
1606142149.489,192.383,0.000,-29.297,909.180,0.000,0
1606142149.493,-102.539,-24.902,-50.293,-207.031,0.000,0
1606142149.497,-301.758,-36.133,-65.430,-1000.000,0.000,0
1606142149.501,-146.484,-15.137,-61.035,-617.188,0.000,0
1606142149.505,146.973,1.465,-41.016,587.402,0.000,0
1606142149.509,215.820,-9.766,-31.250,992.188,0.000,0
1606142149.513,-40.039,-20.508,-47.852,-35.645,0.000,0
1606142149.517,-273.926,-31.738,-61.523,-1000.000,0.000,0
1606142149.521,-183.105,-29.785,-56.152,-732.422,0.000,0
1606142149.525,128.418,-13.672,-32.715,440.430,0.000,0
1606142149.528,250.000,-8.301,-20.996,-946.289,0.000,0
1606142149.532,23.926,-20.508,-36.133,158.691,0.000,0
1606142149.536,-250.000,-41.504,-55.176,-981.934,0.000,0
1606142149.540,-215.820,-23.438,-50.293,-833.984,0.000,0
1606142149.544,93.750,-0.977,-29.785,314.453,0.000,0
1606142149.548,249.512,-8.789,-15.625,-919.434,0.000,0
1606142149.552,54.688,-18.555,-27.832,349.609,0.000,0
1606142149.556,-235.840,-41.504,-56.641,-847.168,0.000,0
1606142149.560,-248.047,-40.039,-60.059,-930.176,0.000,0
1606142149.564,57.617,-14.160,-37.598,181.152,0.000,0
1606142149.567,252.441,-8.789,-20.996,-917.969,0.000,0
1606142149.571,94.727,-15.625,-25.879,513.184,0.000,0
1606142149.575,-211.426,-39.062,-47.363,-697.266,0.000,0
1606142149.579,-269.531,-34.180,-52.246,-1000.000,0.000,0
1606142149.583,9.766,11.230,-34.180,27.344,0.000,0
1606142149.587,238.281,3.906,-10.742,-951.660,0.000,0
1606142149.591,129.883,-25.879,-20.996,640.625,0.000,0
1606142149.595,-179.688,-42.480,-49.805,-543.457,0.000,0
1606142149.599,-271.484,-45.898,-61.523,-1000.000,0.000,0
1606142149.603,-26.367,-29.297,-45.898,-162.598,0.000,0
1606142149.607,214.355,-15.625,-16.602,974.121,0.000,0
1606142149.610,155.762,-23.926,-19.043,754.395,0.000,0
1606142149.614,-156.738,-49.316,-41.992,-411.621,0.000,0
1606142149.618,-301.270,-52.734,-50.293,-1000.000,0.000,0
1606142149.622,-83.984,-35.645,-35.156,-346.191,0.000,0
1606142149.626,200.195,-20.996,-19.043,856.934,0.000,0
1606142149.630,184.570,-20.508,-26.367,850.098,0.000,0
1606142149.634,-121.582,-41.504,-47.852,-290.527,0.000,0
1606142149.638,-301.758,-54.688,-55.176,-1000.000,0.000,0
1606142149.642,-130.371,-22.461,-41.504,-521.484,0.000,0
1606142149.646,170.410,-6.836,-12.207,698.242,0.000,0
1606142149.650,215.820,-16.602,-9.277,941.895,0.000,0
1606142149.653,-76.172,-28.320,-39.551,-149.414,0.000,0
1606142149.657,-295.898,-46.875,-57.617,-1000.000,0.000,0
1606142149.661,-169.434,-40.527,-47.363,-662.598,0.000,0
1606142149.665,143.066,-14.160,-16.602,529.785,0.000,0
1606142149.669,244.629,-7.812,-7.324,-982.422,0.000,0
1606142149.673,-23.926,-22.461,-19.043,27.344,0.000,0
1606142149.677,-279.785,-43.945,-31.250,-1000.000,0.000,0
1606142149.681,-201.660,-16.602,-36.621,-769.531,0.000,0
1606142149.685,107.910,17.090,-18.555,395.508,0.000,0
1606142149.689,246.582,-6.348,-6.836,-934.570,0.000,0
1606142149.692,22.461,-28.809,-20.996,222.168,0.000,0
1606142149.696,-257.324,-48.828,-41.992,-940.430,0.000,0
1606142149.700,-232.422,-47.363,-34.668,-868.164,0.000,0
1606142149.704,72.266,-23.926,-16.113,273.926,0.000,0
1606142149.708,237.793,-17.578,-9.766,-917.480,0.000,0
1606142149.712,44.922,-30.762,-22.949,383.789,0.000,0
1606142149.716,-230.469,-51.758,-51.270,-809.082,0.000,0
1606142149.720,-258.301,-42.480,-46.875,-968.262,0.000,0
1606142149.724,10.742,-14.648,-26.367,113.281,0.000,0
1606142149.728,228.027,-18.066,-23.438,-928.711,0.000,0
1606142149.732,88.379,-32.715,-24.902,550.781,0.000,0
1606142149.735,-213.379,-48.340,-33.203,-644.043,0.000,0
1606142149.739,-282.715,-45.898,-48.828,-1000.000,0.000,0
1606142149.743,-12.695,-25.879,-31.738,-33.691,0.000,0
1606142149.747,232.422,-8.789,-14.160,-966.797,0.000,0
1606142149.751,136.719,-16.602,-29.785,679.199,0.000,0
1606142149.755,-180.176,-37.109,-50.781,-497.070,0.000,0
1606142149.759,-297.852,-41.504,-55.176,-1000.000,0.000,0
1606142149.763,-60.547,-24.902,-36.133,-212.891,0.000,0
1606142149.767,201.660,-8.789,-16.602,948.242,0.000,0
1606142149.771,154.297,-9.277,-12.695,777.344,0.000,0
1606142149.775,-151.367,-35.645,-31.250,-383.789,0.000,0
1606142149.778,-323.730,-55.176,-51.758,-1000.000,0.000,0
1606142149.782,-127.441,-20.020,-43.457,-407.227,0.000,0
1606142149.786,175.293,0.977,-20.508,804.688,0.000,0
1606142149.790,193.359,-19.531,-10.254,889.648,0.000,0
1606142149.794,-101.562,-43.945,-25.879,-234.375,0.000,0
1606142149.798,-304.199,-55.176,-46.387,-1000.000,0.000,0
1606142149.802,-149.902,-42.480,-41.016,-564.941,0.000,0
1606142149.806,154.297,-27.344,-19.043,645.508,0.000,0
1606142149.810,215.820,-26.367,-15.137,974.121,0.000,0
1606142149.814,-65.918,-47.363,-32.227,-83.984,0.000,0
1606142149.817,-297.852,-62.988,-48.340,-1000.000,0.000,0
1606142149.821,-186.035,-35.645,-40.527,-695.801,0.000,0
1606142149.825,120.605,-17.090,-18.066,484.863,0.000,0
1606142149.829,233.398,-23.926,-11.230,-960.449,0.000,0
1606142149.833,-28.320,-37.109,-30.762,99.121,0.000,0
1606142149.837,-294.434,-53.223,-46.875,-1000.000,0.000,0
1606142149.841,-220.703,-42.969,-37.109,-798.340,0.000,0
1606142149.845,84.961,-27.832,-16.113,363.281,0.000,0
1606142149.849,229.980,-22.949,-14.648,-927.734,0.000,0
1606142149.853,23.438,-36.621,-28.809,273.926,0.000,0
1606142149.857,-255.371,-62.012,-36.621,-901.855,0.000,0
1606142149.860,-251.953,-45.898,-38.574,-899.902,0.000,0
1606142149.864,49.805,-13.672,-24.902,225.098,0.000,0
1606142149.868,239.746,-14.648,-8.789,-917.480,0.000,0
1606142149.872,69.336,-27.344,-20.020,449.219,0.000,0
1606142149.876,-225.098,-42.480,-36.133,-751.465,0.000,0
1606142149.880,-269.043,-49.316,-42.969,-992.188,0.000,0
1606142149.884,20.996,-34.180,-28.809,71.289,0.000,0
1606142149.888,240.723,-11.719,-12.207,-934.570,0.000,0
1606142149.892,122.559,-17.578,-23.438,593.750,0.000,0
1606142149.896,-183.594,-45.410,-46.387,-600.098,0.000,0
1606142149.900,-293.945,-53.711,-48.828,-1000.000,0.000,0
1606142149.903,-26.367,-32.227,-27.344,-85.938,0.000,0
1606142149.907,227.051,-10.254,-11.719,-991.211,0.000,0
1606142149.911,150.879,-15.137,-14.160,722.168,0.000,0
1606142149.915,-161.133,-45.410,-31.250,-442.871,0.000,0
1606142149.919,-298.828,-45.898,-52.734,-1000.000,0.000,0
1606142149.923,-72.266,-14.160,-42.480,-290.527,0.000,0
1606142149.927,203.613,-9.277,-13.672,898.438,0.000,0
1606142149.931,175.781,-19.531,-10.742,819.336,0.000,0
1606142149.935,-131.836,-41.992,-28.809,-334.961,0.000,0
1606142149.939,-300.781,-55.176,-39.551,-1000.000,0.000,0
1606142149.942,-108.887,-36.133,-30.762,-453.125,0.000,0
1606142149.946,195.312,-13.672,-11.230,760.254,0.000,0
1606142149.950,208.984,-18.555,-10.254,916.992,0.000,0
1606142149.954,-93.262,-42.480,-33.691,-189.941,0.000,0
1606142149.958,-296.387,-54.199,-52.246,-1000.000,0.000,0
1606142149.962,-160.156,-20.508,-48.828,-620.117,0.000,0
1606142149.966,144.043,1.465,-22.949,584.961,0.000,0
1606142149.970,222.656,-17.090,-11.719,997.559,0.000,0
1606142149.974,-44.434,-36.133,-35.645,-34.180,0.000,0
1606142149.978,-292.969,-50.781,-57.617,-1000.000,0.000,0
1606142149.982,-201.172,-41.992,-42.969,-732.422,0.000,0
1606142149.985,117.676,-20.508,-10.742,445.312,0.000,0
1606142149.989,235.840,-10.254,-8.301,-951.660,0.000,0
1606142149.993,-5.859,-33.691,-31.738,140.625,0.000,0
1606142149.997,-273.926,-49.316,-47.852,-984.375,0.000,0
1606142150.001,-214.844,-31.250,-50.293,-838.379,0.000,0
1606142150.005,93.262,-14.648,-30.273,308.105,0.000,0
1606142150.009,237.305,-6.836,-10.742,-921.387,0.000,0
1606142150.013,40.527,-20.508,-20.508,322.266,0.000,0
1606142150.017,-250.000,-47.363,-41.992,-864.258,0.000,0
1606142150.021,-252.930,-48.340,-48.828,-927.734,0.000,0
1606142150.025,50.293,-28.320,-23.438,180.176,0.000,0
1606142150.028,246.582,-17.578,-9.766,-918.945,0.000,0
1606142150.032,95.215,-25.391,-20.020,509.277,0.000,0
1606142150.036,-201.172,-38.086,-36.133,-694.824,0.000,0
1606142150.040,-267.090,-41.016,-49.805,-1000.000,0.000,0
1606142150.044,10.742,-18.066,-24.414,24.902,0.000,0
1606142150.048,248.047,3.906,-2.930,-946.777,0.000,0
1606142150.052,133.301,-12.695,-21.973,637.207,0.000,0
1606142150.056,-180.664,-41.992,-41.992,-551.270,0.000,0
1606142150.060,-267.090,-34.668,-45.410,-1000.000,0.000,0
1606142150.064,-30.762,3.906,-30.273,-147.461,0.000,0
1606142150.067,209.961,-5.859,-4.395,979.492,0.000,0
1606142150.071,160.156,-32.227,0.000,752.441,0.000,0
1606142150.075,-154.785,-42.480,-29.297,-411.621,0.000,0
1606142150.079,-300.781,-48.340,-42.969,-1000.000,0.000,0
1606142150.083,-81.055,-34.668,-21.973,-334.961,0.000,0
1606142150.087,199.707,-13.184,-10.254,855.957,0.000,0
1606142150.091,188.965,-9.766,-13.184,862.305,0.000,0
1606142150.095,-113.281,-40.527,-27.832,-269.531,0.000,0
1606142150.099,-300.781,-42.969,-47.363,-1000.000,0.000,0
1606142150.103,-116.699,-13.672,-41.016,-511.230,0.000,0
1606142150.107,172.852,-13.184,-12.207,706.055,0.000,0
1606142150.110,196.777,-17.578,-2.930,940.918,0.000,0
1606142150.114,-79.590,-38.574,-28.320,-148.438,0.000,0
1606142150.118,-299.316,-52.734,-48.340,-1000.000,0.000,0
1606142150.122,-170.410,-41.016,-41.504,-648.926,0.000,0
1606142150.126,146.484,-23.926,-11.230,549.805,0.000,0
1606142150.130,228.027,-20.996,-6.836,-986.816,0.000,0
1606142150.134,-37.109,-36.133,-25.879,16.113,0.000,0
1606142150.138,-281.250,-52.246,-39.551,-1000.000,0.000,0
1606142150.142,-206.055,-29.297,-43.945,-761.230,0.000,0
1606142150.146,101.562,-13.184,-19.043,406.738,0.000,0
1606142150.150,232.422,-25.391,-10.742,-943.848,0.000,0
1606142150.153,6.348,-29.785,-30.273,194.336,0.000,0
1606142150.157,-266.602,-36.133,-43.945,-946.289,0.000,0
1606142150.161,-242.676,-33.691,-43.945,-872.559,0.000,0
1606142150.165,81.055,-21.484,-17.090,261.230,0.000,0
1606142150.169,250.488,-8.301,-6.348,-916.504,0.000,0
1606142150.173,48.340,-21.973,-22.949,394.531,0.000,0
1606142150.177,-239.746,-46.387,-36.133,-809.082,0.000,0
1606142150.181,-261.230,-43.945,-31.250,-953.613,0.000,0
1606142150.185,37.109,-26.367,-13.184,145.996,0.000,0
1606142150.189,241.211,-12.695,-12.695,-924.316,0.000,0
1606142150.192,88.867,-18.066,-31.250,546.387,0.000,0
1606142150.196,-210.449,-42.969,-44.434,-649.414,0.000,0
1606142150.200,-287.598,-37.109,-48.340,-1000.000,0.000,0
1606142150.204,-20.996,-12.207,-38.086,-32.227,0.000,0
1606142150.208,224.121,-12.207,-19.531,-967.773,0.000,0
1606142150.212,145.020,-22.949,-21.973,669.434,0.000,0
1606142150.216,-172.363,-40.527,-45.410,-509.277,0.000,0
1606142150.220,-310.059,-43.457,-46.387,-1000.000,0.000,0
1606142150.224,-58.105,-33.691,-26.367,-209.961,0.000,0
1606142150.228,212.402,-24.414,-16.113,945.801,0.000,0
1606142150.232,163.086,-21.484,-21.484,788.574,0.000,0
1606142150.235,-138.184,-32.227,-36.133,-364.258,0.000,0
1606142150.239,-290.527,-31.250,-43.457,-1000.000,0.000,0
1606142150.243,-101.074,-23.926,-30.273,-398.438,0.000,0
1606142150.247,194.824,-19.043,-15.625,812.988,0.000,0
1606142150.251,203.613,-15.625,-18.066,881.836,0.000,0
1606142150.255,-121.094,-38.574,-39.551,-246.094,0.000,0
1606142150.259,-312.988,-48.340,-49.805,-1000.000,0.000,0
1606142150.263,-152.344,-27.344,-37.109,-566.406,0.000,0
1606142150.267,145.996,-15.137,-20.996,647.949,0.000,0
1606142150.271,215.820,-16.113,-15.625,966.309,0.000,0
1606142150.275,-59.570,-36.621,-29.785,-108.887,0.000,0
1606142150.278,-291.504,-41.504,-50.293,-1000.000,0.000,0
1606142150.282,-176.758,-16.113,-44.922,-687.500,0.000,0
1606142150.286,133.301,-12.207,-17.090,497.070,0.000,0
1606142150.290,229.980,-20.020,-14.160,-970.703,0.000,0
1606142150.294,-33.203,-35.645,-39.062,71.777,0.000,0
1606142150.298,-277.832,-49.316,-54.199,-1000.000,0.000,0
1606142150.302,-214.355,-42.969,-44.922,-792.969,0.000,0
1606142150.306,76.660,-28.320,-24.414,362.793,0.000,0
1606142150.310,227.539,-14.160,-13.184,-926.270,0.000,0
1606142150.314,20.508,-19.043,-27.344,271.484,0.000,0
1606142150.317,-260.254,-41.504,-41.504,-906.738,0.000,0
1606142150.321,-251.953,-47.363,-44.434,-899.902,0.000,0
1606142150.325,60.059,-24.902,-35.156,225.098,0.000,0
1606142150.329,249.512,-6.836,-17.090,-914.551,0.000,0
1606142150.333,67.871,-23.438,-23.438,454.102,0.000,0
1606142150.337,-240.234,-58.105,-46.387,-754.883,0.000,0
1606142150.341,-282.715,-44.434,-46.875,-990.723,0.000,0
1606142150.345,7.324,-5.859,-23.926,81.055,0.000,0
1606142150.349,242.676,-10.742,-15.137,-931.641,0.000,0
1606142150.353,118.164,-30.273,-27.832,587.402,0.000,0
1606142150.357,-207.031,-50.293,-47.363,-605.957,0.000,0
1606142150.360,-285.156,-52.734,-56.641,-1000.000,0.000,0
1606142150.364,-18.555,-38.574,-40.039,-88.379,0.000,0
1606142150.368,226.074,-19.531,-12.695,-993.164,0.000,0
1606142150.372,148.926,-18.555,-15.625,717.285,0.000,0
1606142150.376,-158.691,-41.016,-38.574,-453.613,0.000,0
1606142150.380,-288.086,-37.109,-45.898,-1000.000,0.000,0
1606142150.384,-63.477,-18.555,-24.902,-264.648,0.000,0
1606142150.388,203.613,-20.996,-0.977,907.715,0.000,0
1606142150.392,174.316,-23.438,-10.254,818.848,0.000,0
1606142150.396,-135.254,-41.016,-38.574,-331.543,0.000,0
1606142150.400,-308.105,-50.293,-49.316,-1000.000,0.000,0
1606142150.403,-115.723,-33.691,-29.297,-447.754,0.000,0
1606142150.407,192.383,-15.625,-9.277,764.160,0.000,0
1606142150.411,213.379,-17.090,-9.277,912.598,0.000,0
1606142150.415,-104.004,-40.527,-21.484,-196.289,0.000,0
1606142150.419,-305.176,-48.828,-36.133,-1000.000,0.000,0
1606142150.423,-154.785,-31.250,-36.621,-597.168,0.000,0
1606142150.427,152.832,-22.461,-13.184,609.863,0.000,0
1606142150.431,226.562,-25.879,-10.254,982.910,0.000,0
1606142150.435,-50.293,-40.527,-27.832,-58.105,0.000,0
1606142150.439,-287.109,-47.852,-42.969,-1000.000,0.000,0
1606142150.442,-192.871,-37.598,-45.898,-731.445,0.000,0
1606142150.446,111.328,-30.762,-30.762,441.406,0.000,0
1606142150.450,229.980,-26.367,-19.043,-955.078,0.000,0
1606142150.454,-2.930,-36.133,-28.320,134.277,0.000,0
1606142150.458,-264.648,-51.270,-44.922,-985.840,0.000,0
1606142150.462,-223.633,-45.898,-42.969,-838.867,0.000,0
1606142150.466,92.285,-22.461,-26.855,310.059,0.000,0
1606142150.470,241.699,-10.254,-17.578,-921.387,0.000,0
1606142150.474,34.668,-22.461,-30.273,326.172,0.000,0
1606142150.478,-241.699,-43.945,-43.457,-860.352,0.000,0
1606142150.482,-253.418,-28.320,-42.969,-931.152,0.000,0
1606142150.485,45.410,-6.348,-21.973,179.199,0.000,0
1606142150.489,251.953,-10.742,-1.953,-916.504,0.000,0
1606142150.493,87.402,-23.438,-21.973,501.465,0.000,0
1606142150.497,-220.215,-40.527,-49.805,-709.473,0.000,0
1606142150.501,-268.555,-41.504,-50.781,-1000.000,0.000,0
1606142150.505,11.230,-31.250,-25.391,39.551,0.000,0
1606142150.509,236.816,-19.043,-6.348,-949.707,0.000,0
1606142150.513,128.906,-21.973,-11.719,640.625,0.000,0
1606142150.517,-174.316,-47.852,-35.156,-540.039,0.000,0
1606142150.521,-277.344,-25.879,-44.922,-1000.000,0.000,0
1606142150.525,-28.809,9.766,-30.273,-142.578,0.000,0
1606142150.528,231.934,-14.648,-9.766,980.469,0.000,0
1606142150.532,168.945,-26.855,-9.766,754.883,0.000,0
1606142150.536,-145.508,-42.969,-40.527,-409.180,0.000,0
1606142150.540,-287.109,-54.688,-59.570,-1000.000,0.000,0
1606142150.544,-73.730,-39.551,-37.109,-339.844,0.000,0
1606142150.548,203.613,-17.090,-10.254,856.934,0.000,0
1606142150.552,192.383,-19.043,-16.113,853.516,0.000,0
1606142150.556,-107.910,-40.039,-28.320,-286.133,0.000,0
1606142150.560,-285.645,-34.668,-36.133,-1000.000,0.000,0
1606142150.564,-116.211,-18.066,-43.945,-497.559,0.000,0
1606142150.567,190.430,-17.090,-23.926,712.891,0.000,0
1606142150.571,228.516,-19.531,-9.766,940.430,0.000,0
1606142150.575,-90.332,-40.527,-18.555,-150.391,0.000,0
1606142150.579,-308.105,-46.875,-31.738,-1000.000,0.000,0
1606142150.583,-173.340,-36.621,-26.367,-647.461,0.000,0
1606142150.587,135.254,-26.367,-6.348,547.852,0.000,0
1606142150.591,218.262,-20.508,-2.441,-984.375,0.000,0
1606142150.595,-43.945,-34.668,-25.879,28.320,0.000,0
1606142150.599,-286.621,-46.875,-33.691,-1000.000,0.000,0
1606142150.603,-204.590,-35.645,-24.902,-762.207,0.000,0
1606142150.607,103.516,-21.484,-6.348,407.227,0.000,0
1606142150.610,236.328,-17.090,3.906,-937.500,0.000,0
1606142150.614,7.324,-32.715,-19.531,208.496,0.000,0
1606142150.618,-275.879,-53.711,-45.410,-947.266,0.000,0
1606142150.622,-251.953,-11.719,-51.758,-864.258,0.000,0
1606142150.626,61.523,15.137,-23.438,274.902,0.000,0
1606142150.630,238.281,-15.625,-4.395,-916.992,0.000,0
1606142150.634,49.805,-35.645,-17.090,394.531,0.000,0
1606142150.638,-241.699,-58.105,-37.598,-807.617,0.000,0
1606142150.642,-268.066,-58.105,-40.527,-955.078,0.000,0
1606142150.646,29.297,-32.715,-17.090,142.578,0.000,0
1606142150.650,240.234,-23.438,-7.812,-925.781,0.000,0
1606142150.653,97.168,-33.691,-19.531,549.805,0.000,0
1606142150.657,-203.613,-48.340,-41.016,-645.996,0.000,0
1606142150.661,-283.691,-40.039,-50.781,-1000.000,0.000,0
1606142150.665,-13.672,-22.949,-27.832,-32.227,0.000,0
1606142150.669,232.910,-20.996,-1.465,-967.773,0.000,0
1606142150.673,136.230,-25.879,-6.348,672.363,0.000,0
1606142150.677,-183.105,-46.387,-34.180,-506.348,0.000,0
1606142150.681,-303.711,-53.711,-44.922,-1000.000,0.000,0
1606142150.685,-59.082,-38.574,-21.484,-210.938,0.000,0
1606142150.689,210.938,-24.902,-1.953,946.777,0.000,0
1606142150.692,160.156,-27.344,-13.672,785.645,0.000,0
1606142150.696,-147.949,-42.480,-38.574,-374.023,0.000,0
1606142150.700,-301.270,-37.109,-56.152,-1000.000,0.000,0
1606142150.704,-90.332,-18.555,-38.086,-379.395,0.000,0
1606142150.708,194.824,-18.066,-14.648,820.312,0.000,0
1606142150.712,191.895,-20.996,-18.066,881.348,0.000,0
1606142150.716,-106.445,-40.039,-34.180,-242.188,0.000,0
1606142150.720,-301.270,-33.691,-43.457,-1000.000,0.000,0
1606142150.724,-134.766,-0.977,-21.973,-559.082,0.000,0
1606142150.728,164.062,-12.695,-2.441,650.391,0.000,0
1606142150.732,214.844,-27.344,-8.789,967.773,0.000,0
1606142150.735,-65.430,-38.086,-29.297,-94.238,0.000,0
1606142150.739,-298.340,-47.363,-44.922,-1000.000,0.000,0
1606142150.743,-184.570,-40.527,-30.273,-685.059,0.000,0
1606142150.747,142.090,-26.855,-5.859,500.977,0.000,0
1606142150.751,242.188,-19.043,-1.465,-968.750,0.000,0
1606142150.755,-29.297,-37.109,-20.020,75.195,0.000,0
1606142150.759,-281.250,-43.945,-38.086,-1000.000,0.000,0
1606142150.763,-212.891,-17.090,-41.504,-795.898,0.000,0
1606142150.767,111.816,-13.184,-23.438,364.746,0.000,0
1606142150.771,255.859,-26.367,-11.719,-925.781,0.000,0
1606142150.775,25.391,-43.945,-21.484,270.508,0.000,0
1606142150.778,-269.043,-60.547,-36.133,-907.227,0.000,0
1606142150.782,-255.371,-55.664,-30.273,-893.555,0.000,0
1606142150.786,49.316,-37.598,-13.184,232.422,0.000,0
1606142150.790,222.168,-27.344,-6.836,-917.480,0.000,0
1606142150.794,49.805,-35.156,-12.695,456.055,0.000,0
1606142150.798,-234.863,-49.805,-30.762,-750.000,0.000,0
1606142150.802,-271.973,-14.160,-37.109,-985.352,0.000,0
1606142150.806,16.113,9.766,-12.207,87.402,0.000,0
1606142150.810,242.676,-22.461,8.789,-932.617,0.000,0
1606142150.814,109.375,-38.574,-12.695,590.820,0.000,0
1606142150.817,-205.566,-57.129,-37.598,-604.492,0.000,0
1606142150.821,-292.969,-57.617,-41.504,-1000.000,0.000,0
1606142150.825,-27.832,-32.715,-18.555,-73.242,0.000,0
1606142150.829,224.609,-14.648,-0.488,-985.840,0.000,0
1606142150.833,144.531,-24.902,-11.719,712.402,0.000,0
1606142150.837,-170.898,-51.270,-35.156,-462.402,0.000,0
1606142150.841,-301.758,-52.734,-42.969,-1000.000,0.000,0
1606142150.845,-69.336,-35.645,-23.438,-260.254,0.000,0
1606142150.849,199.219,-24.902,-9.766,905.762,0.000,0
1606142150.853,163.574,-26.855,-20.020,815.430,0.000,0
1606142150.857,-141.602,-44.922,-34.668,-335.938,0.000,0
1606142150.860,-299.316,-37.109,-50.293,-1000.000,0.000,0
1606142150.864,-105.469,-25.879,-41.016,-442.383,0.000,0
1606142150.868,179.688,-23.926,-15.137,765.137,0.000,0
1606142150.872,201.660,-20.508,-13.184,916.992,0.000,0
1606142150.876,-93.750,-41.016,-33.691,-188.477,0.000,0
1606142150.880,-304.199,-54.688,-48.340,-1000.000,0.000,0
1606142150.884,-166.504,-44.434,-50.293,-607.422,0.000,0
1606142150.888,145.508,-19.043,-28.320,598.145,0.000,0
1606142150.892,224.121,-12.207,-11.719,992.676,0.000,0
1606142150.896,-56.152,-34.668,-26.367,-39.551,0.000,0
1606142150.900,-302.246,-48.340,-38.086,-1000.000,0.000,0
1606142150.903,-211.914,-27.832,-44.434,-730.469,0.000,0
1606142150.907,101.562,-14.648,-31.250,443.848,0.000,0
1606142150.911,219.727,-19.043,-9.766,-952.637,0.000,0
1606142150.915,-6.836,-38.574,-24.414,136.230,0.000,0
1606142150.919,-272.949,-56.641,-46.387,-992.188,0.000,0
1606142150.923,-231.445,-46.387,-40.527,-821.289,0.000,0
1606142150.927,94.238,-36.621,-14.648,334.473,0.000,0
1606142150.931,250.000,-33.203,-6.836,-925.293,0.000,0
