timestamps,TP9,AF7,AF8,TP10,Right AUX
1606142461.305,-0.488,0.000,0.000,-0.488,0.000
1606142461.309,-0.488,0.000,-0.488,-1.465,0.000
1606142461.313,3.418,-0.977,-0.977,21.484,0.000
1606142461.317,-8.789,1.465,1.465,-49.805,0.000
1606142461.321,31.738,-10.254,-9.766,202.637,0.000
1606142461.325,78.613,-23.438,-20.996,570.312,0.000
1606142461.329,-20.508,-24.414,-18.066,140.625,0.000
1606142461.332,-163.086,-33.203,-23.926,-545.898,0.000
1606142461.336,-159.668,-32.715,-27.832,-568.848,0.000
1606142461.340,-3.418,-21.484,-21.484,126.953,0.000
1606142461.344,73.242,-19.043,-11.719,570.801,0.000
1606142461.348,-36.133,-30.273,-12.695,177.734,0.000
1606142461.352,-187.012,-38.086,-20.508,-538.574,0.000
1606142461.356,-192.871,-31.738,-16.602,-660.645,0.000
1606142461.360,-42.969,-15.625,-10.254,-3.418,0.000
1606142461.364,54.688,-11.719,-10.254,521.973,0.000
1606142461.368,-20.996,-21.973,-15.625,241.211,0.000
1606142461.371,-169.434,-28.320,-26.855,-471.680,0.000
1606142461.375,-202.637,-26.367,-25.879,-675.781,0.000
1606142461.379,-73.242,-26.855,-19.531,-90.332,0.000
1606142461.383,43.457,-28.809,-17.578,501.465,0.000
1606142461.387,3.906,-31.738,-16.113,350.098,0.000
1606142461.391,-136.230,-42.480,-22.461,-368.652,0.000
1606142461.395,-182.617,-48.828,-31.250,-669.434,0.000
1606142461.399,-57.129,-34.180,-29.297,-157.227,0.000
1606142461.403,78.125,-21.484,-22.461,486.816,0.000
1606142461.407,56.152,-22.949,-20.996,456.543,0.000
1606142461.411,-90.820,-29.297,-30.273,-251.465,0.000
1606142461.414,-155.762,-36.133,-34.180,-652.832,0.000
1606142461.418,-56.152,-33.691,-26.855,-216.309,0.000
1606142461.422,78.613,0.000,-22.461,478.516,0.000
1606142461.426,77.148,0.000,-29.297,524.902,0.000
1606142461.430,-65.918,-40.527,-33.691,-178.223,0.000
1606142461.434,-149.902,-47.363,-33.691,-647.949,0.000
1606142461.438,-66.406,-38.086,-29.785,-301.270,0.000
1606142461.442,75.195,-28.809,-22.461,412.598,0.000
1606142461.446,93.750,-28.320,-22.949,578.125,0.000
1606142461.450,-40.527,-38.086,-30.273,-72.266,0.000
1606142461.454,-137.207,-48.828,-37.598,-633.789,0.000
1606142461.457,-81.055,-44.922,-34.180,-392.578,0.000
1606142461.461,64.941,-30.762,-19.531,333.496,0.000
1606142461.465,112.793,-28.320,-14.648,593.262,0.000
1606142461.469,-15.625,-21.973,-19.531,41.504,0.000
1606142461.473,-140.137,-17.578,-28.809,-579.102,0.000
1606142461.477,-98.633,-31.250,-29.297,-470.215,0.000
1606142461.481,47.852,-27.832,-24.902,248.047,0.000
1606142461.485,102.539,-22.949,-22.461,599.609,0.000
1606142461.489,-6.348,-32.715,-26.855,112.793,0.000
1606142461.493,-136.719,-41.504,-34.668,-542.969,0.000
1606142461.496,-117.676,-41.504,-37.598,-535.645,0.000
1606142461.500,28.320,-30.273,-33.203,149.902,0.000
1606142461.504,106.445,-23.926,-22.949,589.844,0.000
1606142461.508,17.090,-29.785,-29.297,201.172,0.000
1606142461.512,-126.465,-36.621,-37.109,-498.535,0.000
1606142461.516,-125.488,-32.227,-30.273,-577.148,0.000
1606142461.520,19.043,-15.137,-27.344,81.543,0.000
1606142461.524,94.727,-8.301,-30.273,567.871,0.000
1606142461.528,20.508,-28.320,-33.203,278.809,0.000
1606142461.532,-121.094,-40.527,-42.480,-434.570,0.000
1606142461.536,-151.367,-38.574,-44.922,-633.301,0.000
1606142461.539,-17.578,-33.691,-37.598,-25.391,0.000
1606142461.543,87.891,-29.297,-30.273,549.805,0.000
1606142461.547,32.715,-35.156,-31.250,356.445,0.000
1606142461.551,-116.211,-46.387,-40.039,-366.211,0.000
1606142461.555,-158.203,-47.363,-41.992,-648.438,0.000
1606142461.559,-38.086,-36.133,-33.691,-120.117,0.000
1606142461.563,83.008,-26.855,-27.344,509.766,0.000
1606142461.567,51.758,-30.762,-22.949,427.246,0.000
1606142461.571,-98.145,-41.992,-28.809,-285.156,0.000
1606142461.575,-163.574,-43.945,-39.062,-665.039,0.000
1606142461.579,-62.012,-31.738,-35.156,-216.309,0.000
1606142461.582,68.848,-24.414,-23.926,461.426,0.000
1606142461.586,63.477,-22.949,-23.926,497.070,0.000
1606142461.590,-78.125,-26.855,-32.227,-187.500,0.000
1606142461.594,-163.574,-38.574,-41.016,-647.949,0.000
1606142461.598,-90.820,-37.598,-38.574,-310.547,0.000
1606142461.602,56.641,-20.508,-23.926,403.809,0.000
1606142461.606,67.383,-19.531,-17.090,497.070,0.000
1606142461.610,-75.195,-31.738,-27.832,-159.180,0.000
1606142461.614,-156.250,-40.039,-35.645,-623.047,0.000
1606142461.618,-96.191,-38.086,-30.762,-389.648,0.000
1606142461.621,45.898,-28.809,-25.879,318.848,0.000
1606142461.625,85.938,-21.484,-25.391,566.895,0.000
1606142461.629,-38.086,-19.043,-29.297,5.371,0.000
1606142461.633,-159.180,-26.855,-37.109,-594.727,0.000
1606142461.637,-117.188,-32.227,-37.109,-467.773,0.000
1606142461.641,33.203,-25.879,-29.297,248.535,0.000
1606142461.645,83.984,-20.996,-28.809,578.613,0.000
1606142461.649,-26.855,-30.273,-34.668,81.543,0.000
1606142461.653,-148.438,-36.133,-36.133,-557.617,0.000
1606142461.657,-126.465,-26.855,-33.691,-521.973,0.000
1606142461.661,19.043,-20.508,-25.391,171.875,0.000
1606142461.664,92.285,-25.391,-20.020,580.566,0.000
1606142461.668,-11.719,-39.551,-32.715,174.316,0.000
1606142461.672,-149.902,-49.316,-42.969,-499.023,0.000
1606142461.676,-144.043,-41.016,-42.969,-571.777,0.000
1606142461.680,-3.418,-27.344,-36.621,86.914,0.000
1606142461.684,81.543,-21.973,-32.227,570.801,0.000
1606142461.688,1.465,-28.809,-33.203,261.719,0.000
1606142461.692,-139.160,-35.645,-42.480,-441.895,0.000
1606142461.696,-164.062,-37.109,-43.457,-616.699,0.000
1606142461.700,-32.715,-29.785,-32.715,1.465,0.000
1606142461.704,82.031,-16.113,-26.367,566.406,0.000
1606142461.707,27.832,-18.555,-22.949,361.328,0.000
1606142461.711,-121.582,-31.250,-30.273,-369.629,0.000
1606142461.715,-167.969,-38.086,-39.551,-664.551,0.000
1606142461.719,-51.270,-33.691,-36.133,-118.164,0.000
1606142461.723,69.336,-23.438,-26.367,508.301,0.000
1606142461.727,30.273,-26.367,-22.461,409.180,0.000
1606142461.731,-125.000,-37.109,-32.715,-307.617,0.000
1606142461.735,-187.012,-39.551,-37.598,-669.922,0.000
1606142461.739,-74.707,-34.180,-24.902,-192.871,0.000
1606142461.743,52.734,-26.855,-14.648,432.129,0.000
1606142461.746,39.551,-21.484,-17.578,433.105,0.000
1606142461.750,-96.191,-28.320,-26.367,-200.684,0.000
1606142461.754,-171.875,-37.109,-35.156,-654.785,0.000
1606142461.758,-80.078,-33.691,-35.156,-286.621,0.000
1606142461.762,66.895,-16.602,-25.391,401.855,0.000
1606142461.766,82.520,-11.230,-23.438,517.090,0.000
1606142461.770,-58.105,-23.926,-31.738,-118.164,0.000
1606142461.774,-154.297,-30.273,-39.062,-636.719,0.000
1606142461.778,-88.867,-27.344,-34.668,-372.070,0.000
1606142461.782,52.734,-22.461,-21.973,348.145,0.000
1606142461.786,96.191,-23.926,-16.602,567.383,0.000
1606142461.789,-31.738,-27.344,-26.855,-17.090,0.000
1606142461.793,-156.738,-32.227,-35.156,-599.121,0.000
1606142461.797,-107.910,-36.133,-31.738,-431.152,0.000
1606142461.801,31.250,-12.207,-26.367,281.250,0.000
1606142461.805,78.125,-2.930,-22.949,579.102,0.000
1606142461.809,-33.203,-28.809,-25.391,68.359,0.000
1606142461.813,-153.320,-37.109,-28.320,-565.918,0.000
1606142461.817,-124.512,-38.574,-28.809,-502.930,0.000
1606142461.821,19.531,-32.715,-17.090,201.660,0.000
1606142461.825,89.355,-23.438,-6.836,589.355,0.000
1606142461.829,-5.371,-23.438,-11.719,170.898,0.000
1606142461.832,-139.648,-33.691,-25.879,-509.277,0.000
1606142461.836,-136.230,-39.551,-30.762,-571.289,0.000
1606142461.840,8.789,-21.973,-22.461,106.445,0.000
1606142461.844,97.168,-12.695,-16.113,588.379,0.000
1606142461.848,10.742,-23.438,-20.508,251.953,0.000
1606142461.852,-136.719,-33.691,-31.738,-458.008,0.000
1606142461.856,-157.227,-38.574,-31.738,-621.094,0.000
1606142461.860,-27.344,-26.367,-21.484,3.418,0.000
1606142461.864,75.684,-19.531,-16.113,556.152,0.000
1606142461.868,22.461,-24.902,-20.996,335.938,0.000
1606142461.871,-113.281,-30.273,-31.250,-380.859,0.000
1606142461.875,-149.414,-37.598,-32.715,-630.371,0.000
1606142461.879,-33.691,-30.762,-27.344,-80.078,0.000
1606142461.883,96.191,-20.996,-18.555,519.043,0.000
1606142461.887,58.105,-20.020,-19.531,415.039,0.000
1606142461.891,-101.562,-24.414,-29.297,-287.109,0.000
1606142461.895,-163.574,-41.992,-37.598,-649.414,0.000
1606142461.899,-56.641,-35.645,-33.203,-184.082,0.000
1606142461.903,76.172,-1.465,-27.344,476.562,0.000
1606142461.907,57.129,-5.859,-27.832,472.168,0.000
1606142461.911,-92.773,-30.762,-34.180,-227.539,0.000
1606142461.914,-172.363,-37.109,-40.039,-662.109,0.000
1606142461.918,-67.871,-26.855,-30.273,-267.090,0.000
1606142461.922,78.125,-21.973,-20.996,430.664,0.000
1606142461.926,64.453,-33.203,-20.508,534.180,0.000
1606142461.930,-74.707,-41.016,-30.762,-125.488,0.000
1606142461.934,-164.062,-40.527,-35.645,-627.441,0.000
1606142461.938,-100.098,-28.320,-30.273,-329.102,0.000
1606142461.942,53.223,-9.766,-25.391,374.512,0.000
1606142461.946,83.496,-15.625,-21.484,569.336,0.000
1606142461.950,-47.363,-30.273,-25.879,-25.391,0.000
1606142461.954,-155.273,-34.668,-36.621,-604.980,0.000
1606142461.957,-106.934,-40.039,-32.715,-429.688,0.000
1606142461.961,41.992,-31.738,-22.461,288.086,0.000
1606142461.965,85.449,-28.320,-20.020,587.402,0.000
1606142461.969,-32.715,-37.109,-27.832,69.824,0.000
1606142461.973,-158.691,-40.039,-36.621,-553.711,0.000
1606142461.977,-127.441,-35.645,-30.273,-482.422,0.000
1606142461.981,29.297,-23.438,-20.996,225.098,0.000
1606142461.985,95.215,-23.926,-20.020,615.234,0.000
1606142461.989,-11.230,-32.715,-24.902,171.387,0.000
1606142461.993,-150.391,-40.039,-33.691,-509.766,0.000
1606142461.996,-141.602,-44.922,-37.109,-538.574,0.000
1606142462.000,8.301,-24.414,-26.367,139.160,0.000
1606142462.004,89.355,-9.766,-20.020,598.145,0.000
1606142462.008,-5.371,-32.227,-30.762,249.023,0.000
1606142462.012,-154.297,-46.875,-38.574,-461.914,0.000
1606142462.016,-158.203,-43.945,-35.156,-595.215,0.000
1606142462.020,-12.695,-35.645,-29.297,49.316,0.000
1606142462.024,83.008,-27.832,-25.391,569.824,0.000
1606142462.028,23.438,-27.344,-29.785,320.801,0.000
1606142462.032,-125.000,-32.227,-36.621,-381.836,0.000
1606142462.036,-164.062,-35.645,-35.645,-620.605,0.000
1606142462.039,-35.645,-20.996,-32.715,-61.035,0.000
1606142462.043,80.078,-7.812,-25.879,528.809,0.000
1606142462.047,34.668,-21.973,-18.555,392.090,0.000
1606142462.051,-122.559,-36.133,-23.438,-326.172,0.000
1606142462.055,-173.340,-39.551,-28.320,-652.832,0.000
1606142462.059,-52.246,-32.715,-21.973,-159.180,0.000
1606142462.063,76.172,-23.438,-18.555,484.863,0.000
1606142462.067,56.152,-24.414,-22.461,458.984,0.000
1606142462.071,-77.637,-34.668,-26.855,-222.168,0.000
1606142462.075,-145.020,-42.480,-32.715,-616.699,0.000
1606142462.079,-54.199,-32.227,-28.809,-202.637,0.000
1606142462.082,78.125,-6.348,-24.414,470.703,0.000
1606142462.086,66.895,-14.160,-23.926,520.996,0.000
1606142462.090,-82.031,-38.086,-27.832,-137.207,0.000
1606142462.094,-164.062,-39.062,-31.250,-599.121,0.000
1606142462.098,-91.309,-30.273,-22.461,-300.293,0.000
1606142462.102,50.781,-18.555,-15.625,383.301,0.000
1606142462.106,78.125,-20.996,-18.555,557.617,0.000
1606142462.110,-56.641,-32.715,-24.902,-39.551,0.000
1606142462.114,-165.039,-37.109,-31.738,-593.262,0.000
1606142462.118,-106.445,-30.762,-28.320,-398.926,0.000
1606142462.121,40.527,-20.508,-16.602,311.035,0.000
1606142462.125,86.914,-20.020,-15.625,566.406,0.000
1606142462.129,-34.668,-36.133,-28.809,11.719,0.000
1606142462.133,-168.945,-47.852,-39.551,-602.539,0.000
1606142462.137,-134.766,-39.551,-38.574,-507.812,0.000
1606142462.141,21.484,-21.973,-21.484,193.848,0.000
1606142462.145,77.148,-22.461,-16.602,547.363,0.000
1606142462.149,-34.180,-35.156,-30.762,85.449,0.000
1606142462.153,-164.062,-41.504,-39.551,-579.102,0.000
1606142462.157,-147.461,-39.551,-34.668,-590.820,0.000
1606142462.161,1.953,-24.902,-28.320,102.051,0.000
1606142462.164,77.637,-23.438,-27.344,523.438,0.000
1606142462.168,-3.418,-31.250,-27.832,152.344,0.000
1606142462.172,-140.137,-33.203,-29.785,-502.441,0.000
1606142462.176,-155.762,-38.574,-34.668,-629.395,0.000
1606142462.180,-19.531,-34.180,-28.320,-10.254,0.000
1606142462.184,77.148,-20.508,-22.949,500.488,0.000
1606142462.188,17.578,-20.508,-27.832,240.234,0.000
1606142462.192,-132.324,-32.715,-37.598,-456.055,0.000
1606142462.196,-160.156,-34.180,-39.551,-664.551,0.000
1606142462.200,-18.066,-29.297,-32.227,-73.242,0.000
1606142462.204,83.984,-22.949,-30.273,498.047,0.000
1606142462.207,30.273,-25.879,-31.250,333.008,0.000
1606142462.211,-107.910,-38.574,-37.598,-369.141,0.000
1606142462.215,-149.414,-41.504,-38.086,-661.621,0.000
1606142462.219,-31.250,-20.508,-25.879,-145.020,0.000
1606142462.223,87.402,-6.836,-18.555,467.285,0.000
1606142462.227,55.664,-21.973,-19.531,408.203,0.000
1606142462.231,-98.633,-32.715,-27.832,-282.715,0.000
1606142462.235,-175.293,-37.598,-33.203,-675.293,0.000
1606142462.239,-71.289,-30.762,-28.320,-261.719,0.000
1606142462.243,65.430,-19.043,-20.020,394.531,0.000
1606142462.246,54.688,-18.066,-19.531,448.730,0.000
1606142462.250,-88.379,-27.832,-30.762,-208.008,0.000
1606142462.254,-171.387,-31.250,-35.645,-671.387,0.000
1606142462.258,-86.914,-25.879,-20.508,-329.102,0.000
1606142462.262,60.059,-20.996,-14.160,363.281,0.000
1606142462.266,68.848,-20.020,-12.695,513.184,0.000
1606142462.270,-72.266,-21.973,-14.160,-100.098,0.000
1606142462.274,-174.805,-27.832,-23.438,-654.297,0.000
1606142462.278,-111.816,-26.367,-21.973,-427.246,0.000
1606142462.282,16.113,-6.836,-10.254,289.551,0.000
1606142462.286,44.922,-9.277,-7.324,549.805,0.000
1606142462.289,-64.453,-21.484,-20.020,-6.348,0.000
1606142462.293,-193.359,-23.926,-30.762,-632.324,0.000
1606142462.297,-155.273,-18.555,-34.180,-513.184,0.000
1606142462.301,9.766,-6.836,-23.438,214.844,0.000
1606142462.305,66.895,-6.348,-18.555,553.223,0.000
1606142462.309,-29.297,-11.230,-33.203,74.707,0.000
1606142462.313,-139.648,-19.043,-44.434,-547.852,0.000
1606142462.317,-111.816,-22.461,-44.434,-520.996,0.000
1606142462.321,35.156,-13.672,-37.109,177.734,0.000
1606142462.325,116.699,-7.324,-34.668,603.027,0.000
1606142462.329,34.668,-14.648,-37.598,230.957,0.000
1606142462.332,-100.098,-31.250,-44.922,-433.594,0.000
1606142462.336,-95.215,-34.180,-45.898,-518.555,0.000
1606142462.340,52.734,-23.438,-37.598,132.324,0.000
1606142462.344,151.855,-20.508,-29.785,631.348,0.000
1606142462.348,77.148,-32.227,-30.762,334.473,0.000
1606142462.352,-70.801,-33.203,-41.992,-375.488,0.000
1606142462.356,-90.820,-25.391,-41.992,-549.316,0.000
1606142462.360,40.039,-23.926,-34.180,51.270,0.000
1606142462.364,139.648,-29.785,-36.133,599.121,0.000
1606142462.368,84.473,-28.320,-39.062,396.484,0.000
1606142462.371,-47.363,-28.809,-40.039,-308.105,0.000
1606142462.375,-83.496,-34.668,-37.598,-562.012,0.000
1606142462.379,23.438,-27.344,-32.715,-49.805,0.000
1606142462.383,143.066,-22.461,-23.926,547.363,0.000
1606142462.387,113.281,-25.879,-19.043,478.027,0.000
1606142462.391,-35.156,-32.227,-28.320,-213.867,0.000
1606142462.395,-104.004,-41.016,-38.574,-578.613,0.000
1606142462.399,0.488,-37.109,-30.273,-143.555,0.000
1606142462.403,129.883,-22.949,-15.137,508.789,0.000
1606142462.407,107.910,-24.902,-16.602,534.180,0.000
1606142462.411,-44.434,-31.738,-24.902,-153.320,0.000
1606142462.414,-122.559,-32.715,-26.367,-604.980,0.000
1606142462.418,-29.297,-33.691,-25.391,-252.441,0.000
1606142462.422,108.887,-29.785,-20.020,428.711,0.000
1606142462.426,120.605,-25.879,-9.277,561.035,0.000
1606142462.430,-24.414,-30.762,-21.973,-70.312,0.000
1606142462.434,-124.023,-33.691,-35.645,-585.449,0.000
1606142462.438,-57.617,-29.297,-30.762,-333.008,0.000
1606142462.442,80.566,-21.973,-24.414,354.004,0.000
1606142462.446,108.398,-19.531,-24.414,570.801,0.000
1606142462.450,-11.230,-27.344,-27.344,15.625,0.000
1606142462.454,-118.652,-33.691,-31.738,-538.574,0.000
1606142462.457,-75.684,-31.250,-29.297,-403.320,0.000
1606142462.461,72.266,-17.578,-19.531,268.555,0.000
1606142462.465,121.582,-11.719,-19.043,568.848,0.000
1606142462.469,14.160,-19.043,-24.414,103.516,0.000
1606142462.473,-103.516,-27.344,-25.879,-505.371,0.000
1606142462.477,-84.473,-29.785,-23.438,-482.910,0.000
1606142462.481,59.570,-22.949,-16.113,195.801,0.000
1606142462.485,122.559,-16.113,-13.184,590.332,0.000
1606142462.489,24.902,-17.578,-20.020,191.895,0.000
1606142462.493,-100.586,-29.785,-32.715,-462.402,0.000
1606142462.496,-110.840,-38.086,-38.086,-528.809,0.000
1606142462.500,27.344,-28.809,-24.414,132.324,0.000
1606142462.504,120.605,-18.555,-17.090,593.750,0.000
1606142462.508,23.438,-18.555,-28.320,263.672,0.000
1606142462.512,-125.000,-20.996,-37.598,-428.711,0.000
1606142462.516,-133.301,-23.438,-36.133,-575.684,0.000
1606142462.520,-7.324,-22.461,-25.391,16.602,0.000
1606142462.524,85.938,-18.555,-18.555,539.551,0.000
1606142462.528,31.250,-20.020,-26.367,332.520,0.000
1606142462.532,-101.074,-27.344,-31.738,-354.492,0.000
1606142462.536,-132.812,-29.297,-34.180,-602.051,0.000
1606142462.539,-18.066,-31.250,-39.062,-85.449,0.000
1606142462.543,102.051,-24.902,-28.809,509.766,0.000
1606142462.547,72.266,-19.043,-28.320,416.016,0.000
1606142462.551,-78.125,-33.203,-40.039,-279.785,0.000
1606142462.555,-148.926,-43.457,-41.016,-630.371,0.000
1606142462.559,-54.688,-34.668,-36.621,-184.082,0.000
1606142462.563,74.219,-25.391,-30.762,456.055,0.000
1606142462.567,62.988,-23.926,-28.809,459.473,0.000
1606142462.571,-72.754,-34.668,-41.992,-213.379,0.000
1606142462.575,-151.855,-43.457,-48.828,-637.695,0.000
1606142462.579,-70.801,-31.738,-40.039,-269.531,0.000
1606142462.582,71.289,-19.531,-31.250,416.992,0.000
1606142462.586,63.477,-24.902,-31.250,483.887,0.000
1606142462.590,-74.219,-34.180,-37.598,-155.762,0.000
1606142462.594,-148.926,-33.203,-34.668,-607.910,0.000
1606142462.598,-79.590,-26.855,-26.367,-353.027,0.000
1606142462.602,57.617,-13.672,-22.949,339.844,0.000
1606142462.606,83.984,-15.137,-22.949,543.457,0.000
1606142462.610,-43.457,-31.250,-31.250,-35.156,0.000
1606142462.614,-153.320,-37.598,-37.598,-588.379,0.000
1606142462.618,-94.238,-31.250,-35.156,-424.316,0.000
1606142462.621,56.152,-21.973,-24.902,270.020,0.000
1606142462.625,98.145,-17.578,-20.996,571.289,0.000
1606142462.629,-16.602,-28.320,-31.738,69.336,0.000
1606142462.633,-137.207,-34.668,-39.062,-546.875,0.000
1606142462.637,-120.117,-27.832,-39.551,-495.117,0.000
1606142462.641,25.879,-10.742,-32.715,193.359,0.000
1606142462.645,92.285,-5.859,-27.344,560.547,0.000
1606142462.649,-5.859,-24.902,-28.809,122.559,0.000
1606142462.653,-136.230,-35.645,-38.086,-522.461,0.000
1606142462.657,-134.277,-36.621,-35.645,-557.617,0.000
1606142462.661,9.766,-27.832,-25.391,104.980,0.000
1606142462.664,87.402,-19.531,-20.508,531.738,0.000
1606142462.668,7.324,-25.879,-24.902,200.684,0.000
1606142462.672,-116.699,-35.645,-34.668,-431.152,0.000
1606142462.676,-134.766,-40.039,-37.109,-571.777,0.000
1606142462.680,-5.371,-34.180,-24.414,20.508,0.000
1606142462.684,101.074,-17.578,-10.742,541.992,0.000
1606142462.688,38.086,-19.531,-18.066,320.312,0.000
1606142462.692,-116.699,-40.039,-28.809,-376.953,0.000
1606142462.696,-156.738,-42.480,-26.855,-614.258,0.000
1606142462.700,-41.992,-25.391,-21.973,-79.102,0.000
1606142462.704,74.219,-20.020,-15.625,499.023,0.000
1606142462.707,36.133,-26.367,-15.625,379.395,0.000
1606142462.711,-107.910,-34.180,-26.855,-316.406,0.000
1606142462.715,-161.621,-38.574,-26.855,-645.020,0.000
1606142462.719,-63.965,-33.691,-21.973,-174.805,0.000
1606142462.723,56.641,-26.855,-20.020,445.801,0.000
1606142462.727,41.016,-25.391,-20.996,423.828,0.000
1606142462.731,-86.914,-25.879,-30.762,-236.816,0.000
1606142462.735,-152.344,-29.297,-28.809,-628.906,0.000
1606142462.739,-83.984,-28.809,-16.602,-261.230,0.000
1606142462.743,33.203,-8.301,-7.324,375.977,0.000
1606142462.746,43.945,-19.043,-5.859,462.891,0.000
1606142462.750,-69.336,-47.852,-15.625,-146.973,0.000
1606142462.754,-157.227,-45.410,-28.809,-632.812,0.000
1606142462.758,-94.238,-34.668,-27.344,-351.562,0.000
1606142462.762,49.805,-27.344,-13.672,349.609,0.000
1606142462.766,82.520,-24.902,-11.230,531.738,0.000
1606142462.770,-41.504,-25.879,-21.484,-45.410,0.000
1606142462.774,-152.832,-35.156,-31.738,-592.285,0.000
1606142462.778,-93.750,-29.785,-27.832,-399.414,0.000
1606142462.782,55.176,-13.672,-15.625,308.105,0.000
1606142462.786,90.332,-22.949,-8.301,568.848,0.000
1606142462.789,-26.367,-39.062,-16.602,62.500,0.000
1606142462.793,-143.066,-44.922,-25.879,-539.551,0.000
1606142462.797,-112.305,-38.086,-24.414,-461.426,0.000
1606142462.801,35.645,-26.367,-23.926,225.586,0.000
1606142462.805,92.773,-28.320,-26.367,569.336,0.000
1606142462.809,-10.742,-33.203,-30.762,139.160,0.000
1606142462.813,-130.859,-36.133,-34.180,-498.535,0.000
1606142462.817,-124.023,-36.133,-33.203,-528.320,0.000
1606142462.821,11.719,-29.297,-25.391,132.324,0.000
1606142462.825,95.215,-23.438,-20.996,567.871,0.000
1606142462.829,7.812,-25.391,-24.414,225.098,0.000
1606142462.832,-130.371,-33.203,-26.367,-442.871,0.000
1606142462.836,-145.996,-41.992,-24.902,-587.891,0.000
1606142462.840,-10.254,-23.438,-21.484,18.555,0.000
1606142462.844,94.727,-14.648,-13.672,542.480,0.000
1606142462.848,24.414,-32.227,-14.160,308.105,0.000
1606142462.852,-121.094,-44.434,-25.391,-390.137,0.000
1606142462.856,-148.438,-48.340,-28.809,-622.070,0.000
1606142462.860,-24.414,-25.879,-21.973,-57.129,0.000
1606142462.864,91.309,-5.371,-16.602,522.949,0.000
1606142462.868,47.852,-25.391,-16.113,375.000,0.000
1606142462.871,-107.910,-44.922,-20.508,-324.219,0.000
1606142462.875,-165.527,-45.410,-25.879,-625.488,0.000
1606142462.879,-50.781,-35.645,-23.438,-143.066,0.000
1606142462.883,72.754,-29.785,-12.207,474.121,0.000
1606142462.887,40.039,-33.691,-9.766,435.059,0.000
1606142462.891,-101.562,-43.457,-25.879,-251.953,0.000
1606142462.895,-166.016,-46.875,-36.621,-639.160,0.000
1606142462.899,-67.383,-30.762,-28.320,-226.562,0.000
1606142462.903,65.918,-19.043,-19.043,419.434,0.000
1606142462.907,62.988,-24.414,-23.438,487.305,0.000
1606142462.911,-74.219,-37.598,-38.574,-161.133,0.000
1606142462.914,-164.551,-46.875,-50.781,-638.184,0.000
1606142462.918,-93.750,-40.527,-43.457,-330.078,0.000
1606142462.922,50.293,-26.855,-26.367,371.582,0.000
1606142462.926,65.918,-28.809,-29.297,525.391,0.000
1606142462.930,-69.336,-43.945,-37.598,-89.355,0.000
1606142462.934,-160.156,-47.363,-35.156,-614.746,0.000
1606142462.938,-95.215,-44.922,-32.227,-403.320,0.000
1606142462.942,45.898,-38.574,-30.273,296.875,0.000
1606142462.946,64.941,-30.762,-28.320,527.344,0.000
1606142462.950,-63.965,-31.738,-28.809,-19.531,0.000
1606142462.954,-176.758,-44.434,-34.180,-602.051,0.000
1606142462.957,-140.137,-39.551,-33.691,-506.348,0.000
1606142462.961,1.465,-21.973,-21.484,180.664,0.000
1606142462.965,53.223,-23.926,-15.625,537.109,0.000
1606142462.969,-33.691,-29.785,-23.926,103.027,0.000
1606142462.973,-154.785,-40.527,-35.156,-540.527,0.000
1606142462.977,-147.461,-46.387,-33.691,-554.688,0.000
1606142462.981,4.395,-34.668,-23.438,124.512,0.000
1606142462.985,79.102,-30.762,-21.973,558.594,0.000
1606142462.989,-12.695,-36.621,-23.926,199.707,0.000
1606142462.993,-135.742,-41.016,-30.762,-460.449,0.000
1606142462.996,-133.789,-42.969,-31.250,-566.895,0.000
1606142463.000,-4.395,-34.668,-22.461,60.547,0.000
1606142463.004,87.891,-24.902,-20.508,557.617,0.000
1606142463.008,21.973,-32.227,-23.926,278.320,0.000
1606142463.012,-106.934,-41.992,-30.762,-390.137,0.000
1606142463.016,-126.953,-43.457,-33.203,-570.801,0.000
1606142463.020,-23.926,-30.273,-23.926,-24.902,0.000
1606142463.024,76.660,-25.879,-16.602,522.949,0.000
1606142463.028,26.855,-38.574,-19.043,346.191,0.000
1606142463.032,-120.117,-49.316,-28.320,-344.727,0.000
1606142463.036,-159.180,-46.387,-27.832,-622.070,0.000
1606142463.039,-48.340,-30.273,-20.020,-133.301,0.000
1606142463.043,68.848,-28.809,-15.137,478.027,0.000
1606142463.047,41.016,-30.762,-19.043,422.363,0.000
1606142463.051,-98.145,-31.250,-30.273,-251.465,0.000
1606142463.055,-156.250,-30.762,-27.832,-606.445,0.000
1606142463.059,-61.523,-21.484,-21.484,-205.566,0.000
1606142463.063,59.082,-9.277,-14.648,431.641,0.000
1606142463.067,53.711,-17.578,-8.301,477.051,0.000
1606142463.071,-86.914,-28.320,-17.090,-178.223,0.000
1606142463.075,-173.828,-35.645,-26.855,-632.324,0.000
1606142463.079,-95.703,-34.180,-22.949,-309.082,0.000
1606142463.082,39.551,-21.484,-17.578,371.582,0.000
1606142463.086,52.734,-20.020,-15.137,509.766,0.000
1606142463.090,-78.613,-29.297,-23.926,-102.539,0.000
1606142463.094,-176.270,-34.668,-31.250,-626.953,0.000
1606142463.098,-118.164,-31.738,-22.461,-390.625,0.000
1606142463.102,22.461,-26.855,-13.672,310.059,0.000
1606142463.106,58.594,-23.926,-13.672,534.180,0.000
1606142463.110,-62.500,-23.926,-22.949,-0.977,0.000
1606142463.114,-179.199,-28.809,-31.738,-585.449,0.000
1606142463.118,-140.625,-31.250,-30.762,-478.027,0.000
1606142463.121,-3.418,-14.160,-22.461,199.707,0.000
1606142463.125,49.316,-2.930,-19.043,521.484,0.000
1606142463.129,-52.734,-20.996,-22.461,62.988,0.000
1606142463.133,-180.664,-32.715,-29.297,-570.312,0.000
1606142463.137,-163.574,-31.250,-29.297,-550.781,0.000
1606142463.141,-29.785,-19.531,-13.184,130.859,0.000
1606142463.145,36.621,-16.113,-3.418,537.109,0.000
1606142463.149,-44.922,-25.391,-8.789,152.832,0.000
1606142463.153,-176.758,-30.273,-12.695,-504.883,0.000
1606142463.157,-190.918,-29.785,-9.277,-587.402,0.000
1606142463.161,-57.617,-33.203,-2.441,42.480,0.000
1606142463.164,51.270,-29.297,-1.953,532.715,0.000
1606142463.168,-12.207,-24.902,-13.184,252.441,0.000
1606142463.172,-153.320,-31.738,-23.926,-442.871,0.000
1606142463.176,-170.898,-35.156,-21.484,-634.277,0.000
1606142463.180,-47.852,-27.832,-13.184,-49.805,0.000
1606142463.184,49.805,-17.578,-8.789,509.766,0.000
1606142463.188,-0.977,-27.344,-15.137,314.941,0.000
1606142463.192,-140.625,-42.969,-26.367,-394.531,0.000
1606142463.196,-174.805,-43.945,-26.855,-646.973,0.000
1606142463.200,-55.664,-27.832,-20.996,-111.328,0.000
1606142463.204,68.359,-14.648,-12.695,501.465,0.000
1606142463.207,48.340,-25.391,-12.695,426.270,0.000
1606142463.211,-93.262,-33.203,-25.391,-265.625,0.000
1606142463.215,-150.879,-35.645,-34.180,-628.418,0.000
1606142463.219,-50.293,-18.555,-32.715,-195.801,0.000
1606142463.223,78.125,3.906,-28.809,440.430,0.000
1606142463.227,80.078,-9.277,-23.926,473.633,0.000
1606142463.231,-60.547,-28.320,-32.227,-186.523,0.000
1606142463.235,-139.160,-33.691,-38.574,-625.488,0.000
1606142463.239,-54.688,-31.738,-30.273,-268.555,0.000
1606142463.243,81.543,-29.297,-24.414,391.113,0.000
1606142463.246,95.703,-20.508,-21.484,522.461,0.000
1606142463.250,-33.203,-26.367,-30.762,-79.102,0.000
1606142463.254,-129.395,-44.922,-44.434,-605.469,0.000
1606142463.258,-69.336,-38.086,-39.551,-346.680,0.000
1606142463.262,73.730,-20.996,-29.785,355.957,0.000
1606142463.266,104.980,-24.414,-25.879,566.895,0.000
1606142463.270,-11.719,-37.109,-24.902,11.719,0.000
1606142463.274,-116.211,-49.316,-31.250,-562.500,0.000
1606142463.278,-79.102,-41.504,-32.227,-418.457,0.000
1606142463.282,60.059,-21.484,-22.461,278.809,0.000
1606142463.286,111.328,-20.508,-23.926,581.543,0.000
1606142463.289,2.441,-27.832,-36.133,103.516,0.000
1606142463.293,-113.281,-25.879,-38.574,-513.672,0.000
1606142463.297,-91.797,-23.926,-36.133,-470.215,0.000
1606142463.301,37.598,-12.695,-27.344,204.102,0.000
1606142463.305,106.445,-7.812,-16.602,584.961,0.000
1606142463.309,15.625,-28.320,-19.531,187.012,0.000
1606142463.313,-113.770,-32.227,-28.320,-471.191,0.000
1606142463.317,-110.840,-25.391,-29.785,-527.832,0.000
1606142463.321,18.555,-21.484,-24.414,117.188,0.000
1606142463.325,104.492,-21.973,-20.508,580.078,0.000
1606142463.329,37.109,-25.391,-18.066,274.902,0.000
1606142463.332,-93.750,-30.762,-21.973,-394.043,0.000
1606142463.336,-116.211,-33.203,-30.762,-560.059,0.000
1606142463.340,9.277,-22.461,-25.879,26.367,0.000
1606142463.344,113.281,-12.207,-17.090,566.895,0.000
1606142463.348,54.688,-20.508,-21.484,351.562,0.000
1606142463.352,-91.797,-31.250,-34.668,-345.703,0.000
1606142463.356,-135.742,-28.809,-33.203,-605.957,0.000
1606142463.360,-11.230,-24.902,-22.949,-80.078,0.000
1606142463.364,104.980,-18.555,-16.602,520.508,0.000
1606142463.368,56.641,-15.625,-15.625,411.133,0.000
1606142463.371,-83.984,-28.320,-26.367,-279.297,0.000
1606142463.375,-126.465,-32.227,-29.785,-602.051,0.000
1606142463.379,-22.461,-22.461,-23.438,-151.367,0.000
1606142463.383,97.168,-14.160,-19.531,476.074,0.000
1606142463.387,82.520,-10.254,-22.461,473.145,0.000
1606142463.391,-52.734,-17.090,-30.273,-193.848,0.000
1606142463.395,-131.348,-31.738,-35.645,-612.793,0.000
1606142463.399,-55.664,-30.762,-33.691,-266.113,0.000
1606142463.403,69.336,-17.090,-32.715,392.090,0.000
1606142463.407,81.055,-12.207,-30.273,508.789,0.000
1606142463.411,-47.852,-26.855,-27.832,-115.723,0.000
1606142463.414,-139.648,-31.738,-32.227,-607.422,0.000
1606142463.418,-73.730,-32.715,-31.738,-333.008,0.000
1606142463.422,60.059,-33.203,-21.973,356.934,0.000
1606142463.426,85.449,-20.508,-20.508,550.293,0.000
1606142463.430,-39.551,-18.555,-26.855,-23.438,0.000
1606142463.434,-151.367,-26.367,-37.598,-581.543,0.000
1606142463.438,-107.422,-29.297,-41.016,-408.691,0.000
1606142463.442,33.691,-27.832,-35.156,280.273,0.000
1606142463.446,88.379,-22.461,-26.855,562.988,0.000
1606142463.450,-18.555,-24.414,-25.879,69.336,0.000
1606142463.454,-141.113,-34.668,-35.645,-546.875,0.000
1606142463.457,-115.723,-35.156,-35.645,-483.398,0.000
1606142463.461,25.391,-31.738,-31.250,195.801,0.000
1606142463.465,92.773,-28.809,-28.320,564.453,0.000
1606142463.469,-3.906,-36.133,-38.086,144.043,0.000
1606142463.473,-127.441,-44.922,-42.480,-487.305,0.000
1606142463.477,-114.258,-39.062,-34.668,-533.203,0.000
1606142463.481,23.926,-31.250,-30.762,108.887,0.000
1606142463.485,107.422,-26.367,-26.367,583.496,0.000
1606142463.489,32.227,-28.809,-29.785,245.117,0.000
1606142463.493,-111.328,-37.598,-41.992,-440.918,0.000
1606142463.496,-133.789,-42.480,-43.457,-586.914,0.000
1606142463.500,0.488,-24.902,-35.156,16.113,0.000
1606142463.504,97.656,-12.207,-31.738,547.852,0.000
1606142463.508,41.992,-20.508,-36.621,320.312,0.000
1606142463.512,-90.820,-28.320,-44.922,-363.281,0.000
1606142463.516,-131.348,-30.762,-41.016,-598.633,0.000
1606142463.520,-16.113,-25.391,-28.320,-54.688,0.000
1606142463.524,94.727,-21.973,-19.531,530.762,0.000
1606142463.528,50.781,-21.973,-23.926,401.367,0.000
1606142463.532,-92.285,-29.297,-36.133,-287.109,0.000
1606142463.536,-149.414,-31.250,-38.086,-622.559,0.000
1606142463.539,-42.480,-21.484,-30.762,-162.109,0.000
1606142463.543,80.566,-17.578,-27.344,461.914,0.000
1606142463.547,58.105,-23.926,-26.855,451.660,0.000
1606142463.551,-72.266,-30.273,-33.691,-208.008,0.000
1606142463.555,-142.090,-31.250,-36.621,-622.559,0.000
1606142463.559,-60.059,-27.344,-27.832,-250.488,0.000
1606142463.563,70.312,-19.531,-20.508,412.598,0.000
1606142463.567,66.895,-24.414,-22.461,493.652,0.000
1606142463.571,-56.152,-34.180,-28.320,-135.254,0.000
1606142463.575,-143.066,-34.180,-37.109,-608.398,0.000
1606142463.579,-83.008,-27.832,-38.086,-321.289,0.000
1606142463.582,54.688,-38.086,-34.668,357.422,0.000
1606142463.586,77.637,-41.016,-27.344,520.508,0.000
1606142463.590,-44.922,-25.391,-26.855,-66.895,0.000
1606142463.594,-145.508,-27.832,-33.203,-603.516,0.000
1606142463.598,-96.680,-25.879,-23.438,-412.598,0.000
1606142463.602,44.434,-16.602,-16.602,271.484,0.000
1606142463.606,88.379,-17.090,-18.066,541.504,0.000
1606142463.610,-20.020,-21.973,-22.949,39.551,0.000
1606142463.614,-137.207,-31.738,-33.691,-546.387,0.000
1606142463.618,-108.887,-38.086,-34.180,-471.191,0.000
1606142463.621,39.551,-28.809,-20.508,212.402,0.000
1606142463.625,111.328,-22.461,-16.113,580.566,0.000
1606142463.629,6.836,-32.715,-21.973,142.578,0.000
1606142463.633,-126.465,-41.992,-31.250,-499.023,0.000
1606142463.637,-119.141,-44.434,-31.738,-514.160,0.000
1606142463.641,13.672,-32.715,-22.949,140.137,0.000
1606142463.645,99.609,-24.414,-19.043,565.918,0.000
1606142463.649,23.926,-36.621,-24.414,228.027,0.000
1606142463.653,-122.559,-44.922,-29.785,-449.219,0.000
1606142463.657,-147.461,-41.016,-32.715,-582.520,0.000
1606142463.661,-20.996,-23.926,-25.879,21.484,0.000
1606142463.664,75.195,-15.625,-19.043,524.902,0.000
1606142463.668,11.230,-19.043,-26.855,290.527,0.000
1606142463.672,-126.953,-24.902,-33.203,-392.090,0.000
1606142463.676,-143.555,-31.738,-37.109,-607.910,0.000
1606142463.680,-21.484,-22.949,-36.621,-62.012,0.000
1606142463.684,72.266,-18.555,-31.738,498.047,0.000
1606142463.688,44.922,-27.344,-32.227,359.863,0.000
1606142463.692,-86.426,-37.109,-43.457,-333.496,0.000
1606142463.696,-133.301,-39.551,-49.805,-637.207,0.000
1606142463.700,-18.066,-25.879,-36.133,-147.461,0.000
1606142463.704,93.750,-20.508,-23.926,473.633,0.000
1606142463.707,68.848,-27.344,-22.949,440.918,0.000
1606142463.711,-70.801,-38.086,-30.273,-237.305,0.000
1606142463.715,-140.625,-41.992,-32.715,-623.535,0.000
1606142463.719,-50.293,-31.738,-36.621,-212.402,0.000
1606142463.723,70.801,-23.926,-36.133,408.203,0.000
1606142463.727,65.918,-19.043,-22.461,462.402,0.000
1606142463.731,-61.035,-23.438,-21.973,-157.227,0.000
1606142463.735,-144.043,-39.062,-27.832,-624.023,0.000
1606142463.739,-78.613,-35.645,-28.809,-315.918,0.000
1606142463.743,55.176,-29.297,-21.484,365.723,0.000
1606142463.746,78.125,-28.320,-16.113,523.926,0.000
1606142463.750,-43.457,-28.320,-23.926,-60.547,0.000
1606142463.754,-143.555,-28.809,-34.668,-594.238,0.000
1606142463.758,-93.750,-22.949,-30.762,-393.555,0.000
1606142463.762,52.246,-15.625,-17.090,303.223,0.000
1606142463.766,95.703,-6.348,-14.648,564.941,0.000
1606142463.770,-22.461,-16.602,-24.414,34.668,0.000
1606142463.774,-140.137,-32.227,-34.180,-572.266,0.000
1606142463.778,-103.516,-31.738,-33.691,-460.449,0.000
1606142463.782,35.645,-26.855,-27.344,227.539,0.000
1606142463.786,87.891,-19.043,-21.973,554.199,0.000
1606142463.789,-18.555,-23.926,-27.344,105.957,0.000
1606142463.793,-148.926,-33.691,-33.691,-527.832,0.000
1606142463.797,-132.324,-35.645,-29.785,-522.949,0.000
1606142463.801,8.301,-21.973,-26.855,143.555,0.000
1606142463.805,81.543,-20.020,-25.391,558.594,0.000
1606142463.809,0.488,-33.203,-22.949,198.242,0.000
1606142463.813,-136.719,-43.945,-32.715,-461.914,0.000
1606142463.817,-143.555,-52.734,-39.062,-575.684,0.000
1606142463.821,-10.742,-33.691,-31.250,43.945,0.000
1606142463.825,79.590,-19.043,-28.320,548.828,0.000
1606142463.829,18.066,-31.738,-26.367,284.668,0.000
1606142463.832,-118.652,-40.039,-33.203,-404.785,0.000
1606142463.836,-148.926,-43.457,-38.086,-606.934,0.000
1606142463.840,-26.367,-35.645,-28.809,-20.508,0.000
1606142463.844,86.426,-25.879,-21.973,549.805,0.000
1606142463.848,42.480,-33.203,-26.855,368.164,0.000
1606142463.852,-104.004,-42.969,-41.016,-334.961,0.000
1606142463.856,-150.879,-42.969,-48.340,-627.441,0.000
1606142463.860,-43.945,-28.320,-36.133,-118.164,0.000
1606142463.864,71.777,-16.602,-29.785,475.586,0.000
1606142463.868,57.129,-28.320,-29.297,416.016,0.000
1606142463.871,-89.355,-44.922,-35.156,-256.836,0.000
1606142463.875,-161.621,-44.922,-41.504,-644.043,0.000
1606142463.879,-61.523,-37.109,-33.203,-227.051,0.000
1606142463.883,64.453,-28.320,-21.484,432.129,0.000
1606142463.887,62.988,-26.367,-17.578,480.957,0.000
1606142463.891,-64.453,-30.273,-27.344,-162.598,0.000
1606142463.895,-143.555,-35.156,-37.109,-615.234,0.000
1606142463.899,-60.547,-31.738,-30.273,-264.160,0.000
1606142463.903,86.426,-16.113,-19.043,431.152,0.000
1606142463.907,99.609,-12.207,-20.020,541.992,0.000
1606142463.911,-46.387,-24.902,-31.250,-89.844,0.000
1606142463.914,-143.555,-33.203,-36.621,-618.164,0.000
1606142463.918,-82.520,-28.320,-37.109,-373.047,0.000
1606142463.922,41.992,-14.160,-30.762,312.988,0.000
1606142463.926,77.637,-16.113,-21.484,535.156,0.000
1606142463.930,-41.992,-32.715,-31.250,7.812,0.000
1606142463.934,-162.598,-41.016,-40.527,-573.730,0.000
1606142463.938,-122.559,-35.645,-35.156,-462.891,0.000
1606142463.942,25.879,-25.391,-23.926,240.723,0.000
1606142463.946,81.543,-25.879,-19.531,565.430,0.000
1606142463.950,-17.090,-28.809,-25.879,92.285,0.000
1606142463.954,-128.418,-25.879,-30.762,-518.555,0.000
1606142463.957,-113.770,-31.250,-28.809,-497.559,0.000
1606142463.961,14.160,-38.086,-28.320,156.738,0.000
1606142463.965,89.844,-29.785,-26.855,558.594,0.000
1606142463.969,15.137,-25.879,-25.391,184.082,0.000
1606142463.973,-114.746,-36.133,-35.156,-469.727,0.000
1606142463.977,-121.094,-34.180,-35.156,-550.781,0.000
1606142463.981,6.348,-24.414,-30.762,74.219,0.000
1606142463.985,88.867,-15.137,-27.344,548.340,0.000
1606142463.989,21.973,-23.926,-25.391,271.484,0.000
1606142463.993,-112.793,-44.922,-37.598,-407.715,0.000
1606142463.996,-136.719,-43.945,-41.992,-593.750,0.000
1606142464.000,-17.090,-20.020,-37.109,-17.090,0.000
1606142464.004,77.148,-10.254,-29.297,519.043,0.000
1606142464.008,28.809,-25.879,-30.273,328.125,0.000
1606142464.012,-111.816,-34.180,-41.504,-368.164,0.000
1606142464.016,-153.320,-31.250,-41.016,-621.094,0.000
1606142464.020,-49.316,-28.809,-34.180,-97.656,0.000
1606142464.024,59.570,-29.297,-27.344,496.582,0.000
1606142464.028,28.809,-32.227,-25.879,400.879,0.000
1606142464.032,-110.840,-38.086,-35.645,-288.086,0.000
1606142464.036,-165.527,-35.645,-39.551,-634.766,0.000
1606142464.039,-63.965,-29.297,-35.156,-205.078,0.000
1606142464.043,63.965,-23.438,-28.320,438.965,0.000
1606142464.047,59.082,-23.926,-26.855,466.309,0.000
1606142464.051,-80.566,-33.203,-38.086,-205.566,0.000
1606142464.055,-156.250,-41.992,-46.875,-650.879,0.000
1606142464.059,-74.219,-43.945,-41.504,-300.781,0.000
1606142464.063,52.246,-23.926,-35.645,375.488,0.000
1606142464.067,62.988,-18.555,-33.691,491.211,0.000
1606142464.071,-61.035,-38.086,-38.574,-132.324,0.000
1606142464.075,-161.621,-44.922,-46.875,-632.812,0.000
1606142464.079,-107.910,-36.133,-43.945,-383.301,0.000
1606142464.082,34.180,-25.391,-33.691,307.129,0.000
1606142464.086,61.035,-20.020,-32.227,519.043,0.000
1606142464.090,-61.035,-24.902,-34.668,-40.039,0.000
1606142464.094,-169.434,-33.203,-37.598,-601.074,0.000
1606142464.098,-134.277,-32.227,-37.598,-460.449,0.000
1606142464.102,2.930,-25.391,-27.344,247.559,0.000
1606142464.106,51.758,-21.484,-20.508,549.316,0.000
1606142464.110,-48.340,-28.320,-25.391,53.223,0.000
1606142464.114,-174.805,-44.434,-34.668,-560.059,0.000
1606142464.118,-164.062,-42.969,-32.227,-520.996,0.000
1606142464.121,-25.391,-27.344,-23.926,164.551,0.000
1606142464.125,46.875,-21.973,-23.926,551.758,0.000
1606142464.129,-35.645,-22.949,-31.250,159.668,0.000
1606142464.133,-160.156,-30.762,-38.574,-493.652,0.000
1606142464.137,-152.344,-33.691,-37.598,-558.594,0.000
1606142464.141,-6.836,-9.766,-27.832,101.074,0.000
1606142464.145,77.637,-0.488,-26.855,563.477,0.000
1606142464.149,1.953,-21.973,-32.227,240.234,0.000
1606142464.153,-127.930,-35.156,-33.203,-438.965,0.000
1606142464.157,-147.949,-32.227,-27.832,-599.121,0.000
1606142464.161,-20.996,-22.461,-18.066,-11.719,0.000
1606142464.164,83.496,-18.555,-14.648,526.855,0.000
1606142464.168,22.461,-26.855,-21.973,316.895,0.000
1606142464.172,-115.723,-37.598,-32.715,-364.258,0.000
1606142464.176,-154.297,-35.645,-35.645,-622.070,0.000
1606142464.180,-44.922,-27.832,-31.250,-103.516,0.000
1606142464.184,82.520,-23.926,-18.066,520.020,0.000
1606142464.188,55.664,-21.484,-18.555,422.852,0.000
1606142464.192,-103.027,-26.367,-36.133,-304.688,0.000
1606142464.196,-167.480,-39.062,-43.945,-656.738,0.000
1606142464.200,-57.129,-34.180,-44.922,-181.152,0.000
1606142464.204,75.684,-20.996,-32.715,479.980,0.000
1606142464.207,53.711,-34.180,-23.926,478.516,0.000
1606142464.211,-88.379,-47.363,-39.551,-195.312,0.000
1606142464.215,-147.949,-44.922,-40.527,-606.934,0.000
1606142464.219,-58.594,-38.086,-29.785,-233.887,0.000
1606142464.223,76.660,-31.250,-26.855,435.059,0.000
1606142464.227,91.309,-31.250,-24.414,532.715,0.000
1606142464.231,-43.945,-36.621,-35.645,-90.820,0.000
1606142464.235,-138.184,-37.598,-44.434,-580.566,0.000
1606142464.239,-70.312,-38.086,-41.504,-310.547,0.000
1606142464.243,65.430,-18.555,-36.621,366.211,0.000
1606142464.246,91.797,-17.090,-31.250,557.129,0.000
1606142464.250,-30.762,-42.969,-36.133,-8.301,0.000
1606142464.254,-144.043,-49.805,-44.434,-574.707,0.000
1606142464.258,-92.285,-42.480,-40.527,-404.297,0.000
1606142464.262,54.199,-33.203,-30.762,288.086,0.000
1606142464.266,105.469,-25.391,-21.484,584.473,0.000
1606142464.270,4.395,-31.250,-23.926,89.844,0.000
1606142464.274,-116.699,-41.992,-32.715,-537.598,0.000
1606142464.278,-91.797,-34.668,-34.668,-456.055,0.000
1606142464.282,58.105,-12.695,-33.691,236.816,0.000
1606142464.286,126.953,-10.254,-26.855,598.145,0.000
1606142464.289,32.227,-21.973,-27.344,177.246,0.000
1606142464.293,-96.680,-32.715,-36.621,-472.168,0.000
1606142464.297,-92.285,-34.668,-37.109,-516.602,0.000
1606142464.301,38.574,-24.902,-28.809,132.812,0.000
1606142464.305,118.652,-13.672,-17.090,585.449,0.000
1606142464.309,46.387,-20.508,-20.996,252.930,0.000
1606142464.313,-90.332,-31.738,-34.668,-432.617,0.000
1606142464.317,-105.957,-24.414,-31.250,-567.383,0.000
1606142464.321,22.461,-15.137,-19.531,41.016,0.000
1606142464.325,110.840,-11.719,-15.625,556.152,0.000
1606142464.329,47.852,-18.555,-22.461,334.961,0.000
1606142464.332,-98.633,-36.133,-32.715,-362.793,0.000
1606142464.336,-138.184,-45.898,-35.156,-605.957,0.000
1606142464.340,-20.508,-24.414,-32.715,-67.871,0.000
1606142464.344,92.285,4.395,-27.832,510.254,0.000
1606142464.348,55.176,-14.648,-23.926,394.531,0.000
1606142464.352,-88.379,-34.180,-32.227,-292.480,0.000
1606142464.356,-142.578,-36.621,-34.180,-617.676,0.000
1606142464.360,-39.551,-31.250,-24.414,-149.414,0.000
1606142464.364,74.219,-24.414,-20.508,467.773,0.000
1606142464.368,49.316,-31.738,-24.902,437.500,0.000
1606142464.371,-86.914,-38.574,-33.691,-227.539,0.000
1606142464.375,-147.949,-43.945,-33.691,-616.699,0.000
1606142464.379,-62.012,-39.551,-25.391,-229.492,0.000
1606142464.383,69.336,-23.438,-21.973,416.504,0.000
1606142464.387,73.242,-28.320,-24.414,490.723,0.000
1606142464.391,-61.035,-39.551,-32.227,-136.230,0.000
1606142464.395,-138.672,-43.945,-34.668,-618.164,0.000
1606142464.399,-68.848,-36.621,-29.785,-333.008,0.000
1606142464.403,64.941,-28.320,-23.926,352.539,0.000
1606142464.407,92.285,-26.855,-21.484,539.551,0.000
1606142464.411,-24.414,-27.344,-32.227,-40.039,0.000
1606142464.414,-127.930,-38.086,-41.016,-600.098,0.000
1606142464.418,-75.684,-34.180,-32.715,-416.504,0.000
1606142464.422,67.871,-15.137,-28.320,283.203,0.000
1606142464.426,97.656,-18.555,-28.320,554.199,0.000
1606142464.430,-15.137,-28.320,-25.879,32.715,0.000
1606142464.434,-128.418,-30.762,-29.785,-565.918,0.000
1606142464.438,-108.398,-33.203,-31.738,-472.656,0.000
1606142464.442,31.738,-20.508,-23.926,214.844,0.000
1606142464.446,94.238,-18.555,-19.531,557.617,0.000
1606142464.450,-0.977,-30.762,-25.391,116.211,0.000
1606142464.454,-119.629,-32.227,-35.156,-512.207,0.000
1606142464.457,-118.164,-34.180,-39.062,-540.527,0.000
1606142464.461,15.137,-28.320,-30.762,112.793,0.000
1606142464.465,98.145,-20.020,-22.461,555.664,0.000
1606142464.469,20.996,-21.484,-27.344,216.797,0.000
1606142464.473,-108.887,-32.227,-39.551,-459.473,0.000
1606142464.477,-123.047,-38.574,-41.504,-587.402,0.000
1606142464.481,-11.230,-20.996,-29.785,19.531,0.000
1606142464.485,73.730,-15.625,-20.996,523.926,0.000
1606142464.489,19.531,-35.645,-24.902,280.273,0.000
1606142464.493,-115.723,-42.480,-34.180,-395.996,0.000
1606142464.496,-143.555,-41.504,-36.621,-609.863,0.000
1606142464.500,-22.949,-36.621,-31.250,-58.105,0.000
1606142464.504,82.520,-30.273,-24.902,506.836,0.000
1606142464.508,43.945,-30.762,-27.344,361.328,0.000
1606142464.512,-90.332,-32.227,-35.156,-325.195,0.000
1606142464.516,-137.695,-32.227,-36.621,-625.977,0.000
1606142464.520,-33.691,-18.555,-34.668,-143.555,0.000
1606142464.524,76.660,-5.859,-34.180,449.707,0.000
1606142464.528,53.711,-21.973,-26.855,413.086,0.000
1606142464.532,-80.078,-38.086,-30.273,-250.977,0.000
1606142464.536,-147.949,-39.062,-39.062,-643.066,0.000
1606142464.539,-56.152,-29.297,-31.738,-248.535,0.000
1606142464.543,76.172,-22.461,-20.020,409.668,0.000
1606142464.547,85.938,-28.320,-22.461,495.117,0.000
1606142464.551,-39.062,-28.320,-33.691,-137.207,0.000
1606142464.555,-139.648,-32.227,-32.227,-620.117,0.000
1606142464.559,-74.219,-26.855,-24.902,-314.941,0.000
1606142464.563,77.148,-16.602,-21.484,382.324,0.000
1606142464.567,99.121,-27.344,-21.484,548.340,0.000
1606142464.571,-26.367,-39.551,-29.785,-48.828,0.000
1606142464.575,-124.023,-42.480,-39.062,-595.703,0.000
1606142464.579,-79.102,-33.203,-32.715,-385.742,0.000
1606142464.582,52.734,-21.973,-20.996,305.176,0.000
1606142464.586,89.355,-24.902,-22.461,552.246,0.000
1606142464.590,-26.855,-36.133,-31.250,26.367,0.000
1606142464.594,-142.578,-42.480,-38.574,-562.988,0.000
1606142464.598,-113.770,-43.945,-41.992,-466.797,0.000
1606142464.602,28.320,-33.203,-30.762,229.004,0.000
1606142464.606,92.773,-22.949,-21.484,581.055,0.000
1606142464.610,-3.906,-26.855,-33.691,135.742,0.000
1606142464.614,-126.465,-33.203,-37.598,-501.465,0.000
1606142464.618,-123.535,-42.969,-33.203,-520.020,0.000
1606142464.621,6.836,-20.020,-26.855,133.301,0.000
1606142464.625,86.426,-2.930,-20.996,561.035,0.000
1606142464.629,10.254,-30.273,-24.414,204.590,0.000
1606142464.633,-113.281,-39.062,-34.668,-460.938,0.000
1606142464.637,-118.164,-33.203,-31.738,-565.430,0.000
1606142464.641,10.254,-24.414,-22.949,55.176,0.000
1606142464.645,103.516,-25.879,-20.996,551.758,0.000
1606142464.649,41.016,-35.645,-21.973,299.316,0.000
1606142464.653,-96.191,-37.109,-29.785,-381.836,0.000
1606142464.657,-124.512,-38.086,-34.668,-582.520,0.000
1606142464.661,-8.301,-8.789,-25.391,-7.812,0.000
1606142464.664,96.680,4.883,-14.160,541.016,0.000
1606142464.668,52.246,-25.391,-13.184,365.723,0.000
1606142464.672,-87.891,-33.203,-20.996,-318.848,0.000
1606142464.676,-136.230,-40.039,-31.250,-613.770,0.000
1606142464.680,-21.484,-31.250,-33.691,-116.211,0.000
1606142464.684,95.703,-25.879,-20.508,499.512,0.000
1606142464.688,69.824,-28.320,-9.277,440.430,0.000
1606142464.692,-81.055,-37.598,-16.113,-257.812,0.000
1606142464.696,-176.758,-52.734,-19.531,-651.855,0.000
1606142464.700,-95.215,-39.062,-7.324,-234.375,0.000
1606142464.704,30.762,-24.414,11.230,412.109,0.000
1606142464.707,19.531,-41.504,16.602,449.219,0.000
1606142464.711,-115.234,-56.152,6.348,-203.125,0.000
1606142464.715,-197.266,-62.988,6.348,-662.598,0.000
1606142464.719,-134.277,-56.641,14.160,-348.145,0.000
1606142464.723,-2.441,-42.480,24.902,335.449,0.000
1606142464.727,13.184,-47.363,31.250,481.934,0.000
1606142464.731,-110.352,-63.477,22.461,-101.074,0.000
1606142464.735,-182.129,-65.918,13.184,-601.074,0.000
1606142464.739,-107.910,-57.617,15.137,-370.117,0.000
1606142464.743,34.180,-50.781,15.137,311.035,0.000
1606142464.746,74.219,-44.922,10.742,542.969,0.000
1606142464.750,-31.250,-44.434,5.371,30.273,0.000
1606142464.754,-128.906,-44.922,-4.883,-547.363,0.000
1606142464.758,-96.680,-43.457,-2.930,-425.781,0.000
1606142464.762,32.715,-40.039,3.906,254.395,0.000
1606142464.766,84.473,-41.504,2.930,575.195,0.000
1606142464.770,-8.789,-48.828,-6.348,120.117,0.000
1606142464.774,-126.465,-61.523,-17.090,-510.742,0.000
1606142464.778,-110.352,-60.059,-10.742,-484.863,0.000
1606142464.782,38.086,-40.039,0.977,212.891,0.000
1606142464.786,113.770,-32.715,2.441,612.793,0.000
1606142464.789,33.691,-42.480,-3.906,229.004,0.000
1606142464.793,-93.262,-52.734,-13.184,-422.852,0.000
1606142464.797,-97.656,-48.340,-17.578,-504.395,0.000
1606142464.801,22.949,-47.852,-17.090,120.605,0.000
1606142464.805,97.656,-48.340,-16.602,574.707,0.000
1606142464.809,33.203,-42.969,-18.066,284.180,0.000
1606142464.813,-93.750,-44.434,-22.461,-388.184,0.000
1606142464.817,-122.559,-44.434,-23.438,-568.359,0.000
1606142464.821,-4.883,-38.574,-14.648,7.812,0.000
1606142464.825,96.680,-33.691,-8.789,543.945,0.000
1606142464.829,45.410,-34.180,-12.695,363.281,0.000
1606142464.832,-88.867,-41.016,-24.902,-320.312,0.000
1606142464.836,-129.395,-44.922,-30.762,-593.750,0.000
1606142464.840,-23.438,-41.016,-20.020,-82.031,0.000
1606142464.844,83.496,-35.645,-13.184,515.625,0.000
1606142464.848,48.828,-36.621,-19.043,429.688,0.000
1606142464.852,-90.332,-46.387,-30.273,-259.277,0.000
1606142464.856,-149.414,-46.387,-34.668,-630.859,0.000
1606142464.860,-54.688,-41.992,-31.738,-193.359,0.000
1606142464.864,69.824,-38.574,-21.973,453.613,0.000
1606142464.868,64.941,-31.250,-18.555,469.238,0.000
1606142464.871,-63.965,-39.551,-26.367,-188.965,0.000
1606142464.875,-137.207,-45.898,-29.297,-616.211,0.000
1606142464.879,-56.152,-37.598,-20.996,-268.066,0.000
1606142464.883,76.660,-30.762,-12.207,401.855,0.000
1606142464.887,88.867,-30.762,-12.207,519.531,0.000
1606142464.891,-44.434,-29.297,-15.625,-79.102,0.000
1606142464.895,-141.113,-34.668,-26.855,-586.426,0.000
1606142464.899,-83.008,-31.738,-26.367,-354.492,0.000
1606142464.903,52.246,-28.320,-21.484,331.543,0.000
1606142464.907,87.402,-27.832,-21.484,544.434,0.000
1606142464.911,-35.156,-28.809,-26.855,-5.371,0.000
1606142464.914,-150.879,-38.574,-34.668,-579.102,0.000
1606142464.918,-114.258,-38.574,-33.203,-443.359,0.000
1606142464.922,35.156,-25.879,-25.391,253.906,0.000
1606142464.926,90.820,-21.973,-23.438,559.082,0.000
1606142464.930,-11.230,-26.367,-30.273,88.379,0.000
1606142464.934,-122.070,-33.203,-34.180,-517.578,0.000
1606142464.938,-118.652,-39.062,-31.738,-493.164,0.000
1606142464.942,1.953,-28.320,-19.531,175.781,0.000
1606142464.946,78.125,-27.832,-6.836,570.801,0.000
1606142464.950,3.906,-38.574,-14.160,174.805,0.000
1606142464.954,-128.906,-42.480,-27.344,-478.027,0.000
1606142464.957,-135.742,-38.086,-27.344,-546.387,0.000
1606142464.961,-10.254,-31.250,-18.066,83.496,0.000
1606142464.965,72.266,-29.785,-11.719,547.363,0.000
1606142464.969,-2.441,-37.109,-20.508,259.277,0.000
1606142464.973,-134.766,-41.016,-30.762,-419.434,0.000
1606142464.977,-145.996,-41.504,-31.250,-586.914,0.000
1606142464.981,-20.508,-31.250,-24.414,3.906,0.000
1606142464.985,84.473,-19.531,-14.160,544.922,0.000
1606142464.989,35.156,-28.809,-17.090,338.867,0.000
1606142464.993,-107.422,-39.551,-29.297,-353.027,0.000
1606142464.996,-149.414,-41.016,-31.250,-607.910,0.000
1606142465.000,-32.715,-28.320,-25.391,-72.754,0.000
1606142465.004,77.637,-20.508,-17.578,515.625,0.000
1606142465.008,38.574,-30.273,-19.043,407.715,0.000
1606142465.012,-97.656,-35.156,-29.297,-268.555,0.000
1606142465.016,-150.879,-37.109,-32.715,-616.699,0.000
1606142465.020,-50.293,-28.809,-28.809,-178.223,0.000
1606142465.024,72.754,-21.973,-23.926,459.473,0.000
1606142465.028,55.176,-24.902,-25.391,454.590,0.000
1606142465.032,-76.172,-30.762,-29.785,-207.031,0.000
1606142465.036,-153.320,-40.039,-34.668,-621.582,0.000
1606142465.039,-75.195,-24.414,-30.762,-265.137,0.000
1606142465.043,55.664,-7.812,-23.438,389.648,0.000
1606142465.047,64.941,-19.531,-18.066,497.559,0.000
1606142465.051,-60.547,-29.785,-23.438,-113.770,0.000
1606142465.055,-150.391,-33.691,-32.227,-613.281,0.000
1606142465.059,-89.844,-31.738,-30.762,-345.703,0.000
1606142465.063,55.176,-18.066,-28.809,345.215,0.000
1606142465.067,91.797,-12.207,-23.926,540.039,0.000
1606142465.071,-34.668,-21.484,-27.832,-26.855,0.000
1606142465.075,-136.719,-27.344,-35.156,-571.289,0.000
1606142465.079,-91.797,-28.809,-34.668,-400.391,0.000
1606142465.082,34.180,-15.625,-28.320,283.691,0.000
1606142465.086,78.613,-18.555,-23.438,554.688,0.000
1606142465.090,-28.320,-38.574,-32.227,45.410,0.000
1606142465.094,-145.020,-45.410,-41.992,-553.223,0.000
1606142465.098,-119.141,-41.992,-41.016,-480.469,0.000
1606142465.102,18.555,-33.691,-34.668,196.777,0.000
1606142465.106,79.102,-32.227,-23.438,557.129,0.000
1606142465.110,-8.301,-34.668,-26.367,147.949,0.000
1606142465.114,-130.371,-41.992,-40.527,-499.512,0.000
1606142465.118,-132.812,-44.922,-39.062,-546.387,0.000
1606142465.121,2.930,-35.156,-31.250,113.770,0.000
1606142465.125,86.426,-32.227,-27.832,564.453,0.000
1606142465.129,1.953,-36.621,-29.297,229.492,0.000
1606142465.133,-136.230,-42.969,-39.551,-441.406,0.000
1606142465.137,-143.066,-43.945,-41.504,-589.844,0.000
1606142465.141,-8.789,-19.531,-31.250,18.066,0.000
1606142465.145,87.891,-16.602,-29.785,537.109,0.000
1606142465.149,32.227,-31.250,-38.574,308.105,0.000
1606142465.153,-104.492,-33.203,-41.992,-375.488,0.000
1606142465.157,-144.043,-31.738,-38.574,-606.934,0.000
1606142465.161,-32.715,-30.273,-35.156,-70.312,0.000
1606142465.164,78.125,-26.855,-26.855,508.789,0.000
1606142465.168,44.434,-23.438,-24.414,389.648,0.000
1606142465.172,-99.121,-33.203,-35.645,-291.992,0.000
1606142465.176,-155.762,-46.875,-40.527,-617.676,0.000
1606142465.180,-52.734,-22.461,-36.133,-169.434,0.000
1606142465.184,66.895,4.883,-32.227,450.195,0.000
1606142465.188,54.688,-14.160,-24.414,444.336,0.000
1606142465.192,-72.266,-29.297,-27.344,-210.938,0.000
1606142465.196,-142.578,-34.180,-35.645,-623.047,0.000
1606142465.200,-62.012,-29.297,-32.715,-244.141,0.000
1606142465.204,68.359,-20.508,-25.879,416.992,0.000
1606142465.207,69.824,-22.949,-26.855,487.793,0.000
1606142465.211,-76.172,-43.457,-34.668,-150.391,0.000
1606142465.215,-155.273,-57.129,-39.551,-615.234,0.000
1606142465.219,-62.988,-30.273,-40.527,-303.223,0.000
1606142465.223,66.406,2.930,-35.645,364.258,0.000
1606142465.227,60.059,-11.230,-36.133,502.441,0.000
1606142465.231,-76.660,-22.949,-47.363,-93.750,0.000
1606142465.235,-176.758,-17.578,-54.688,-634.277,0.000
1606142465.239,-126.953,-10.742,-55.664,-452.148,0.000
1606142465.243,6.836,1.953,-55.664,212.402,0.000
1606142465.246,44.434,3.906,-55.176,473.145,0.000
1606142465.250,-63.965,-2.441,-62.988,-32.715,0.000
1606142465.254,-179.688,-11.719,-73.242,-635.742,0.000
1606142465.258,-157.227,-5.859,-72.266,-558.594,0.000
1606142465.262,-19.043,2.930,-64.453,133.301,0.000
1606142465.266,50.293,4.395,-65.430,502.930,0.000
1606142465.270,-38.086,-0.488,-70.801,75.684,0.000
1606142465.274,-155.762,-11.230,-69.336,-564.453,0.000
1606142465.278,-146.484,-15.137,-68.848,-585.449,0.000
1606142465.282,-7.324,8.301,-64.941,79.102,0.000
1606142465.286,80.566,11.719,-57.129,533.203,0.000
1606142465.289,0.000,-16.113,-60.059,199.707,0.000
1606142465.293,-133.789,-26.855,-70.312,-477.539,0.000
1606142465.297,-130.371,-26.367,-67.383,-594.238,0.000
1606142465.301,16.602,-16.602,-54.199,33.691,0.000
1606142465.305,113.770,-10.742,-50.293,544.434,0.000
1606142465.309,49.805,-15.137,-48.340,303.711,0.000
1606142465.313,-91.797,-24.902,-54.199,-379.883,0.000
1606142465.317,-128.418,-33.691,-60.059,-600.586,0.000
1606142465.321,-8.301,-18.555,-52.246,-49.805,0.000
1606142465.325,91.309,-6.348,-43.945,508.301,0.000
1606142465.329,51.758,-11.719,-45.410,362.793,0.000
1606142465.332,-80.078,-22.949,-54.688,-313.965,0.000
1606142465.336,-136.230,-31.738,-54.688,-617.188,0.000
1606142465.340,-33.203,-28.320,-47.852,-149.902,0.000
1606142465.344,85.938,-23.438,-38.086,461.914,0.000
1606142465.348,60.547,-21.484,-38.574,431.641,0.000
1606142465.352,-81.055,-24.902,-46.387,-243.652,0.000
1606142465.356,-146.973,-34.180,-50.293,-635.254,0.000
1606142465.360,-51.270,-23.926,-45.410,-216.309,0.000
1606142465.364,78.613,1.465,-35.645,437.500,0.000
1606142465.368,74.219,-7.812,-33.691,484.375,0.000
1606142465.371,-67.383,-22.949,-36.133,-154.297,0.000
1606142465.375,-151.855,-30.762,-43.457,-619.629,0.000
1606142465.379,-72.266,-29.297,-38.086,-312.500,0.000
1606142465.383,68.359,-23.438,-29.785,355.469,0.000
1606142465.387,89.355,-23.926,-32.227,504.395,0.000
1606142465.391,-36.621,-29.785,-38.086,-67.871,0.000
1606142465.395,-134.766,-36.133,-45.898,-599.121,0.000
1606142465.399,-83.008,-34.180,-44.434,-406.738,0.000
1606142465.403,57.617,-20.996,-33.203,300.781,0.000
1606142465.407,95.703,-17.578,-30.762,558.105,0.000
1606142465.411,-23.438,-29.297,-36.621,27.344,0.000
1606142465.414,-138.672,-35.645,-40.039,-562.988,0.000
1606142465.418,-106.934,-28.809,-42.480,-462.891,0.000
1606142465.422,36.133,-13.672,-36.133,229.492,0.000
1606142465.426,99.121,-19.043,-28.809,561.523,0.000
1606142465.430,-0.488,-32.227,-30.273,117.676,0.000
1606142465.434,-124.512,-41.016,-35.645,-507.812,0.000
1606142465.438,-109.863,-40.039,-36.621,-508.301,0.000
1606142465.442,17.578,-30.273,-26.367,148.438,0.000
1606142465.446,84.473,-22.461,-22.949,567.871,0.000
1606142465.450,1.465,-24.902,-30.273,213.867,0.000
1606142465.454,-122.559,-31.250,-32.715,-445.312,0.000
1606142465.457,-132.812,-35.645,-32.715,-562.500,0.000
1606142465.461,-1.465,-27.344,-27.344,45.410,0.000
1606142465.465,93.262,-18.555,-24.414,545.410,0.000
1606142465.469,21.973,-28.809,-28.320,285.645,0.000
1606142465.473,-112.305,-39.551,-28.809,-393.555,0.000
1606142465.477,-135.254,-42.969,-30.762,-592.773,0.000
1606142465.481,-18.555,-36.621,-26.367,-43.945,0.000
1606142465.485,93.750,-18.066,-15.625,514.160,0.000
1606142465.489,52.734,-20.020,-17.578,370.117,0.000
1606142465.493,-84.473,-37.598,-26.855,-307.617,0.000
1606142465.496,-122.070,-37.109,-33.691,-590.332,0.000
1606142465.500,-30.762,-17.090,-26.367,-120.117,0.000
1606142465.504,63.477,-14.648,-20.996,450.195,0.000
1606142465.508,41.992,-23.926,-19.531,399.902,0.000
1606142465.512,-102.051,-25.879,-24.414,-266.602,0.000
1606142465.516,-166.016,-30.273,-31.250,-639.648,0.000
1606142465.520,-59.082,-24.414,-25.879,-221.191,0.000
1606142465.524,78.125,-17.090,-20.020,438.477,0.000
1606142465.528,79.590,-19.043,-20.508,486.328,0.000
1606142465.532,-56.641,-26.367,-25.391,-170.410,0.000
1606142465.536,-145.508,-31.738,-35.645,-620.117,0.000
1606142465.539,-67.871,-25.391,-35.645,-309.082,0.000
1606142465.543,72.754,-16.113,-22.949,362.793,0.000
1606142465.547,80.566,-21.973,-22.949,527.344,0.000
1606142465.551,-43.457,-29.297,-29.785,-67.383,0.000
1606142465.555,-133.789,-36.133,-33.203,-596.191,0.000
1606142465.559,-83.008,-35.156,-33.203,-381.836,0.000
1606142465.563,55.176,-9.766,-28.320,313.477,0.000
1606142465.567,87.891,-11.719,-24.902,557.129,0.000
1606142465.571,-26.855,-29.297,-31.738,15.137,0.000
1606142465.575,-130.371,-33.203,-34.668,-565.918,0.000
1606142465.579,-86.914,-35.156,-29.297,-445.312,0.000
1606142465.582,44.922,-25.391,-19.531,237.305,0.000
1606142465.586,87.891,-17.090,-15.625,564.941,0.000
1606142465.590,-9.277,-26.855,-23.926,118.164,0.000
1606142465.594,-126.465,-41.504,-29.785,-505.371,0.000
1606142465.598,-114.746,-40.039,-32.715,-515.137,0.000
1606142465.602,20.508,-28.320,-26.367,151.855,0.000
1606142465.606,95.703,-21.484,-20.508,564.941,0.000
1606142465.610,8.789,-27.832,-24.414,189.941,0.000
1606142465.614,-125.000,-37.109,-32.715,-467.285,0.000
1606142465.618,-131.348,-37.109,-36.133,-564.941,0.000
1606142465.621,-2.930,-36.133,-28.320,60.547,0.000
1606142465.625,90.332,-25.391,-20.020,557.617,0.000
1606142465.629,29.297,-23.926,-23.926,276.855,0.000
1606142465.633,-105.957,-38.086,-35.645,-414.062,0.000
1606142465.637,-128.418,-36.621,-37.598,-588.867,0.000
1606142465.641,-7.812,-19.043,-30.762,-1.953,0.000
1606142465.645,89.355,-13.184,-25.879,538.574,0.000
1606142465.649,41.992,-24.902,-26.367,341.797,0.000
1606142465.653,-96.191,-37.598,-31.250,-355.469,0.000
1606142465.657,-142.090,-35.156,-33.203,-625.000,0.000
1606142465.661,-36.133,-29.785,-26.855,-122.559,0.000
1606142465.664,73.730,-30.273,-20.020,472.656,0.000
1606142465.668,46.875,-30.273,-27.344,397.949,0.000
1606142465.672,-91.797,-30.762,-33.691,-280.273,0.000
1606142465.676,-156.738,-30.762,-40.527,-640.137,0.000
1606142465.680,-63.477,-24.414,-36.621,-218.750,0.000
1606142465.684,69.336,-20.020,-23.926,429.688,0.000
1606142465.688,65.918,-21.973,-20.996,472.656,0.000
1606142465.692,-79.102,-38.574,-30.273,-188.965,0.000
1606142465.696,-163.086,-47.363,-39.551,-638.184,0.000
1606142465.700,-85.938,-41.992,-37.598,-298.828,0.000
1606142465.704,47.852,-36.621,-27.344,379.395,0.000
1606142465.707,59.570,-27.832,-24.414,502.930,0.000
1606142465.711,-64.453,-35.645,-30.762,-102.539,0.000
1606142465.715,-157.227,-44.434,-34.668,-610.352,0.000
1606142465.719,-93.262,-36.133,-32.715,-368.164,0.000
1606142465.723,48.828,-24.414,-20.508,319.824,0.000
1606142465.727,82.031,-19.531,-16.113,542.480,0.000
1606142465.731,-20.020,-22.949,-22.461,15.137,0.000
1606142465.735,-125.000,-25.879,-34.180,-555.176,0.000
1606142465.739,-97.656,-23.926,-38.574,-438.477,0.000
1606142465.743,42.480,-16.113,-30.762,243.652,0.000
1606142465.746,102.051,-16.113,-24.414,548.340,0.000
1606142465.750,-6.836,-31.738,-27.344,70.801,0.000
1606142465.754,-135.254,-40.527,-36.133,-537.109,0.000
1606142465.758,-118.652,-38.086,-34.180,-500.977,0.000
1606142465.762,19.043,-36.621,-26.855,166.992,0.000
1606142465.766,86.914,-30.762,-23.926,556.641,0.000
1606142465.770,-10.742,-30.273,-31.250,173.828,0.000
1606142465.774,-139.160,-37.109,-34.668,-481.934,0.000
1606142465.778,-136.719,-38.086,-34.180,-553.711,0.000
1606142465.782,-9.766,-33.691,-31.738,85.938,0.000
1606142465.786,71.777,-37.598,-24.902,547.852,0.000
1606142465.789,5.859,-39.062,-24.414,251.953,0.000
1606142465.793,-124.512,-41.016,-35.156,-428.223,0.000
1606142465.797,-143.555,-47.363,-41.992,-597.656,0.000
1606142465.801,-15.137,-39.062,-34.180,2.441,0.000
1606142465.805,86.914,-29.297,-25.391,538.086,0.000
1606142465.809,30.273,-29.297,-30.273,330.566,0.000
1606142465.813,-113.281,-38.574,-43.945,-363.770,0.000
1606142465.817,-150.391,-41.016,-42.480,-617.188,0.000
1606142465.821,-37.598,-35.645,-32.715,-93.750,0.000
1606142465.825,83.008,-21.973,-23.926,499.023,0.000
1606142465.829,57.617,-13.184,-22.461,416.992,0.000
1606142465.832,-84.961,-31.250,-32.715,-269.531,0.000
1606142465.836,-139.160,-40.527,-39.062,-629.883,0.000
1606142465.840,-48.828,-41.016,-31.738,-197.266,0.000
1606142465.844,66.406,-37.598,-21.973,447.754,0.000
1606142465.848,68.848,-24.902,-16.602,464.844,0.000
1606142465.852,-64.453,-32.227,-23.926,-201.660,0.000
1606142465.856,-145.996,-38.574,-30.273,-632.324,0.000
1606142465.860,-62.012,-24.414,-22.461,-277.344,0.000
1606142465.864,68.848,-13.672,-17.578,388.672,0.000
1606142465.868,74.707,-20.508,-20.020,500.488,0.000
1606142465.871,-49.805,-28.320,-21.973,-109.863,0.000
1606142465.875,-139.160,-31.250,-27.344,-605.469,0.000
1606142465.879,-85.449,-27.832,-30.273,-355.469,0.000
1606142465.883,46.387,-20.020,-24.902,329.590,0.000
1606142465.887,77.148,-16.602,-19.531,536.621,0.000
1606142465.891,-40.039,-19.531,-22.949,-18.066,0.000
1606142465.895,-145.996,-30.762,-31.250,-582.520,0.000
1606142465.899,-100.098,-25.391,-26.367,-428.223,0.000
1606142465.903,39.062,-16.113,-17.578,260.742,0.000
1606142465.907,80.078,-18.555,-16.602,550.781,0.000
1606142465.911,-23.438,-23.438,-20.020,76.172,0.000
1606142465.914,-144.043,-32.227,-32.227,-557.129,0.000
1606142465.918,-106.445,-33.691,-33.691,-458.984,0.000
1606142465.922,52.246,-17.578,-25.879,259.766,0.000
1606142465.926,103.027,-15.137,-21.973,568.359,0.000
1606142465.930,5.859,-32.227,-22.949,161.621,0.000
1606142465.934,-120.117,-41.504,-28.809,-481.445,0.000
1606142465.938,-119.629,-42.480,-32.227,-544.434,0.000
1606142465.942,12.207,-32.715,-26.367,100.586,0.000
1606142465.946,92.285,-24.414,-19.531,557.129,0.000
1606142465.950,15.137,-31.738,-22.949,241.211,0.000
1606142465.954,-122.559,-37.598,-37.109,-433.105,0.000
1606142465.957,-139.160,-38.086,-37.598,-589.355,0.000
1606142465.961,-8.301,-32.715,-24.414,13.672,0.000
1606142465.965,91.309,-23.926,-20.996,551.270,0.000
1606142465.969,35.645,-25.879,-24.414,332.031,0.000
1606142465.973,-104.004,-35.156,-34.180,-364.746,0.000
1606142465.977,-145.020,-38.574,-38.574,-611.328,0.000
1606142465.981,-40.039,-27.832,-32.227,-78.125,0.000
1606142465.985,67.383,-17.578,-22.949,506.836,0.000
1606142465.989,35.156,-28.320,-21.973,386.719,0.000
1606142465.993,-107.422,-38.574,-29.785,-304.199,0.000
1606142465.996,-168.457,-38.574,-33.691,-634.277,0.000
1606142466.000,-64.453,-31.738,-29.297,-172.363,0.000
1606142466.004,76.172,-19.043,-23.438,460.938,0.000
1606142466.008,53.223,-23.438,-19.043,451.660,0.000
1606142466.012,-96.191,-32.227,-25.879,-214.844,0.000
1606142466.016,-159.180,-32.227,-28.320,-616.211,0.000
1606142466.020,-77.637,-30.273,-20.020,-250.000,0.000
1606142466.024,51.758,-22.949,-13.672,394.531,0.000
1606142466.028,56.152,-26.367,-14.160,482.910,0.000
1606142466.032,-70.801,-35.645,-24.902,-140.625,0.000
1606142466.036,-152.832,-43.457,-31.250,-621.094,0.000
1606142466.039,-80.566,-36.621,-27.344,-347.168,0.000
1606142466.043,58.594,-21.973,-19.043,343.750,0.000
1606142466.047,83.984,-26.367,-13.184,536.133,0.000
1606142466.051,-38.086,-36.133,-21.973,-40.527,0.000
1606142466.055,-142.090,-35.156,-32.227,-588.379,0.000
1606142466.059,-89.355,-31.250,-27.832,-399.902,0.000
1606142466.063,48.340,-29.297,-20.508,290.527,0.000
1606142466.067,81.055,-27.344,-15.625,554.688,0.000
1606142466.071,-29.785,-33.203,-21.484,51.758,0.000
1606142466.075,-144.531,-39.551,-29.297,-554.199,0.000
1606142466.079,-115.723,-34.180,-28.320,-480.469,0.000
1606142466.082,27.344,-27.832,-19.043,215.820,0.000
1606142466.086,83.496,-25.879,-15.137,572.266,0.000
1606142466.090,-11.230,-29.297,-23.926,142.090,0.000
1606142466.094,-131.836,-35.156,-32.227,-490.234,0.000
1606142466.098,-126.953,-35.156,-33.691,-528.320,0.000
1606142466.102,8.301,-29.297,-27.832,115.723,0.000
1606142466.106,90.820,-22.461,-19.043,563.965,0.000
1606142466.110,9.277,-17.578,-20.996,241.211,0.000
1606142466.114,-118.164,-21.484,-29.297,-431.641,0.000
1606142466.118,-135.742,-35.645,-34.180,-580.078,0.000
1606142466.121,-14.648,-25.879,-25.391,20.508,0.000
1606142466.125,88.379,-4.883,-15.625,543.945,0.000
1606142466.129,30.273,-11.719,-20.020,308.594,0.000
1606142466.133,-108.398,-21.484,-29.785,-374.023,0.000
1606142466.137,-141.602,-25.879,-33.691,-599.121,0.000
1606142466.141,-22.949,-21.484,-26.855,-53.223,0.000
1606142466.145,83.984,-21.973,-27.344,512.695,0.000
1606142466.149,44.922,-28.809,-29.297,366.699,0.000
1606142466.153,-85.449,-32.715,-25.391,-301.270,0.000
1606142466.157,-135.254,-32.227,-24.902,-608.398,0.000
1606142466.161,-37.109,-25.879,-20.020,-147.949,0.000
1606142466.164,78.125,-20.508,-16.113,473.145,0.000
1606142466.168,56.152,-25.879,-19.531,432.617,0.000
1606142466.172,-73.242,-29.785,-26.855,-235.840,0.000
1606142466.176,-139.648,-34.180,-29.785,-625.000,0.000
1606142466.180,-56.152,-31.738,-26.367,-239.258,0.000
1606142466.184,73.730,-16.602,-13.672,420.898,0.000
1606142466.188,78.125,-17.090,-14.648,487.305,0.000
1606142466.192,-61.035,-27.832,-28.320,-153.320,0.000
1606142466.196,-159.180,-32.715,-33.203,-621.094,0.000
1606142466.200,-86.426,-24.902,-33.691,-327.637,0.000
1606142466.204,54.688,-17.578,-29.297,359.863,0.000
1606142466.207,67.871,-24.414,-20.996,529.297,0.000
1606142466.211,-69.336,-39.062,-21.973,-69.336,0.000
1606142466.215,-171.875,-45.410,-31.738,-603.516,0.000
1606142466.219,-110.840,-30.762,-31.738,-402.344,0.000
1606142466.223,29.297,-19.043,-22.949,277.832,0.000
1606142466.227,56.641,-25.391,-20.996,528.809,0.000
1606142466.231,-54.688,-33.691,-30.273,11.230,0.000
1606142466.235,-154.297,-40.527,-37.109,-564.453,0.000
1606142466.239,-116.699,-37.109,-33.691,-465.332,0.000
1606142466.243,24.902,-25.879,-22.461,217.285,0.000
1606142466.246,82.031,-20.996,-17.090,567.871,0.000
1606142466.250,-9.766,-26.367,-24.414,140.137,0.000
1606142466.254,-127.930,-39.062,-31.250,-488.770,0.000
1606142466.258,-121.582,-45.898,-30.273,-503.906,0.000
1606142466.262,12.207,-42.969,-27.344,148.438,0.000
1606142466.266,88.867,-32.715,-21.973,567.871,0.000
1606142466.270,6.836,-31.250,-23.926,219.727,0.000
1606142466.274,-127.930,-39.551,-35.156,-444.336,0.000
1606142466.278,-138.184,-42.480,-36.621,-566.895,0.000
1606142466.282,2.441,-35.156,-24.902,55.664,0.000
1606142466.286,100.586,-25.879,-12.695,562.012,0.000
1606142466.289,35.156,-28.809,-18.066,299.316,0.000
1606142466.293,-102.051,-34.180,-31.738,-383.301,0.000
1606142466.297,-130.859,-34.668,-31.738,-573.242,0.000
1606142466.301,-19.043,-20.996,-26.855,-18.555,0.000
1606142466.305,74.707,-10.254,-23.438,519.531,0.000
1606142466.309,31.250,-23.926,-23.926,361.328,0.000
1606142466.313,-105.469,-33.691,-30.762,-322.266,0.000
1606142466.317,-147.949,-33.203,-32.227,-616.699,0.000
1606142466.321,-35.156,-22.461,-23.926,-124.512,0.000
1606142466.325,79.590,-15.137,-16.602,487.305,0.000
1606142466.329,58.105,-24.902,-19.043,430.176,0.000
1606142466.332,-83.984,-34.180,-31.250,-247.070,0.000
1606142466.336,-152.344,-38.086,-37.598,-625.488,0.000
1606142466.340,-55.176,-30.762,-26.855,-212.891,0.000
1606142466.344,76.660,-18.555,-18.555,441.895,0.000
1606142466.348,80.566,-17.090,-22.461,494.141,0.000
1606142466.352,-55.176,-31.250,-31.250,-151.855,0.000
1606142466.356,-140.137,-43.945,-34.180,-610.840,0.000
1606142466.360,-67.871,-32.227,-30.273,-294.434,0.000
1606142466.364,63.965,-16.113,-19.531,381.836,0.000
1606142466.368,85.938,-21.484,-18.066,521.484,0.000
1606142466.371,-35.645,-28.320,-28.809,-69.824,0.000
1606142466.375,-129.395,-25.879,-35.156,-576.660,0.000
1606142466.379,-76.172,-23.926,-31.738,-362.793,0.000
1606142466.383,52.734,-23.438,-22.461,309.082,0.000
1606142466.387,88.867,-17.090,-16.113,551.758,0.000
1606142466.391,-23.926,-21.973,-21.973,26.367,0.000
1606142466.395,-135.742,-35.156,-35.156,-560.547,0.000
1606142466.399,-96.191,-33.203,-32.715,-458.984,0.000
1606142466.403,32.715,-9.766,-27.344,221.680,0.000
1606142466.407,84.961,-5.371,-21.484,552.734,0.000
1606142466.411,-6.348,-19.043,-23.926,107.910,0.000
1606142466.414,-131.348,-32.715,-37.109,-518.555,0.000
1606142466.418,-121.094,-34.180,-36.621,-523.926,0.000
1606142466.422,23.438,-15.137,-25.391,147.949,0.000
1606142466.426,100.098,-16.113,-20.508,569.824,0.000
1606142466.430,3.418,-34.180,-20.508,190.430,0.000
1606142466.434,-132.812,-41.504,-23.438,-472.656,0.000
1606142466.438,-132.812,-30.762,-23.926,-546.387,0.000
1606142466.442,-4.395,-8.301,-21.973,79.590,0.000
1606142466.446,81.543,-12.695,-22.461,542.969,0.000
1606142466.450,18.066,-27.832,-25.391,257.812,0.000
1606142466.454,-114.746,-29.785,-34.668,-417.480,0.000
1606142466.457,-138.672,-33.203,-36.133,-601.562,0.000
1606142466.461,-18.555,-25.879,-24.902,-31.250,0.000
1606142466.465,84.961,-19.043,-16.602,521.484,0.000
1606142466.469,34.180,-27.832,-18.066,352.539,0.000
1606142466.473,-107.422,-35.645,-26.367,-332.520,0.000
1606142466.477,-148.926,-33.691,-29.297,-609.863,0.000
1606142466.481,-36.133,-23.926,-19.531,-99.609,0.000
1606142466.485,84.473,-15.137,-12.207,508.789,0.000
1606142466.489,55.664,-27.344,-15.625,422.852,0.000
1606142466.493,-83.496,-34.180,-22.949,-263.672,0.000
1606142466.496,-143.555,-34.180,-30.273,-622.559,0.000
1606142466.500,-55.664,-20.508,-27.832,-207.031,0.000
1606142466.504,66.406,-9.277,-20.996,438.965,0.000
1606142466.508,56.152,-23.926,-20.020,471.191,0.000
1606142466.512,-79.102,-31.250,-28.809,-185.059,0.000
1606142466.516,-145.508,-38.086,-27.344,-625.488,0.000
1606142466.520,-69.336,-34.668,-16.602,-295.410,0.000
1606142466.524,55.176,-22.949,-17.578,371.582,0.000
1606142466.528,71.289,-21.973,-22.461,504.883,0.000
1606142466.532,-52.246,-27.832,-21.973,-88.867,0.000
1606142466.536,-145.508,-37.109,-26.367,-605.469,0.000
1606142466.539,-83.496,-29.785,-32.715,-375.488,0.000
1606142466.543,58.105,-8.789,-23.926,312.988,0.000
1606142466.547,89.355,-16.602,-19.531,535.645,0.000
1606142466.551,-28.320,-31.250,-29.785,-3.418,0.000
1606142466.555,-134.277,-35.156,-36.133,-572.754,0.000
1606142466.559,-98.145,-29.785,-31.738,-438.965,0.000
1606142466.563,33.203,-21.484,-19.531,252.441,0.000
1606142466.567,84.961,-16.602,-15.137,558.105,0.000
1606142466.571,-22.461,-23.438,-22.949,84.473,0.000
1606142466.575,-148.438,-34.180,-30.273,-538.086,0.000
1606142466.579,-124.512,-36.133,-30.273,-500.977,0.000
1606142466.582,9.277,-3.906,-25.391,166.016,0.000
1606142466.586,71.289,1.465,-21.484,545.410,0.000
1606142466.590,-17.578,-34.180,-26.367,153.320,0.000
1606142466.594,-144.531,-43.945,-34.668,-494.141,0.000
1606142466.598,-144.043,-40.527,-32.227,-561.523,0.000
1606142466.602,-12.207,-31.738,-20.996,74.219,0.000
1606142466.606,70.312,-29.297,-22.461,542.969,0.000
1606142466.610,6.836,-26.855,-25.391,254.395,0.000
1606142466.614,-122.070,-32.715,-33.203,-412.109,0.000
1606142466.618,-143.066,-43.945,-39.551,-588.379,0.000
1606142466.621,-17.578,-31.250,-26.855,-0.977,0.000
1606142466.625,80.566,-21.484,-18.555,546.875,0.000
1606142466.629,38.086,-34.180,-20.996,344.238,0.000
1606142466.633,-100.098,-41.016,-36.133,-350.586,0.000
1606142466.637,-144.043,-37.598,-38.574,-609.375,0.000
1606142466.641,-37.598,-24.902,-25.391,-91.309,0.000
1606142466.645,72.266,-19.531,-14.648,500.000,0.000
1606142466.649,41.504,-31.250,-15.625,399.902,0.000
1606142466.653,-94.727,-39.551,-31.250,-290.039,0.000
1606142466.657,-148.438,-37.598,-34.668,-625.977,0.000
1606142466.661,-45.898,-29.785,-26.367,-179.199,0.000
1606142466.664,82.031,-20.508,-17.090,452.148,0.000
1606142466.668,69.336,-25.391,-14.648,472.168,0.000
1606142466.672,-68.359,-34.180,-24.902,-180.176,0.000
1606142466.676,-141.602,-35.156,-34.668,-610.840,0.000
1606142466.680,-64.453,-26.855,-30.762,-264.648,0.000
1606142466.684,63.477,-22.949,-22.949,390.625,0.000
1606142466.688,76.172,-31.738,-20.508,502.441,0.000
1606142466.692,-58.105,-35.645,-30.273,-116.211,0.000
1606142466.696,-150.879,-38.086,-34.668,-615.234,0.000
1606142466.700,-86.426,-28.320,-30.273,-362.793,0.000
1606142466.704,43.457,-17.090,-28.809,312.012,0.000
1606142466.707,67.383,-22.461,-24.902,518.066,0.000
1606142466.711,-51.270,-29.785,-30.273,-38.086,0.000
1606142466.715,-150.879,-32.227,-36.133,-586.914,0.000
1606142466.719,-99.609,-16.602,-28.809,-420.898,0.000
1606142466.723,38.574,-0.488,-20.996,265.137,0.000
1606142466.727,84.961,-12.207,-15.137,559.082,0.000
1606142466.731,-22.461,-25.879,-20.508,71.777,0.000
1606142466.735,-137.695,-36.133,-29.297,-542.480,0.000
1606142466.739,-111.816,-41.504,-25.391,-488.770,0.000
1606142466.743,22.949,-29.785,-20.508,191.895,0.000
1606142466.746,87.402,-24.902,-20.020,565.430,0.000
1606142466.750,2.441,-28.320,-20.508,169.434,0.000
1606142466.754,-124.023,-35.156,-29.297,-468.262,0.000
1606142466.758,-124.023,-35.645,-34.668,-524.414,0.000
1606142466.762,8.789,-21.484,-22.949,117.188,0.000
1606142466.766,89.844,-19.531,-13.184,570.312,0.000
1606142466.770,13.672,-30.273,-20.020,255.859,0.000
1606142466.774,-123.535,-36.133,-28.320,-425.293,0.000
1606142466.778,-142.090,-43.945,-34.668,-583.008,0.000
1606142466.782,-18.066,-25.391,-32.715,11.230,0.000
1606142466.786,84.961,-9.277,-24.414,538.086,0.000
1606142466.789,37.598,-28.320,-28.809,321.289,0.000
1606142466.793,-98.633,-42.480,-34.180,-374.512,0.000
1606142466.797,-130.859,-40.039,-30.762,-605.957,0.000
1606142466.801,-13.184,-23.438,-24.902,-59.570,0.000
1606142466.805,90.332,-19.043,-19.531,509.766,0.000
1606142466.809,48.340,-23.926,-18.066,393.555,0.000
1606142466.813,-97.168,-29.297,-28.320,-271.484,0.000
1606142466.817,-157.227,-37.598,-34.180,-608.398,0.000
1606142466.821,-57.129,-26.367,-26.367,-165.039,0.000
1606142466.825,66.406,-13.672,-19.043,458.984,0.000
1606142466.829,61.035,-16.602,-23.438,444.336,0.000
1606142466.832,-70.801,-25.391,-29.785,-215.820,0.000
1606142466.836,-157.227,-35.645,-27.832,-626.953,0.000
1606142466.840,-86.914,-40.527,-24.414,-273.926,0.000
1606142466.844,51.270,-29.785,-20.508,389.648,0.000
1606142466.848,62.500,-23.438,-21.484,495.117,0.000
1606142466.852,-74.707,-38.086,-30.762,-136.719,0.000
1606142466.856,-158.203,-46.387,-27.344,-616.211,0.000
1606142466.860,-85.449,-32.715,-21.484,-330.566,0.000
1606142466.864,46.387,-19.043,-22.949,340.820,0.000
1606142466.868,67.383,-22.949,-19.531,515.137,0.000
1606142466.871,-56.152,-30.762,-26.855,-52.246,0.000
1606142466.875,-153.809,-35.156,-33.691,-589.355,0.000
1606142466.879,-100.098,-31.250,-27.344,-404.297,0.000
1606142466.883,39.062,-28.320,-20.508,281.250,0.000
1606142466.887,87.402,-26.367,-19.043,549.805,0.000
1606142466.891,-17.090,-29.297,-20.020,52.246,0.000
1606142466.895,-135.254,-35.156,-28.320,-541.504,0.000
1606142466.899,-116.699,-36.621,-34.668,-475.586,0.000
1606142466.903,19.531,-25.879,-25.391,194.824,0.000
1606142466.907,88.379,-19.043,-20.020,568.848,0.000
1606142466.911,-8.789,-29.785,-29.297,139.648,0.000
1606142466.914,-138.184,-37.598,-38.086,-517.578,0.000
1606142466.918,-125.488,-28.809,-33.691,-541.504,0.000
1606142466.922,13.672,-12.695,-24.414,122.070,0.000
1606142466.926,90.332,-15.625,-20.508,566.895,0.000
1606142466.930,9.766,-33.203,-21.973,229.492,0.000
1606142466.934,-121.094,-39.062,-32.227,-437.500,0.000
1606142466.938,-125.488,-38.086,-36.621,-561.523,0.000
1606142466.942,9.277,-35.645,-31.250,51.270,0.000
1606142466.946,97.656,-34.180,-26.367,557.129,0.000
1606142466.950,35.645,-28.320,-23.926,320.801,0.000
1606142466.954,-97.656,-21.484,-27.832,-353.027,0.000
1606142466.957,-137.207,-28.809,-33.691,-583.984,0.000
1606142466.961,-28.320,-8.789,-18.066,-54.199,0.000
1606142466.965,79.590,6.348,-6.348,516.113,0.000
1606142466.969,44.434,-22.461,-13.184,381.348,0.000
1606142466.973,-94.238,-39.551,-23.438,-309.082,0.000
1606142466.977,-148.926,-41.504,-29.785,-620.117,0.000
1606142466.981,-48.828,-35.156,-26.367,-151.367,0.000
1606142466.985,73.730,-25.879,-17.090,467.285,0.000
1606142466.989,56.641,-26.855,-17.090,439.941,0.000
1606142466.993,-89.355,-42.480,-24.414,-234.375,0.000
1606142466.996,-154.785,-40.039,-26.367,-621.094,0.000
1606142467.000,-70.801,-29.785,-24.902,-227.539,0.000
1606142467.004,59.082,-27.344,-15.137,420.410,0.000
1606142467.008,84.473,-22.461,-12.207,503.418,0.000
1606142467.012,-41.992,-23.438,-24.902,-130.371,0.000
1606142467.016,-132.324,-24.414,-34.180,-611.816,0.000
1606142467.020,-76.172,-22.949,-40.039,-333.984,0.000
1606142467.024,54.199,-14.648,-34.668,337.891,0.000
1606142467.028,80.566,-14.648,-32.715,512.207,0.000
1606142467.032,-41.992,-18.555,-44.434,-58.105,0.000
1606142467.036,-138.184,-20.020,-45.898,-581.055,0.000
1606142467.039,-91.309,-19.043,-38.574,-395.996,0.000
1606142467.043,41.992,-10.742,-29.297,282.227,0.000
1606142467.047,86.914,-13.184,-26.855,554.688,0.000
1606142467.051,-26.367,-21.973,-40.039,36.133,0.000
1606142467.055,-144.043,-29.785,-49.805,-568.359,0.000
1606142467.059,-116.211,-27.832,-45.898,-484.863,0.000
1606142467.063,21.484,-21.973,-36.133,203.613,0.000
1606142467.067,83.008,-18.066,-32.227,555.664,0.000
1606142467.071,-2.441,-18.555,-36.133,116.211,0.000
1606142467.075,-130.859,-27.832,-43.457,-516.602,0.000
1606142467.079,-127.930,-30.762,-39.551,-533.203,0.000
1606142467.082,10.254,-24.902,-24.902,125.977,0.000
1606142467.086,79.102,-28.320,-24.902,544.922,0.000
1606142467.090,-2.930,-28.809,-34.180,194.824,0.000
1606142467.094,-126.953,-25.879,-40.039,-457.520,0.000
1606142467.098,-136.719,-33.691,-44.922,-577.637,0.000
1606142467.102,0.977,-21.484,-37.598,38.086,0.000
1606142467.106,94.727,-13.672,-24.414,541.992,0.000
1606142467.110,17.090,-26.367,-29.785,289.551,0.000
1606142467.114,-121.582,-40.527,-39.551,-393.066,0.000
1606142467.118,-156.250,-44.434,-41.504,-602.539,0.000
1606142467.121,-40.039,-38.086,-40.527,-53.223,0.000
1606142467.125,72.266,-33.203,-29.297,510.254,0.000
1606142467.129,39.062,-31.738,-23.438,368.652,0.000
1606142467.133,-94.238,-32.227,-33.203,-311.035,0.000
1606142467.137,-137.695,-33.691,-37.598,-607.910,0.000
1606142467.141,-26.367,-23.926,-28.809,-115.723,0.000
1606142467.145,89.355,-16.602,-24.414,499.023,0.000
1606142467.149,62.988,-22.949,-22.949,442.871,0.000
1606142467.153,-82.031,-31.250,-29.785,-250.000,0.000
1606142467.157,-154.297,-39.551,-43.457,-639.160,0.000
1606142467.161,-63.965,-38.086,-41.016,-233.887,0.000
1606142467.164,64.941,-29.785,-29.785,418.457,0.000
1606142467.168,64.941,-21.484,-26.367,476.074,0.000
1606142467.172,-67.871,-28.809,-31.250,-168.457,0.000
1606142467.176,-151.855,-39.062,-38.086,-622.070,0.000
1606142467.180,-81.543,-39.551,-35.156,-315.430,0.000
1606142467.184,54.688,-29.785,-20.996,363.281,0.000
1606142467.188,74.219,-23.438,-19.043,525.879,0.000
1606142467.192,-56.152,-38.086,-26.367,-73.242,0.000
1606142467.196,-154.297,-50.293,-34.180,-602.051,0.000
1606142467.200,-103.027,-33.203,-34.180,-394.043,0.000
1606142467.204,34.668,-17.578,-19.043,294.434,0.000
1606142467.207,70.312,-28.809,-8.301,539.551,0.000
1606142467.211,-44.922,-40.039,-17.090,12.207,0.000
1606142467.215,-149.414,-41.992,-23.926,-564.941,0.000
1606142467.219,-113.770,-30.762,-27.344,-454.102,0.000
1606142467.223,30.273,-13.184,-23.926,230.469,0.000
1606142467.227,91.797,-10.742,-14.648,560.059,0.000
1606142467.231,-5.371,-18.066,-14.160,113.281,0.000
1606142467.235,-123.535,-30.273,-24.902,-500.488,0.000
1606142467.239,-115.234,-35.645,-33.203,-505.371,0.000
1606142467.243,13.184,-15.625,-26.367,137.695,0.000
1606142467.246,84.961,-10.742,-18.066,544.434,0.000
1606142467.250,3.906,-24.414,-21.484,183.594,0.000
1606142467.254,-123.047,-34.180,-26.367,-472.168,0.000
1606142467.258,-125.977,-39.062,-25.391,-563.965,0.000
1606142467.262,-3.906,-32.227,-23.438,52.734,0.000
1606142467.266,77.148,-20.020,-20.996,527.832,0.000
1606142467.270,10.742,-21.973,-23.438,258.789,0.000
1606142467.274,-125.977,-28.320,-27.344,-412.598,0.000
1606142467.278,-157.227,-30.273,-34.180,-595.703,0.000
1606142467.282,-39.062,-29.297,-30.762,-24.902,0.000
1606142467.286,64.453,-24.902,-19.531,520.996,0.000
1606142467.289,22.949,-26.855,-20.020,354.004,0.000
1606142467.293,-114.258,-34.180,-29.297,-331.543,0.000
1606142467.297,-159.180,-33.691,-32.715,-621.094,0.000
1606142467.301,-57.129,-23.926,-28.320,-128.418,0.000
1606142467.305,51.270,-26.855,-23.926,467.285,0.000
1606142467.309,24.414,-32.715,-22.461,398.438,0.000
1606142467.313,-112.793,-30.762,-29.785,-273.926,0.000
1606142467.317,-174.805,-34.668,-33.691,-642.090,0.000
1606142467.321,-86.914,-35.645,-28.809,-230.469,0.000
1606142467.325,37.598,-31.250,-20.996,407.715,0.000
1606142467.329,34.180,-25.879,-23.438,452.148,0.000
1606142467.332,-102.051,-29.785,-34.180,-199.219,0.000
1606142467.336,-180.664,-41.016,-31.738,-647.949,0.000
1606142467.340,-101.562,-31.738,-26.855,-312.988,0.000
1606142467.344,35.156,-10.254,-22.949,365.234,0.000
1606142467.348,53.711,-17.578,-19.043,492.188,0.000
1606142467.352,-70.312,-29.297,-28.809,-112.305,0.000
1606142467.356,-165.527,-35.645,-39.062,-619.629,0.000
1606142467.360,-107.910,-37.598,-31.738,-376.465,0.000
1606142467.364,39.551,-32.227,-19.043,311.035,0.000
1606142467.368,73.730,-24.414,-17.090,527.344,0.000
1606142467.371,-50.781,-26.855,-21.973,-6.348,0.000
1606142467.375,-146.484,-31.738,-30.273,-559.082,0.000
1606142467.379,-103.027,-26.367,-31.250,-434.082,0.000
1606142467.383,25.879,-21.484,-21.484,236.328,0.000
1606142467.387,72.754,-21.973,-17.578,551.270,0.000
1606142467.391,-32.227,-19.531,-21.973,88.379,0.000
1606142467.395,-151.367,-28.809,-28.809,-530.762,0.000
1606142467.399,-131.836,-33.203,-29.297,-509.766,0.000
1606142467.403,6.348,-19.531,-27.832,161.621,0.000
1606142467.407,77.148,-11.230,-22.949,556.641,0.000
1606142467.411,-4.395,-19.531,-24.902,173.340,0.000
1606142467.414,-134.766,-36.621,-41.016,-485.352,0.000
1606142467.418,-141.113,-35.156,-40.527,-572.266,0.000
1606142467.422,-6.836,-20.508,-30.273,74.707,0.000
1606142467.426,77.637,-14.648,-22.461,542.480,0.000
1606142467.430,9.277,-17.578,-21.973,239.258,0.000
1606142467.434,-122.559,-24.902,-32.715,-428.223,0.000
1606142467.438,-145.020,-29.297,-35.156,-600.098,0.000
1606142467.442,-21.973,-21.973,-27.344,-23.926,0.000
1606142467.446,85.449,-13.184,-20.508,517.090,0.000
1606142467.450,37.598,-19.043,-18.555,329.590,0.000
1606142467.454,-104.492,-27.832,-28.320,-354.492,0.000
1606142467.457,-143.555,-28.809,-34.180,-617.188,0.000
1606142467.461,-33.203,-23.926,-30.273,-111.816,0.000
1606142467.465,82.031,-20.996,-21.484,486.328,0.000
1606142467.469,51.270,-28.320,-19.043,406.738,0.000
1606142467.473,-92.773,-32.715,-24.902,-285.645,0.000
1606142467.477,-148.926,-35.645,-28.809,-639.648,0.000
1606142467.481,-49.805,-22.949,-17.578,-198.730,0.000
1606142467.485,69.336,-11.719,-2.930,452.148,0.000
1606142467.489,55.176,-29.297,-6.836,468.262,0.000
1606142467.493,-76.660,-38.574,-20.996,-190.918,0.000
1606142467.496,-152.344,-37.598,-29.785,-620.117,0.000
1606142467.500,-72.754,-35.156,-25.879,-274.902,0.000
1606142467.504,62.500,-25.879,-21.484,391.113,0.000
1606142467.508,70.801,-24.414,-23.438,498.535,0.000
1606142467.512,-55.176,-30.762,-30.762,-105.957,0.000
1606142467.516,-139.160,-34.180,-34.180,-594.238,0.000
1606142467.520,-80.566,-18.555,-32.227,-355.469,0.000
1606142467.524,42.480,1.465,-30.762,309.570,0.000
1606142467.528,72.754,-17.578,-29.297,519.531,0.000
1606142467.532,-36.621,-33.203,-32.715,-13.184,0.000
1606142467.536,-138.672,-35.645,-39.062,-572.266,0.000
1606142467.539,-88.867,-36.133,-37.598,-424.316,0.000
1606142467.543,35.156,-30.273,-18.555,257.812,0.000
1606142467.547,70.801,-30.762,-9.766,543.457,0.000
1606142467.551,-25.879,-32.715,-20.996,69.824,0.000
1606142467.555,-145.996,-44.434,-31.250,-549.805,0.000
1606142467.559,-124.512,-43.457,-29.785,-506.836,0.000
1606142467.563,20.508,-21.484,-23.926,178.223,0.000
1606142467.567,89.844,-20.508,-22.461,543.457,0.000
1606142467.571,-4.395,-32.227,-21.973,152.832,0.000
1606142467.575,-131.836,-43.945,-21.973,-484.375,0.000
1606142467.579,-129.395,-45.410,-29.785,-541.992,0.000
1606142467.582,2.441,-38.086,-29.785,99.121,0.000
1606142467.586,85.449,-31.738,-16.113,550.781,0.000
1606142467.590,14.648,-35.645,-18.066,246.582,0.000
1606142467.594,-118.164,-42.480,-31.738,-418.457,0.000
1606142467.598,-139.648,-43.945,-36.133,-571.777,0.000
1606142467.602,-16.602,-32.227,-26.367,18.066,0.000
1606142467.606,88.867,-18.066,-18.555,548.340,0.000
1606142467.610,30.273,-24.414,-25.879,338.867,0.000
1606142467.614,-115.234,-33.203,-29.785,-346.680,0.000
1606142467.618,-153.320,-36.621,-29.785,-609.375,0.000
1606142467.621,-41.016,-23.926,-26.855,-105.469,0.000
1606142467.625,80.566,-10.742,-17.578,494.629,0.000
1606142467.629,61.523,-24.902,-21.973,395.020,0.000
1606142467.633,-76.172,-35.156,-32.715,-292.969,0.000
1606142467.637,-142.090,-33.203,-33.691,-622.070,0.000
1606142467.641,-40.039,-25.879,-28.320,-166.992,0.000
1606142467.645,83.008,-23.438,-25.879,460.938,0.000
1606142467.649,64.453,-31.250,-29.297,455.078,0.000
1606142467.653,-76.660,-33.691,-33.691,-208.984,0.000
1606142467.657,-150.391,-32.227,-35.645,-625.000,0.000
1606142467.661,-69.336,-13.672,-33.691,-270.996,0.000
1606142467.664,62.500,0.488,-20.020,393.555,0.000
1606142467.668,74.707,-17.090,-10.742,502.930,0.000
1606142467.672,-53.223,-24.414,-17.578,-115.234,0.000
1606142467.676,-134.277,-25.391,-26.367,-599.121,0.000
1606142467.680,-72.754,-27.344,-24.414,-332.031,0.000
1606142467.684,54.688,-22.461,-17.578,342.773,0.000
1606142467.688,84.473,-20.508,-13.184,538.574,0.000
1606142467.692,-31.738,-28.320,-16.602,-20.020,0.000
1606142467.696,-136.719,-42.480,-26.367,-579.102,0.000
1606142467.700,-94.727,-30.762,-25.879,-405.762,0.000
1606142467.704,42.969,-7.812,-16.602,298.828,0.000
1606142467.707,86.914,-25.879,-9.277,579.102,0.000
1606142467.711,-9.766,-31.738,-17.090,78.125,0.000
1606142467.715,-125.977,-34.180,-33.691,-535.645,0.000
1606142467.719,-98.145,-25.391,-36.621,-470.703,0.000
1606142467.723,46.875,-4.883,-29.785,208.008,0.000
1606142467.727,103.027,-15.625,-23.438,564.453,0.000
1606142467.731,0.000,-32.715,-27.344,142.578,0.000
1606142467.735,-127.441,-39.551,-38.574,-500.000,0.000
1606142467.739,-120.605,-38.086,-37.598,-539.551,0.000
1606142467.743,13.184,-30.273,-29.785,101.074,0.000
1606142467.746,99.609,-25.391,-26.855,551.758,0.000
1606142467.750,23.926,-32.227,-31.738,231.445,0.000
1606142467.754,-106.445,-40.039,-41.992,-444.824,0.000
1606142467.758,-121.582,-38.574,-43.945,-578.613,0.000
1606142467.762,-3.418,-17.578,-36.621,16.113,0.000
1606142467.766,86.426,-15.625,-28.320,533.203,0.000
1606142467.770,30.762,-28.320,-28.809,311.035,0.000
1606142467.774,-110.840,-34.180,-39.062,-392.090,0.000
1606142467.778,-149.414,-36.621,-42.969,-624.023,0.000
1606142467.782,-31.250,-30.273,-32.715,-77.637,0.000
1606142467.786,78.613,-23.926,-22.949,501.465,0.000
1606142467.789,42.969,-27.832,-23.926,383.789,0.000
1606142467.793,-97.168,-41.992,-35.156,-309.082,0.000
1606142467.797,-147.461,-42.969,-34.668,-614.258,0.000
1606142467.801,-47.363,-20.996,-27.832,-147.949,0.000
1606142467.805,67.383,-2.441,-21.484,451.660,0.000
1606142467.809,55.176,-19.043,-19.043,436.523,0.000
1606142467.813,-85.938,-34.180,-25.879,-227.539,0.000
1606142467.817,-161.133,-33.691,-34.180,-632.812,0.000
1606142467.821,-77.637,-27.344,-30.762,-260.254,0.000
1606142467.825,47.852,-20.508,-23.926,389.648,0.000
1606142467.829,59.570,-24.902,-24.414,476.562,0.000
1606142467.832,-68.359,-38.086,-32.715,-147.461,0.000
1606142467.836,-150.391,-44.922,-38.574,-621.094,0.000
1606142467.840,-85.449,-30.762,-32.715,-326.660,0.000
1606142467.844,45.898,-16.602,-24.414,364.746,0.000
1606142467.848,70.312,-27.344,-23.438,528.320,0.000
1606142467.852,-52.246,-33.203,-32.227,-55.176,0.000
1606142467.856,-150.391,-37.109,-37.598,-592.773,0.000
1606142467.860,-105.957,-33.203,-35.156,-415.527,0.000
1606142467.864,31.250,-19.043,-31.250,278.809,0.000
1606142467.868,77.148,-20.020,-29.785,550.293,0.000
1606142467.871,-36.621,-31.738,-37.598,37.598,0.000
1606142467.875,-148.926,-33.203,-43.945,-551.758,0.000
1606142467.879,-109.375,-26.367,-38.086,-466.797,0.000
1606142467.883,31.738,-25.879,-31.250,211.914,0.000
1606142467.887,92.773,-22.461,-24.414,564.453,0.000
1606142467.891,2.441,-26.367,-26.855,138.184,0.000
1606142467.895,-120.605,-37.598,-34.668,-497.070,0.000
1606142467.899,-120.117,-36.133,-39.551,-523.438,0.000
1606142467.903,14.160,-20.508,-36.133,126.953,0.000
1606142467.907,93.750,-17.090,-30.273,556.641,0.000
1606142467.911,11.719,-32.227,-30.273,212.891,0.000
1606142467.914,-117.188,-43.457,-32.227,-453.125,0.000
1606142467.918,-132.324,-46.875,-34.180,-573.730,0.000
1606142467.922,-8.789,-31.738,-24.414,47.852,0.000
1606142467.926,87.402,-20.020,-15.137,556.641,0.000
1606142467.930,27.832,-25.391,-17.578,317.871,0.000
1606142467.934,-108.398,-38.574,-22.949,-354.004,0.000
1606142467.938,-143.066,-43.945,-24.902,-574.219,0.000
1606142467.942,-33.203,-30.762,-25.391,-40.527,0.000
1606142467.946,72.266,-24.902,-24.902,513.184,0.000
1606142467.950,41.016,-29.297,-23.438,368.164,0.000
1606142467.954,-97.168,-31.738,-27.344,-312.012,0.000
1606142467.957,-161.133,-41.992,-32.715,-621.582,0.000
1606142467.961,-57.129,-39.062,-32.715,-147.461,0.000
1606142467.965,72.754,-23.438,-20.020,472.168,0.000
1606142467.969,57.617,-20.996,-15.625,427.734,0.000
1606142467.973,-80.566,-31.738,-24.414,-245.117,0.000
1606142467.977,-147.949,-37.109,-27.832,-625.488,0.000
1606142467.981,-63.965,-30.273,-21.484,-228.027,0.000
1606142467.985,57.129,-24.902,-14.648,437.500,0.000
1606142467.989,55.664,-28.320,-12.207,495.117,0.000
1606142467.993,-76.660,-35.156,-20.020,-159.180,0.000
1606142467.996,-157.227,-40.527,-29.297,-613.281,0.000
1606142468.000,-86.426,-44.922,-28.809,-296.875,0.000
1606142468.004,48.828,-38.574,-24.902,376.953,0.000
1606142468.008,72.754,-33.691,-22.461,524.902,0.000
1606142468.012,-47.363,-34.668,-24.414,-53.711,0.000
1606142468.016,-148.926,-36.621,-32.715,-577.148,0.000
1606142468.020,-99.121,-34.180,-33.691,-379.883,0.000
1606142468.024,46.387,-25.879,-23.438,308.105,0.000
1606142468.028,86.426,-26.855,-17.090,558.105,0.000
1606142468.032,-31.250,-32.227,-22.461,29.785,0.000
1606142468.036,-139.160,-37.598,-31.738,-556.641,0.000
1606142468.039,-102.539,-35.645,-31.738,-449.219,0.000
1606142468.043,34.180,-30.273,-21.973,227.051,0.000
1606142468.047,87.402,-26.855,-16.602,562.988,0.000
1606142468.051,-10.254,-31.250,-28.320,122.070,0.000
1606142468.055,-134.766,-42.480,-41.016,-509.277,0.000
1606142468.059,-129.883,-42.480,-38.086,-508.789,0.000
1606142468.063,10.742,-30.762,-22.949,161.133,0.000
1606142468.067,80.566,-24.414,-18.555,566.895,0.000
1606142468.071,-11.719,-34.668,-26.855,191.406,0.000
1606142468.075,-132.812,-41.016,-35.645,-458.496,0.000
1606142468.079,-136.230,-39.062,-35.156,-547.852,0.000
1606142468.082,-10.254,-30.273,-26.855,74.707,0.000
1606142468.086,75.195,-30.762,-20.996,548.340,0.000
1606142468.090,6.836,-36.133,-20.996,266.602,0.000
1606142468.094,-125.977,-41.016,-30.762,-412.109,0.000
1606142468.098,-149.902,-40.527,-36.133,-612.305,0.000
1606142468.102,-32.227,-31.738,-30.762,-54.199,0.000
1606142468.106,82.520,-20.508,-21.973,506.836,0.000
1606142468.110,49.316,-13.672,-19.531,359.375,0.000
1606142468.114,-89.355,-24.414,-30.762,-322.754,0.000
1606142468.118,-132.324,-33.203,-33.691,-608.398,0.000
1606142468.121,-25.879,-28.320,-31.250,-120.605,0.000
1606142468.125,91.797,-21.973,-24.902,482.910,0.000
1606142468.129,64.941,-25.391,-20.020,426.270,0.000
1606142468.133,-78.613,-38.086,-29.785,-252.441,0.000
1606142468.137,-144.531,-45.898,-31.250,-618.164,0.000
1606142468.141,-52.246,-41.504,-20.996,-200.195,0.000
1606142468.145,71.289,-30.762,-13.672,436.035,0.000
1606142468.149,65.918,-28.809,-10.742,471.680,0.000
1606142468.153,-63.965,-35.156,-20.020,-173.828,0.000
1606142468.157,-144.043,-34.180,-27.344,-610.352,0.000
1606142468.161,-70.801,-31.250,-23.438,-288.086,0.000
1606142468.164,74.707,-25.391,-17.578,376.953,0.000
1606142468.168,90.820,-23.438,-14.648,524.902,0.000
1606142468.172,-39.551,-31.738,-26.367,-66.895,0.000
1606142468.176,-129.883,-42.969,-32.715,-591.797,0.000
1606142468.180,-74.219,-31.250,-28.809,-375.000,0.000
1606142468.184,62.012,-16.113,-22.461,304.688,0.000
1606142468.188,96.680,-19.531,-15.625,540.039,0.000
1606142468.192,-23.438,-30.273,-21.484,9.277,0.000
1606142468.196,-132.324,-41.992,-29.297,-566.406,0.000
1606142468.200,-88.867,-42.969,-23.926,-434.570,0.000
1606142468.204,51.270,-28.809,-18.555,259.766,0.000
1606142468.207,101.562,-24.902,-22.949,569.336,0.000
1606142468.211,-1.953,-36.133,-30.762,101.074,0.000
1606142468.215,-120.605,-37.598,-35.645,-514.160,0.000
1606142468.219,-108.887,-35.645,-35.156,-495.605,0.000
1606142468.223,17.090,-33.691,-25.391,157.715,0.000
1606142468.227,88.867,-24.902,-13.672,559.082,0.000
1606142468.231,0.000,-30.762,-19.043,187.012,0.000
1606142468.235,-139.160,-39.551,-32.227,-466.797,0.000
1606142468.239,-138.672,-34.180,-34.668,-542.480,0.000
1606142468.243,-7.324,-23.926,-28.809,83.496,0.000
1606142468.246,77.637,-21.973,-21.484,554.199,0.000
1606142468.250,16.113,-31.250,-26.367,275.391,0.000
1606142468.254,-114.746,-40.039,-34.668,-394.531,0.000
1606142468.258,-132.324,-34.180,-30.762,-562.012,0.000
1606142468.262,-4.395,-20.508,-22.949,18.066,0.000
1606142468.266,97.168,-16.113,-20.508,551.270,0.000
1606142468.270,42.480,-22.949,-23.926,361.328,0.000
1606142468.274,-98.145,-30.273,-35.645,-328.125,0.000
1606142468.278,-140.625,-36.133,-44.922,-607.422,0.000
1606142468.282,-40.527,-29.785,-38.086,-104.492,0.000
1606142468.286,69.336,-19.531,-26.367,490.723,0.000
1606142468.289,49.316,-16.113,-18.066,417.480,0.000
1606142468.293,-84.961,-22.949,-22.949,-254.883,0.000
1606142468.297,-151.855,-31.738,-37.109,-619.141,0.000
1606142468.301,-52.734,-21.484,-41.504,-192.383,0.000
1606142468.305,80.078,-8.789,-24.414,455.566,0.000
1606142468.309,62.500,-9.766,-18.555,480.469,0.000
1606142468.313,-80.078,-26.855,-30.762,-180.176,0.000
1606142468.317,-149.414,-38.574,-30.762,-614.746,0.000
1606142468.321,-77.148,-27.344,-29.785,-282.227,0.000
1606142468.325,45.410,-16.113,-21.484,374.512,0.000
1606142468.329,62.988,-19.531,-20.508,502.441,0.000
1606142468.332,-66.406,-29.785,-29.297,-104.492,0.000
1606142468.336,-155.762,-40.039,-35.645,-605.469,0.000
1606142468.340,-83.984,-35.156,-28.320,-355.957,0.000
1606142468.344,50.781,-22.461,-16.602,324.707,0.000
1606142468.348,74.219,-25.879,-23.438,533.203,0.000
1606142468.352,-40.527,-41.992,-38.086,-18.555,0.000
1606142468.356,-141.113,-42.969,-41.016,-566.895,0.000
1606142468.360,-92.285,-23.926,-36.621,-404.785,0.000
1606142468.364,51.758,-1.465,-29.785,281.738,0.000
1606142468.368,104.004,-13.672,-26.367,577.148,0.000
1606142468.371,1.465,-27.344,-33.203,96.680,0.000
1606142468.375,-111.816,-23.438,-41.504,-506.836,0.000
1606142468.379,-93.262,-25.391,-41.504,-476.074,0.000
1606142468.383,39.551,-14.648,-27.832,187.500,0.000
1606142468.387,103.516,-10.742,-21.484,571.289,0.000
1606142468.391,10.254,-17.578,-34.180,165.039,0.000
1606142468.395,-116.699,-21.484,-46.875,-484.375,0.000
1606142468.399,-118.652,-23.926,-42.969,-541.504,0.000
1606142468.403,10.742,-17.090,-33.203,93.750,0.000
1606142468.407,89.844,-16.602,-29.297,546.875,0.000
1606142468.411,9.766,-27.832,-37.109,234.863,0.000
1606142468.414,-126.953,-37.598,-50.293,-445.312,0.000
1606142468.418,-139.648,-33.691,-50.293,-598.633,0.000
1606142468.422,-9.277,-17.090,-40.527,-3.906,0.000
1606142468.426,92.773,-11.230,-35.156,531.250,0.000
1606142468.430,40.527,-14.648,-33.203,325.684,0.000
1606142468.434,-94.727,-22.461,-36.133,-360.352,0.000
1606142468.438,-126.953,-25.879,-40.527,-598.633,0.000
1606142468.442,-20.508,-20.508,-34.668,-78.613,0.000
1606142468.446,76.660,-21.973,-30.762,497.070,0.000
1606142468.450,49.805,-29.297,-31.250,402.832,0.000
1606142468.454,-82.031,-33.203,-30.273,-260.742,0.000
1606142468.457,-146.484,-41.992,-38.574,-609.863,0.000
1606142468.461,-47.852,-30.273,-36.133,-180.176,0.000
1606142468.465,82.520,-8.789,-20.508,452.637,0.000
1606142468.469,70.312,-23.438,-17.090,454.102,0.000
1606142468.473,-68.848,-39.062,-28.320,-198.242,0.000
1606142468.477,-148.438,-41.992,-41.992,-620.117,0.000
1606142468.481,-73.730,-35.645,-40.039,-275.391,0.000
1606142468.485,55.176,-25.879,-33.203,393.066,0.000
1606142468.489,70.312,-24.902,-28.809,505.859,0.000
1606142468.493,-56.641,-30.273,-32.715,-108.887,0.000
1606142468.496,-146.484,-38.086,-41.992,-598.633,0.000
1606142468.500,-84.473,-22.949,-44.434,-353.027,0.000
1606142468.504,51.270,-9.277,-37.598,320.312,0.000
1606142468.508,83.008,-25.391,-34.668,520.508,0.000
1606142468.512,-33.691,-28.320,-39.551,-41.016,0.000
1606142468.516,-139.160,-25.879,-47.363,-588.867,0.000
1606142468.520,-100.098,-20.996,-45.898,-431.152,0.000
1606142468.524,38.574,-10.254,-36.621,259.277,0.000
1606142468.528,83.008,-7.324,-35.156,552.246,0.000
1606142468.532,-27.832,-27.344,-35.156,48.340,0.000
1606142468.536,-145.020,-40.527,-35.156,-563.965,0.000
1606142468.539,-125.488,-35.645,-30.762,-507.812,0.000
1606142468.543,9.277,-29.785,-23.438,169.434,0.000
1606142468.547,69.336,-28.320,-18.066,549.805,0.000
1606142468.551,-25.391,-37.109,-21.973,135.254,0.000
1606142468.555,-152.832,-51.758,-33.691,-518.066,0.000
1606142468.559,-153.320,-54.199,-34.668,-559.082,0.000
1606142468.563,-16.602,-35.645,-22.949,98.145,0.000
1606142468.567,75.195,-32.227,-15.625,556.152,0.000
1606142468.571,5.859,-41.016,-15.137,231.445,0.000
1606142468.575,-130.859,-43.945,-31.250,-453.125,0.000
1606142468.579,-146.484,-45.410,-37.598,-593.750,0.000
1606142468.582,-20.508,-37.598,-20.996,10.254,0.000
1606142468.586,75.195,-30.273,-12.207,533.203,0.000
1606142468.590,24.414,-35.156,-20.020,312.500,0.000
1606142468.594,-109.863,-43.457,-29.785,-371.582,0.000
1606142468.598,-149.414,-53.711,-34.668,-615.723,0.000
1606142468.602,-32.227,-40.527,-30.762,-86.914,0.000
1606142468.606,84.473,-27.344,-24.414,494.629,0.000
1606142468.610,44.922,-35.645,-26.367,374.023,0.000
1606142468.614,-100.098,-47.363,-33.691,-312.012,0.000
1606142468.618,-154.785,-48.340,-30.762,-631.836,0.000
1606142468.621,-56.152,-32.227,-24.902,-169.922,0.000
1606142468.625,65.918,-15.137,-15.625,456.543,0.000
1606142468.629,47.852,-18.066,-17.090,439.453,0.000
1606142468.633,-92.285,-31.250,-28.809,-232.910,0.000
1606142468.637,-164.551,-38.086,-30.762,-636.230,0.000
1606142468.641,-79.102,-22.461,-29.297,-253.906,0.000
1606142468.645,44.434,-1.953,-17.578,398.438,0.000
1606142468.649,44.922,-28.809,-11.230,471.680,0.000
1606142468.653,-85.449,-42.480,-23.926,-162.109,0.000
1606142468.657,-175.781,-38.086,-29.297,-634.277,0.000
1606142468.661,-106.445,-35.156,-23.438,-345.703,0.000
1606142468.664,32.227,-30.762,-17.578,331.055,0.000
1606142468.668,64.941,-27.832,-14.160,525.391,0.000
1606142468.672,-48.340,-30.762,-19.043,-32.715,0.000
1606142468.676,-145.996,-31.738,-27.832,-579.102,0.000
1606142468.680,-95.215,-33.203,-25.879,-402.344,0.000
1606142468.684,45.410,-37.109,-13.672,294.434,0.000
1606142468.688,87.891,-26.855,-13.672,558.105,0.000
1606142468.692,-20.508,-26.855,-21.973,39.551,0.000
1606142468.696,-127.930,-37.109,-26.367,-547.852,0.000
1606142468.700,-99.609,-29.785,-29.297,-473.145,0.000
1606142468.704,37.109,-19.531,-21.973,203.125,0.000
1606142468.707,103.027,-18.066,-8.301,566.406,0.000
1606142468.711,8.301,-23.926,-14.160,133.789,0.000
1606142468.715,-114.746,-34.668,-21.973,-505.371,0.000
1606142468.719,-115.723,-41.016,-19.531,-535.645,0.000
1606142468.723,11.230,-35.645,-10.254,116.699,0.000
1606142468.727,88.867,-26.367,-4.883,554.199,0.000
1606142468.731,9.277,-30.273,-12.207,215.332,0.000
1606142468.735,-122.559,-43.945,-26.367,-448.242,0.000
1606142468.739,-134.277,-44.434,-30.273,-570.312,0.000
1606142468.743,-13.672,-26.367,-25.879,29.785,0.000
1606142468.746,74.707,-20.996,-17.090,527.344,0.000
1606142468.750,18.066,-30.762,-19.043,286.621,0.000
1606142468.754,-115.723,-39.062,-36.621,-396.484,0.000
1606142468.758,-149.902,-40.527,-37.109,-612.305,0.000
1606142468.762,-42.969,-31.250,-21.973,-69.336,0.000
1606142468.766,61.035,-20.996,-8.301,505.371,0.000
1606142468.770,30.273,-24.902,-10.254,378.906,0.000
1606142468.774,-111.816,-37.598,-24.902,-313.477,0.000
1606142468.778,-166.992,-41.992,-24.414,-619.629,0.000
1606142468.782,-57.617,-36.621,-13.184,-135.742,0.000
1606142468.786,67.871,-34.180,-9.277,476.562,0.000
1606142468.789,62.012,-29.785,-12.207,438.477,0.000
1606142468.793,-79.102,-36.621,-20.508,-242.676,0.000
1606142468.797,-149.414,-47.363,-26.367,-635.254,0.000
1606142468.801,-62.012,-35.156,-25.391,-241.699,0.000
1606142468.805,59.570,-24.414,-18.555,403.320,0.000
1606142468.809,65.430,-23.438,-13.672,470.703,0.000
1606142468.813,-60.059,-26.855,-25.391,-153.320,0.000
1606142468.817,-143.555,-28.320,-36.133,-611.816,0.000
1606142468.821,-65.430,-22.461,-27.344,-306.641,0.000
1606142468.825,70.312,-19.043,-18.555,376.465,0.000
1606142468.829,84.473,-21.484,-18.555,537.109,0.000
1606142468.832,-41.016,-25.391,-25.391,-52.246,0.000
1606142468.836,-142.578,-37.109,-33.203,-591.309,0.000
1606142468.840,-92.285,-32.227,-30.273,-398.926,0.000
1606142468.844,41.504,-6.836,-25.879,286.621,0.000
1606142468.848,75.684,-11.230,-21.973,542.480,0.000
1606142468.852,-32.227,-26.367,-30.273,20.996,0.000
1606142468.856,-142.578,-32.715,-46.875,-570.801,0.000
1606142468.860,-111.328,-28.320,-42.969,-470.703,0.000
1606142468.864,33.691,-18.066,-27.832,217.285,0.000
1606142468.868,94.727,-14.160,-23.926,552.246,0.000
1606142468.871,-1.953,-24.414,-30.762,120.117,0.000
1606142468.875,-122.559,-36.621,-33.691,-496.094,0.000
1606142468.879,-117.676,-28.809,-32.227,-517.578,0.000
1606142468.883,15.625,-7.812,-22.461,136.230,0.000
1606142468.887,90.332,-13.672,-13.184,558.594,0.000
1606142468.891,-0.977,-25.879,-19.531,205.566,0.000
1606142468.895,-128.906,-31.738,-34.180,-447.754,0.000
1606142468.899,-128.418,-34.180,-38.086,-551.758,0.000
1606142468.903,2.441,-26.855,-23.438,62.500,0.000
1606142468.907,93.750,-25.879,-20.508,557.617,0.000
1606142468.911,27.832,-28.809,-27.832,294.922,0.000
1606142468.914,-107.910,-29.297,-30.273,-393.066,0.000
1606142468.918,-136.230,-26.855,-34.180,-594.238,0.000
1606142468.922,-13.672,-10.742,-26.855,-19.043,0.000
1606142468.926,88.867,-10.254,-19.531,538.086,0.000
1606142468.930,37.598,-27.344,-26.367,356.934,0.000
1606142468.934,-96.680,-39.551,-35.156,-330.078,0.000
1606142468.938,-137.695,-45.898,-34.668,-607.910,0.000
1606142468.942,-35.645,-33.691,-28.320,-125.488,0.000
1606142468.946,75.684,-16.602,-29.297,476.562,0.000
1606142468.950,51.270,-25.879,-25.391,426.270,0.000
1606142468.954,-79.102,-41.016,-25.879,-237.793,0.000
1606142468.957,-141.113,-32.227,-37.598,-619.629,0.000
1606142468.961,-61.523,-16.602,-31.738,-227.539,0.000
1606142468.965,71.289,-6.348,-22.949,421.875,0.000
1606142468.969,81.543,-8.789,-23.438,486.816,0.000
1606142468.973,-67.383,-25.391,-30.762,-161.621,0.000
1606142468.977,-169.922,-40.527,-38.086,-631.348,0.000
1606142468.981,-97.656,-40.039,-34.668,-317.383,0.000
1606142468.985,50.781,-25.391,-22.461,371.582,0.000
1606142468.989,71.777,-18.555,-18.555,519.531,0.000
1606142468.993,-65.430,-30.273,-29.785,-83.496,0.000
1606142468.996,-160.645,-34.180,-37.598,-601.562,0.000
1606142469.000,-92.773,-31.738,-29.785,-375.488,0.000
1606142469.004,49.805,-24.414,-22.949,320.801,0.000
1606142469.008,78.125,-22.461,-22.949,559.082,0.000
1606142469.012,-31.250,-31.738,-26.855,27.344,0.000
1606142469.016,-129.883,-31.738,-27.832,-537.598,0.000
1606142469.020,-94.727,-28.320,-27.344,-419.434,0.000
1606142469.024,41.016,-20.020,-29.785,252.930,0.000
1606142469.028,99.609,-15.137,-26.367,563.477,0.000
1606142469.032,7.812,-20.508,-21.484,111.328,0.000
1606142469.036,-106.445,-26.855,-26.367,-503.418,0.000
1606142469.039,-100.586,-32.715,-33.203,-500.488,0.000
1606142469.043,32.227,-26.855,-25.391,156.738,0.000
1606142469.047,105.957,-18.555,-17.578,564.453,0.000
1606142469.051,11.719,-24.414,-26.855,194.824,0.000
1606142469.055,-124.512,-33.203,-37.598,-460.938,0.000
1606142469.059,-132.324,-33.203,-32.715,-548.340,0.000
1606142469.063,0.000,-23.438,-24.902,83.496,0.000
1606142469.067,89.844,-21.973,-18.066,560.059,0.000
1606142469.071,24.902,-22.949,-20.996,276.855,0.000
1606142469.075,-111.816,-30.273,-36.133,-408.203,0.000
1606142469.079,-139.648,-41.504,-35.156,-594.727,0.000
1606142469.082,-20.020,-33.691,-28.320,-20.020,0.000
1606142469.086,78.125,-26.855,-25.391,518.066,0.000
1606142469.090,34.180,-31.250,-27.832,340.820,0.000
1606142469.094,-97.656,-37.598,-36.621,-339.844,0.000
1606142469.098,-141.602,-39.551,-39.551,-618.652,0.000
1606142469.102,-29.785,-33.203,-31.250,-110.840,0.000
1606142469.106,80.566,-27.344,-22.949,481.934,0.000
1606142469.110,52.246,-29.785,-20.508,406.250,0.000
1606142469.114,-79.102,-37.109,-26.855,-264.648,0.000
1606142469.118,-141.113,-40.527,-36.621,-630.371,0.000
1606142469.121,-52.246,-20.020,-32.227,-209.961,0.000
1606142469.125,72.266,-8.301,-25.391,430.664,0.000
1606142469.129,67.383,-26.367,-24.902,459.961,0.000
1606142469.133,-69.824,-36.621,-33.203,-187.988,0.000
1606142469.137,-152.344,-39.062,-35.645,-624.512,0.000
1606142469.141,-75.684,-33.691,-29.785,-282.227,0.000
1606142469.145,54.688,-27.832,-23.438,384.277,0.000
1606142469.149,68.848,-23.926,-25.391,502.441,0.000
1606142469.153,-53.223,-28.809,-31.250,-99.121,0.000
1606142469.157,-149.902,-44.922,-41.992,-604.492,0.000
1606142469.161,-94.727,-33.691,-41.016,-376.953,0.000
1606142469.164,45.898,-16.602,-25.391,312.988,0.000
1606142469.168,81.543,-24.902,-15.137,532.715,0.000
1606142469.172,-37.598,-36.133,-24.902,-17.090,0.000
1606142469.176,-145.020,-43.457,-35.156,-573.242,0.000
1606142469.180,-104.492,-30.762,-29.297,-438.965,0.000
1606142469.184,30.762,-23.438,-25.879,241.211,0.000
1606142469.188,87.402,-19.043,-17.090,555.664,0.000
1606142469.192,-11.719,-18.555,-18.066,81.543,0.000
1606142469.196,-134.277,-34.180,-30.273,-536.133,0.000
1606142469.200,-112.793,-38.574,-29.785,-495.117,0.000
1606142469.204,26.855,-20.020,-20.508,185.059,0.000
1606142469.207,105.957,-18.066,-13.672,582.520,0.000
1606142469.211,26.855,-26.855,-14.648,187.988,0.000
1606142469.215,-112.305,-26.855,-21.973,-477.539,0.000
1606142469.219,-123.047,-27.344,-25.879,-541.016,0.000
1606142469.223,13.672,-27.832,-27.832,102.539,0.000
1606142469.227,105.957,-28.320,-26.367,562.012,0.000
1606142469.231,40.527,-28.809,-24.902,266.113,0.000
1606142469.235,-93.750,-38.086,-31.738,-402.344,0.000
1606142469.239,-106.934,-42.480,-32.715,-562.500,0.000
1606142469.243,15.625,-32.715,-23.438,20.020,0.000
1606142469.246,111.328,-21.973,-26.855,551.758,0.000
1606142469.250,61.523,-27.344,-31.738,354.492,0.000
1606142469.254,-79.590,-44.434,-38.086,-333.984,0.000
1606142469.258,-120.117,-54.688,-48.828,-590.332,0.000
1606142469.262,-11.719,-32.227,-35.645,-78.613,0.000
1606142469.266,93.750,-20.020,-17.090,503.906,0.000
1606142469.270,54.199,-29.785,-18.066,406.250,0.000
1606142469.274,-82.520,-35.645,-26.367,-270.508,0.000
1606142469.278,-131.836,-37.109,-29.785,-605.957,0.000
1606142469.282,-29.297,-30.762,-26.367,-161.133,0.000
1606142469.286,88.867,-29.297,-19.531,467.285,0.000
1606142469.289,76.172,-26.367,-19.531,469.238,0.000
1606142469.293,-50.781,-28.320,-22.949,-179.199,0.000
1606142469.297,-125.488,-36.133,-25.879,-592.773,0.000
1606142469.301,-58.594,-34.668,-31.250,-250.000,0.000
1606142469.305,62.988,-28.809,-27.832,396.973,0.000
1606142469.309,74.219,-33.691,-22.461,500.000,0.000
1606142469.313,-53.223,-46.387,-27.344,-111.816,0.000
1606142469.317,-134.277,-41.504,-29.297,-592.773,0.000
1606142469.321,-67.383,-30.762,-30.273,-334.473,0.000
1606142469.325,66.406,-25.879,-25.879,344.238,0.000
1606142469.329,103.516,-22.461,-20.996,560.059,0.000
1606142469.332,-10.742,-30.273,-20.996,4.395,0.000
1606142469.336,-117.676,-37.109,-33.691,-558.594,0.000
1606142469.340,-62.012,-18.555,-42.969,-388.672,0.000
1606142469.344,76.660,-8.301,-26.855,301.758,0.000
1606142469.348,104.004,-23.438,-26.855,570.801,0.000
1606142469.352,-9.277,-30.762,-35.645,78.613,0.000
1606142469.356,-132.324,-40.039,-34.668,-529.785,0.000
1606142469.360,-111.328,-41.016,-29.297,-473.633,0.000
1606142469.364,32.227,-20.996,-14.648,208.984,0.000
1606142469.368,94.238,-9.766,-16.602,573.242,0.000
1606142469.371,-4.395,-22.461,-23.926,153.320,0.000
1606142469.375,-122.559,-27.344,-27.344,-479.492,0.000
1606142469.379,-117.676,-24.414,-33.691,-526.855,0.000
1606142469.383,14.160,-19.531,-28.320,100.586,0.000
1606142469.387,95.703,-11.230,-24.414,547.852,0.000
1606142469.391,21.484,-13.184,-28.809,245.117,0.000
1606142469.395,-113.770,-24.902,-35.156,-426.758,0.000
1606142469.399,-133.789,-28.320,-33.203,-583.008,0.000
1606142469.403,-5.859,-10.254,-24.902,20.020,0.000
1606142469.407,87.891,-7.324,-23.438,535.645,0.000
1606142469.411,28.320,-27.832,-25.391,310.547,0.000
1606142469.414,-110.352,-39.551,-31.738,-366.699,0.000
1606142469.418,-148.438,-38.086,-33.691,-609.375,0.000
1606142469.422,-38.086,-34.180,-33.203,-79.102,0.000
1606142469.426,71.777,-21.973,-28.809,506.348,0.000
1606142469.430,40.039,-20.996,-22.949,389.648,0.000
1606142469.434,-90.820,-32.227,-29.297,-291.504,0.000
1606142469.438,-140.137,-28.320,-29.297,-601.074,0.000
1606142469.442,-42.480,-22.949,-22.461,-146.484,0.000
1606142469.446,78.613,-25.879,-17.578,462.402,0.000
1606142469.450,64.941,-32.227,-14.160,451.172,0.000
1606142469.454,-72.754,-35.645,-20.020,-208.984,0.000
1606142469.457,-145.508,-32.227,-26.367,-612.305,0.000
1606142469.461,-64.453,-35.645,-26.855,-252.441,0.000
1606142469.465,62.012,-30.273,-24.902,397.949,0.000
1606142469.469,66.895,-25.391,-24.414,493.164,0.000
1606142469.473,-64.453,-28.809,-31.738,-142.090,0.000
1606142469.477,-149.414,-27.832,-31.250,-616.211,0.000
1606142469.481,-76.660,-28.809,-25.391,-325.195,0.000
1606142469.485,58.105,-20.508,-23.926,357.910,0.000
1606142469.489,79.590,-19.531,-27.832,533.691,0.000
1606142469.493,-40.527,-29.297,-30.273,-38.086,0.000
1606142469.496,-139.648,-40.039,-28.809,-583.984,0.000
1606142469.500,-93.750,-32.715,-26.855,-410.645,0.000
1606142469.504,44.434,-19.531,-24.902,276.855,0.000
1606142469.508,94.238,-17.578,-20.996,554.688,0.000
1606142469.512,-23.926,-28.809,-23.926,52.246,0.000
1606142469.516,-152.344,-45.898,-33.691,-552.246,0.000
1606142469.520,-125.000,-41.016,-34.668,-484.863,0.000
1606142469.524,18.066,-29.297,-25.879,184.570,0.000
1606142469.528,80.078,-23.438,-19.531,541.016,0.000
1606142469.532,-9.766,-28.320,-23.926,130.371,0.000
1606142469.536,-123.047,-35.645,-28.809,-505.859,0.000
1606142469.539,-121.582,-28.809,-35.156,-541.016,0.000
1606142469.543,4.395,-22.461,-30.762,107.422,0.000
1606142469.547,86.914,-18.555,-23.926,548.828,0.000
1606142469.551,11.230,-17.090,-32.227,225.098,0.000
1606142469.555,-125.977,-26.855,-39.062,-441.406,0.000
1606142469.559,-147.461,-36.621,-39.062,-585.449,0.000
1606142469.563,-20.020,-26.855,-33.691,16.602,0.000
1606142469.567,77.148,-22.461,-26.367,529.785,0.000
1606142469.571,13.672,-35.156,-26.367,288.086,0.000
1606142469.575,-119.629,-39.551,-35.645,-394.531,0.000
1606142469.579,-148.926,-37.598,-48.340,-602.051,0.000
1606142469.582,-34.180,-17.578,-50.293,-60.547,0.000
1606142469.586,71.777,-2.441,-37.109,495.117,0.000
1606142469.590,31.738,-18.066,-29.785,348.145,0.000
1606142469.594,-105.469,-33.203,-32.227,-326.660,0.000
1606142469.598,-152.832,-36.621,-35.645,-622.559,0.000
1606142469.602,-46.875,-23.926,-28.809,-150.391,0.000
1606142469.606,75.684,-21.973,-13.184,465.332,0.000
1606142469.610,60.547,-28.809,-15.137,436.035,0.000
1606142469.614,-76.660,-36.133,-26.367,-227.051,0.000
1606142469.618,-148.926,-41.992,-28.320,-618.164,0.000
1606142469.621,-62.012,-22.461,-29.297,-234.375,0.000
1606142469.625,66.895,-19.043,-30.762,410.156,0.000
1606142469.629,65.430,-31.738,-23.926,473.145,0.000
1606142469.633,-70.312,-33.203,-19.043,-156.250,0.000
1606142469.637,-153.320,-35.156,-22.949,-615.234,0.000
1606142469.641,-78.125,-27.832,-22.949,-309.082,0.000
1606142469.645,58.594,-21.484,-19.531,363.770,0.000
1606142469.649,78.125,-26.855,-22.461,518.555,0.000
1606142469.653,-45.898,-33.203,-26.855,-67.871,0.000
1606142469.657,-150.391,-35.156,-30.762,-601.074,0.000
1606142469.661,-103.516,-32.715,-32.227,-402.344,0.000
1606142469.664,38.086,-24.414,-18.555,282.715,0.000
1606142469.668,80.566,-17.578,-11.719,536.133,0.000
1606142469.672,-31.738,-29.297,-22.949,24.902,0.000
1606142469.676,-143.066,-43.945,-39.551,-560.059,0.000
1606142469.680,-109.863,-38.574,-33.203,-474.609,0.000
1606142469.684,27.344,-27.832,-14.160,206.543,0.000
1606142469.688,79.590,-25.391,-15.137,547.852,0.000
1606142469.692,-23.438,-27.832,-25.879,106.445,0.000
1606142469.696,-140.625,-36.621,-33.691,-510.254,0.000
1606142469.700,-131.348,-40.039,-34.180,-520.020,0.000
1606142469.704,1.465,-32.227,-29.297,123.535,0.000
1606142469.707,81.543,-31.738,-30.762,547.852,0.000
1606142469.711,1.465,-37.598,-35.645,205.078,0.000
1606142469.715,-124.023,-36.621,-39.551,-448.242,0.000
1606142469.719,-131.348,-36.621,-35.645,-549.805,0.000
1606142469.723,-13.672,-30.762,-21.484,54.688,0.000
1606142469.727,76.172,-24.902,-17.578,537.109,0.000
1606142469.731,18.066,-29.785,-26.367,280.273,0.000
1606142469.735,-110.840,-31.738,-33.691,-397.461,0.000
1606142469.739,-133.301,-31.738,-39.551,-595.215,0.000
1606142469.743,-13.184,-27.344,-38.574,-37.109,0.000
1606142469.746,90.332,-20.508,-27.344,521.973,0.000
1606142469.750,45.410,-18.555,-24.902,365.723,0.000
1606142469.754,-89.844,-28.809,-33.203,-316.406,0.000
1606142469.758,-138.184,-34.180,-34.668,-602.051,0.000
1606142469.762,-34.180,-24.414,-30.762,-117.188,0.000
1606142469.766,89.355,-24.414,-25.879,490.723,0.000
1606142469.770,59.082,-35.156,-26.855,432.617,0.000
1606142469.774,-87.891,-42.969,-32.715,-257.324,0.000
1606142469.778,-153.320,-43.457,-33.691,-632.812,0.000
1606142469.782,-72.754,-34.668,-34.180,-224.609,0.000
1606142469.786,52.246,-23.926,-24.902,423.340,0.000
1606142469.789,56.152,-24.414,-19.531,473.633,0.000
1606142469.793,-78.613,-34.180,-29.785,-183.105,0.000
1606142469.797,-158.203,-40.039,-31.738,-633.789,0.000
1606142469.801,-83.008,-36.621,-24.902,-313.965,0.000
1606142469.805,47.852,-30.273,-20.996,347.168,0.000
1606142469.809,61.523,-34.180,-20.508,497.559,0.000
1606142469.813,-66.406,-49.316,-27.832,-83.008,0.000
1606142469.817,-159.668,-45.410,-35.645,-605.469,0.000
1606142469.821,-102.051,-32.227,-34.180,-387.695,0.000
1606142469.825,42.480,-27.344,-23.438,299.805,0.000
1606142469.829,83.496,-24.902,-21.973,536.133,0.000
1606142469.832,-28.809,-31.250,-31.250,9.766,0.000
1606142469.836,-139.648,-41.992,-37.598,-568.848,0.000
1606142469.840,-115.723,-42.969,-35.645,-467.285,0.000
1606142469.844,21.484,-29.785,-26.367,219.238,0.000
1606142469.848,80.078,-18.555,-18.555,555.176,0.000
1606142469.852,-19.043,-21.973,-25.879,98.145,0.000
1606142469.856,-138.184,-28.320,-39.551,-519.531,0.000
1606142469.860,-115.234,-23.926,-32.227,-497.070,0.000
1606142469.864,20.996,-16.602,-16.602,163.086,0.000
1606142469.868,89.355,-25.879,-14.648,559.082,0.000
1606142469.871,2.441,-39.062,-21.484,186.523,0.000
1606142469.875,-131.348,-52.246,-30.273,-469.727,0.000
1606142469.879,-133.301,-49.316,-35.156,-555.176,0.000
1606142469.883,1.465,-31.250,-26.367,67.871,0.000
1606142469.887,84.473,-28.809,-21.484,533.691,0.000
1606142469.891,19.043,-32.715,-28.320,264.648,0.000
1606142469.895,-114.258,-40.039,-34.668,-410.156,0.000
1606142469.899,-138.184,-42.969,-38.086,-604.980,0.000
1606142469.903,-20.020,-36.621,-33.203,-30.273,0.000
1606142469.907,81.543,-32.715,-22.949,523.438,0.000
1606142469.911,34.668,-35.156,-20.020,343.262,0.000
1606142469.914,-111.328,-42.480,-32.227,-348.145,0.000
1606142469.918,-153.320,-38.574,-41.992,-625.000,0.000
1606142469.922,-48.828,-23.926,-32.227,-126.953,0.000
1606142469.926,64.453,-20.508,-25.879,471.191,0.000
1606142469.930,42.480,-24.902,-30.762,400.879,0.000
1606142469.934,-88.867,-29.785,-37.598,-278.809,0.000
1606142469.938,-149.414,-29.297,-33.691,-635.254,0.000
1606142469.942,-55.664,-19.531,-23.926,-203.125,0.000
1606142469.946,72.266,-18.555,-14.160,431.641,0.000
1606142469.950,64.453,-21.973,-12.695,462.402,0.000
1606142469.954,-65.430,-28.320,-31.738,-171.875,0.000
1606142469.957,-148.926,-35.156,-38.574,-613.770,0.000
1606142469.961,-76.172,-20.020,-33.691,-288.086,0.000
1606142469.965,52.246,-15.137,-35.156,378.418,0.000
1606142469.969,69.336,-23.438,-32.227,511.230,0.000
1606142469.973,-56.641,-22.461,-27.344,-93.750,0.000
1606142469.977,-151.367,-31.250,-28.809,-604.004,0.000
1606142469.981,-87.891,-34.180,-31.738,-368.652,0.000
1606142469.985,48.828,-20.996,-22.461,315.918,0.000
1606142469.989,80.566,-18.066,-21.973,538.086,0.000
1606142469.993,-36.621,-26.367,-31.738,-7.324,0.000
1606142469.996,-135.742,-40.527,-34.180,-561.523,0.000
1606142470.000,-94.727,-32.227,-28.320,-417.969,0.000
1606142470.004,39.551,-5.371,-22.949,254.395,0.000
1606142470.008,95.215,-10.742,-20.996,561.035,0.000
1606142470.012,-12.207,-21.973,-31.250,88.379,0.000
1606142470.016,-140.137,-31.738,-35.156,-535.645,0.000
1606142470.020,-119.141,-33.203,-30.273,-499.512,0.000
1606142470.024,14.160,-25.879,-29.785,170.410,0.000
1606142470.028,89.355,-20.020,-23.926,554.199,0.000
1606142470.032,0.488,-20.508,-29.785,169.922,0.000
1606142470.036,-134.277,-31.250,-41.016,-475.586,0.000
1606142470.039,-123.535,-31.738,-40.527,-545.898,0.000
1606142470.043,4.395,-25.879,-29.785,96.191,0.000
1606142470.047,86.914,-28.320,-22.461,573.730,0.000
1606142470.051,20.996,-33.691,-28.320,268.555,0.000
1606142470.055,-116.699,-41.992,-31.250,-419.434,0.000
1606142470.059,-135.742,-37.109,-25.879,-582.520,0.000
1606142470.063,-7.324,3.906,-16.113,9.766,0.000
1606142470.067,88.867,10.742,-20.020,535.645,0.000
1606142470.071,36.133,-17.090,-23.438,336.914,0.000
1606142470.075,-88.379,-28.809,-23.926,-337.891,0.000
1606142470.079,-127.930,-33.691,-28.320,-587.402,0.000
1606142470.082,-25.391,-31.250,-28.809,-69.336,0.000
1606142470.086,91.309,-25.879,-23.926,517.090,0.000
1606142470.090,62.500,-22.461,-22.949,426.758,0.000
1606142470.094,-82.520,-27.832,-31.738,-255.371,0.000
1606142470.098,-147.949,-38.574,-36.621,-610.352,0.000
1606142470.102,-48.340,-23.438,-23.926,-175.293,0.000
1606142470.106,74.219,-19.043,-10.254,454.102,0.000
1606142470.110,69.336,-33.203,-11.719,474.121,0.000
1606142470.114,-69.824,-36.133,-24.414,-188.965,0.000
