timestamps,TP9,AF7,AF8,TP10,Right AUX
1606137606.453,-0.488,0.000,0.000,-0.488,0.000
1606137606.457,-0.488,-0.488,-0.488,-0.488,0.000
1606137606.461,16.113,0.000,-0.488,33.691,0.000
1606137606.464,-40.527,-0.488,0.488,-77.637,0.000
1606137606.468,174.316,-0.488,-5.859,353.027,0.000
1606137606.472,424.805,0.000,-13.672,-969.727,0.000
1606137606.476,39.551,-14.160,-26.855,171.875,0.000
1606137606.480,-411.133,-33.691,-47.363,-997.559,0.000
1606137606.484,-325.195,-31.250,-46.387,-822.754,0.000
1606137606.488,186.523,-14.648,-30.762,331.543,0.000
1606137606.492,437.988,4.395,-15.625,-924.805,0.000
1606137606.496,93.262,-10.254,-26.855,314.941,0.000
1606137606.500,-379.395,-42.480,-53.711,-873.535,0.000
1606137606.504,-370.605,-40.039,-52.734,-905.273,0.000
1606137606.507,136.230,-7.812,-27.344,220.215,0.000
1606137606.511,443.359,7.812,-10.742,-919.434,0.000
1606137606.515,158.203,-7.812,-26.367,483.398,0.000
1606137606.519,-337.891,-35.156,-50.293,-726.074,0.000
1606137606.523,-411.133,-48.828,-54.199,-984.375,0.000
1606137606.527,70.312,-23.926,-27.344,90.820,0.000
1606137606.531,435.547,3.418,-4.883,-936.035,0.000
1606137606.535,220.703,-6.348,-19.043,606.445,0.000
1606137606.539,-291.504,-39.551,-44.922,-585.938,0.000
1606137606.543,-439.453,-50.293,-53.223,-1000.000,0.000
1606137606.546,-4.395,-29.297,-32.715,-70.801,0.000
1606137606.550,407.715,-5.371,-13.672,-988.770,0.000
1606137606.554,264.648,-11.230,-22.949,719.727,0.000
1606137606.558,-261.230,-37.109,-47.363,-450.195,0.000
1606137606.562,-474.609,-53.711,-52.246,-1000.000,0.000
1606137606.566,-83.496,-34.668,-22.461,-233.398,0.000
1606137606.570,370.117,26.367,3.418,925.781,0.000
1606137606.574,306.152,35.645,-5.859,811.035,0.000
1606137606.578,-214.844,-26.855,-28.809,-339.355,0.000
1606137606.582,-490.234,-57.129,-32.227,-1000.000,0.000
1606137606.586,-163.086,-41.992,-20.020,-419.434,0.000
1606137606.589,323.730,-16.113,0.000,791.504,0.000
1606137606.593,327.148,-20.996,-3.906,885.742,0.000
1606137606.597,-188.477,-58.594,-42.969,-239.746,0.000
1606137606.601,-510.742,-68.848,-56.641,-1000.000,0.000
1606137606.605,-244.141,-43.945,-31.250,-576.172,0.000
1606137606.609,252.441,-14.160,-11.230,632.812,0.000
1606137606.613,341.309,-25.391,-18.555,964.355,0.000
1606137606.617,-123.047,-31.738,-38.086,-103.027,0.000
1606137606.621,-494.629,-21.484,-57.617,-1000.000,0.000
1606137606.625,-299.316,-47.363,-49.805,-706.055,0.000
1606137606.629,210.449,-41.016,-21.973,478.516,0.000
1606137606.632,372.559,-22.949,-13.184,-976.562,0.000
1606137606.636,-52.246,-40.039,-24.414,42.969,0.000
1606137606.640,-477.539,-64.453,-46.387,-1000.000,0.000
1606137606.644,-361.328,-52.734,-48.340,-807.617,0.000
1606137606.648,167.969,-23.926,-18.066,345.703,0.000
1606137606.652,407.227,-13.184,-3.906,-936.035,0.000
1606137606.656,32.715,-35.645,-20.996,222.168,0.000
1606137606.660,-416.992,-56.641,-43.457,-931.641,0.000
1606137606.664,-370.117,-58.105,-47.852,-884.766,0.000
1606137606.668,136.719,-10.254,-24.902,241.699,0.000
1606137606.671,435.059,30.762,-8.789,-920.410,0.000
1606137606.675,127.441,-14.648,-20.508,415.527,0.000
1606137606.679,-367.188,-55.176,-37.109,-789.062,0.000
1606137606.683,-403.320,-53.223,-36.621,-953.613,0.000
1606137606.687,87.402,-37.109,-15.625,144.531,0.000
1606137606.691,422.363,-16.602,0.977,-927.734,0.000
1606137606.695,175.781,-20.020,-4.395,577.637,0.000
1606137606.699,-330.078,-55.664,-28.809,-625.000,0.000
1606137606.703,-447.754,-63.477,-44.434,-1000.000,0.000
1606137606.707,6.348,-32.715,-14.648,-0.488,0.000
1606137606.711,396.484,-13.672,1.953,-959.473,0.000
1606137606.714,226.074,-30.273,-17.578,673.340,0.000
1606137606.718,-283.691,-22.949,-43.457,-502.441,0.000
1606137606.722,-471.191,-27.344,-56.641,-1000.000,0.000
1606137606.726,-61.035,-39.062,-28.809,-193.359,0.000
1606137606.730,377.441,-16.113,-3.906,956.543,0.000
1606137606.734,278.809,-23.438,-10.254,769.043,0.000
1606137606.738,-234.863,-55.664,-41.504,-394.531,0.000
1606137606.742,-479.004,-70.312,-62.988,-1000.000,0.000
1606137606.746,-130.371,-47.852,-35.645,-370.117,0.000
1606137606.750,345.703,-17.578,-14.160,848.633,0.000
1606137606.754,316.895,-14.648,-12.695,830.566,0.000
1606137606.757,-193.359,-41.016,-34.180,-323.242,0.000
1606137606.761,-481.445,-60.059,-48.828,-1000.000,0.000
1606137606.765,-198.242,-49.805,-26.367,-519.531,0.000
1606137606.769,298.340,27.344,1.953,695.312,0.000
1606137606.773,359.863,41.016,-6.836,939.941,0.000
1606137606.777,-123.047,-37.109,-36.133,-149.902,0.000
1606137606.781,-483.398,-62.988,-49.316,-1000.000,0.000
1606137606.785,-264.648,-52.246,-44.922,-649.414,0.000
1606137606.789,250.488,-20.508,-14.160,549.805,0.000
1606137606.793,388.184,-13.184,-9.277,-988.281,0.000
1606137606.796,-57.617,-28.809,-34.180,3.906,0.000
1606137606.800,-463.867,-40.039,-46.875,-1000.000,0.000
1606137606.804,-320.312,-36.621,-46.387,-755.859,0.000
1606137606.808,192.871,-21.484,-20.996,413.086,0.000
1606137606.812,397.461,-24.414,-1.953,-947.754,0.000
1606137606.816,11.230,-31.738,-23.438,176.758,0.000
1606137606.820,-430.176,-25.391,-49.316,-964.844,0.000
1606137606.824,-362.793,-38.574,-44.434,-845.703,0.000
1606137606.828,153.809,-27.344,-15.625,301.758,0.000
1606137606.832,425.781,-8.301,-1.953,-917.969,0.000
1606137606.836,96.680,-24.902,-17.090,363.281,0.000
1606137606.839,-381.836,-51.270,-41.016,-839.355,0.000
1606137606.843,-385.254,-50.293,-42.969,-931.152,0.000
1606137606.847,117.676,-21.973,-19.531,182.617,0.000
1606137606.851,440.430,-4.883,-1.465,-916.992,0.000
1606137606.855,176.270,-22.949,-16.602,517.578,0.000
1606137606.859,-325.684,-47.363,-47.852,-697.266,0.000
1606137606.863,-412.598,-47.363,-52.734,-1000.000,0.000
1606137606.867,79.590,-12.207,-29.297,61.035,0.000
1606137606.871,440.918,19.043,-13.184,-970.703,0.000
1606137606.875,228.027,3.906,-24.902,598.633,0.000
1606137606.879,-268.066,-35.645,-42.969,-539.062,0.000
1606137606.882,-442.871,-49.805,-46.387,-1000.000,0.000
1606137606.886,-17.578,-25.879,-28.809,-108.887,0.000
1606137606.890,373.047,-9.277,-18.555,949.707,0.000
1606137606.894,239.258,-16.113,-23.438,661.621,0.000
1606137606.898,-247.070,-44.922,-38.574,-423.828,0.000
1606137606.902,-479.004,-61.035,-49.316,-1000.000,0.000
1606137606.906,-99.609,-38.574,-34.668,-311.035,0.000
1606137606.910,358.398,-9.766,-20.020,881.348,0.000
1606137606.914,312.988,-14.160,-19.531,825.684,0.000
1606137606.918,-201.172,-47.363,-41.504,-324.707,0.000
1606137606.921,-493.652,-64.453,-59.082,-1000.000,0.000
1606137606.925,-179.199,-46.387,-37.598,-486.328,0.000
1606137606.929,311.523,-22.461,-11.719,745.605,0.000
1606137606.933,340.820,-25.391,-7.812,910.156,0.000
1606137606.937,-164.062,-50.293,-31.738,-206.543,0.000
1606137606.941,-507.812,-60.059,-41.504,-1000.000,0.000
1606137606.945,-252.441,-46.387,-23.438,-594.238,0.000
1606137606.949,250.000,-10.742,-13.184,611.328,0.000
1606137606.953,355.957,-2.930,-10.742,983.887,0.000
1606137606.957,-103.027,-42.969,-28.320,-62.500,0.000
1606137606.961,-496.094,-66.406,-42.969,-1000.000,0.000
1606137606.964,-317.871,-56.641,-31.250,-715.820,0.000
1606137606.968,205.078,-25.879,-2.930,459.961,0.000
1606137606.972,382.812,-16.602,3.418,-955.566,0.000
1606137606.976,-31.738,-38.086,-13.672,124.512,0.000
1606137606.980,-461.426,-57.617,-33.691,-998.047,0.000
1606137606.984,-363.281,-57.129,-32.227,-814.941,0.000
1606137606.988,161.621,-28.320,-10.742,343.750,0.000
1606137606.992,414.551,-8.301,-5.859,-927.246,0.000
1606137606.996,63.477,-24.414,-20.020,300.293,0.000
1606137607.000,-407.715,-55.664,-40.039,-883.301,0.000
1606137607.004,-387.695,-62.500,-42.969,-900.879,0.000
1606137607.007,135.254,-22.949,-17.578,230.469,0.000
1606137607.011,435.059,1.953,-5.859,-915.039,0.000
1606137607.015,136.719,-18.555,-17.578,449.707,0.000
1606137607.019,-355.469,-51.758,-35.645,-758.301,0.000
1606137607.023,-423.828,-54.199,-42.480,-987.305,0.000
1606137607.027,63.965,-28.320,-32.715,83.984,0.000
1606137607.031,422.363,-9.277,-11.719,-933.594,0.000
1606137607.035,197.266,-17.578,-11.719,594.238,0.000
1606137607.039,-306.641,-43.457,-41.992,-603.027,0.000
1606137607.043,-440.918,-49.316,-44.922,-1000.000,0.000
1606137607.046,-1.465,-33.691,-26.367,-54.688,0.000
1606137607.050,406.738,-15.137,-15.625,-979.492,0.000
1606137607.054,260.742,-12.207,-20.996,705.566,0.000
1606137607.058,-262.207,-35.645,-42.480,-467.773,0.000
1606137607.062,-468.262,-49.805,-50.781,-1000.000,0.000
1606137607.066,-71.289,-39.062,-44.922,-234.375,0.000
1606137607.070,380.859,-12.695,-26.367,931.641,0.000
1606137607.074,304.688,-10.254,-23.926,805.176,0.000
1606137607.078,-225.586,-42.480,-50.293,-353.027,0.000
1606137607.082,-494.141,-61.035,-64.453,-1000.000,0.000
1606137607.086,-151.855,-41.016,-42.969,-389.160,0.000
1606137607.089,322.266,-12.207,-19.043,808.105,0.000
1606137607.093,324.707,-12.207,-16.602,883.789,0.000
1606137607.097,-178.711,-36.133,-37.598,-240.723,0.000
1606137607.101,-497.070,-49.805,-56.152,-1000.000,0.000
1606137607.105,-219.727,-39.551,-41.504,-548.340,0.000
1606137607.109,276.367,-16.113,-17.578,665.527,0.000
1606137607.113,358.398,-12.207,-14.160,963.867,0.000
1606137607.117,-109.863,-40.039,-27.344,-108.887,0.000
1606137607.121,-484.375,-53.711,-45.410,-1000.000,0.000
1606137607.125,-280.273,-39.062,-45.898,-674.316,0.000
1606137607.129,247.559,-14.648,-18.066,514.648,0.000
1606137607.132,405.762,-0.977,-9.766,-977.051,0.000
1606137607.136,-33.691,-25.879,-36.621,43.945,0.000
1606137607.140,-453.125,-51.758,-55.176,-1000.000,0.000
1606137607.144,-320.312,-42.480,-43.945,-777.344,0.000
1606137607.148,212.891,-11.230,-14.648,387.207,0.000
1606137607.152,430.664,0.488,-3.418,-937.012,0.000
1606137607.156,42.969,-25.879,-25.391,223.145,0.000
1606137607.160,-415.527,-55.176,-43.945,-938.965,0.000
1606137607.164,-367.676,-53.223,-40.039,-864.746,0.000
1606137607.168,152.832,-24.902,-13.672,280.273,0.000
1606137607.171,430.664,-10.742,-0.977,-918.945,0.000
1606137607.175,107.422,-20.508,-27.344,384.277,0.000
1606137607.179,-376.953,-49.805,-49.805,-812.500,0.000
1606137607.183,-405.762,-58.594,-41.504,-955.078,0.000
1606137607.187,97.656,-25.391,-15.625,139.648,0.000
1606137607.191,437.012,-9.766,-2.441,-924.805,0.000
1606137607.195,184.082,-24.902,-15.137,541.016,0.000
1606137607.199,-320.801,-47.852,-34.668,-664.062,0.000
1606137607.203,-424.805,-44.922,-37.109,-1000.000,0.000
1606137607.207,40.039,-13.672,-15.625,11.230,0.000
1606137607.211,417.480,1.465,-3.418,-956.055,0.000
1606137607.214,229.980,-10.742,-14.648,664.062,0.000
1606137607.218,-290.527,-41.016,-36.133,-519.043,0.000
1606137607.222,-469.238,-59.570,-39.551,-1000.000,0.000
1606137607.226,-46.387,-26.367,-17.578,-148.926,0.000
1606137607.230,393.066,10.254,1.465,979.492,0.000
1606137607.234,283.203,-12.207,-8.789,755.859,0.000
1606137607.238,-248.047,-50.781,-24.902,-408.203,0.000
1606137607.242,-491.211,-57.129,-29.785,-1000.000,0.000
1606137607.246,-130.371,-42.480,-22.949,-340.332,0.000
1606137607.250,340.332,-16.113,-2.441,855.957,0.000
1606137607.254,307.617,-14.648,-7.324,852.051,0.000
1606137607.257,-206.055,-43.945,-29.297,-288.574,0.000
1606137607.261,-500.977,-67.383,-40.527,-1000.000,0.000
1606137607.265,-201.660,-49.805,-31.250,-498.047,0.000
1606137607.269,298.340,-8.789,-5.371,724.121,0.000
1606137607.273,347.168,-9.277,-9.277,933.105,0.000
1606137607.277,-153.320,-41.504,-36.133,-166.016,0.000
1606137607.281,-506.348,-64.453,-40.039,-1000.000,0.000
1606137607.285,-276.855,-56.152,-33.203,-633.789,0.000
1606137607.289,239.258,-16.602,-12.695,570.312,0.000
1606137607.293,380.371,-10.254,-3.906,-996.094,0.000
1606137607.296,-70.312,-41.016,-37.109,-19.531,0.000
1606137607.300,-479.004,-63.965,-57.129,-1000.000,0.000
1606137607.304,-323.730,-57.617,-36.621,-741.211,0.000
1606137607.308,203.613,-31.738,-13.672,433.594,0.000
1606137607.312,407.715,-11.719,-11.230,-949.219,0.000
1606137607.316,6.348,-25.879,-28.320,152.832,0.000
1606137607.320,-440.918,-52.246,-54.688,-981.445,0.000
1606137607.324,-352.051,-43.457,-49.805,-831.543,0.000
1606137607.328,166.016,-25.391,-18.555,320.312,0.000
1606137607.332,410.645,-13.672,-2.441,-923.340,0.000
1606137607.336,62.988,-19.531,-20.020,318.359,0.000
1606137607.339,-409.668,-53.711,-51.270,-868.652,0.000
1606137607.343,-401.855,-52.734,-54.688,-930.176,0.000
1606137607.347,109.375,-12.695,-25.879,185.059,0.000
1606137607.351,426.758,-0.977,-14.160,-917.969,0.000
1606137607.355,146.973,-19.043,-22.461,475.586,0.000
1606137607.359,-353.027,-37.598,-45.898,-731.445,0.000
1606137607.363,-436.523,-43.945,-53.711,-995.605,0.000
1606137607.367,44.922,-21.484,-23.926,69.336,0.000
1606137607.371,420.898,2.441,-6.836,-938.477,0.000
1606137607.375,211.914,-8.789,-12.695,617.188,0.000
1606137607.379,-309.082,-42.480,-34.668,-575.684,0.000
1606137607.382,-464.355,-57.129,-51.758,-1000.000,0.000
1606137607.386,-25.391,-31.738,-28.809,-91.797,0.000
1606137607.390,391.113,-10.254,-12.695,-996.094,0.000
1606137607.394,258.789,-20.996,-16.602,730.957,0.000
1606137607.398,-265.625,-48.828,-31.738,-435.547,0.000
1606137607.402,-490.723,-66.406,-41.992,-1000.000,0.000
1606137607.406,-107.910,-38.574,-27.832,-273.438,0.000
1606137607.410,354.980,-1.953,-10.254,908.691,0.000
1606137607.414,302.734,-6.836,-13.672,820.312,0.000
1606137607.418,-217.773,-37.598,-32.715,-330.078,0.000
1606137607.421,-499.023,-57.129,-50.293,-1000.000,0.000
1606137607.425,-173.828,-41.992,-41.504,-444.824,0.000
1606137607.429,311.035,-19.531,-13.184,774.902,0.000
1606137607.433,328.613,-14.160,-12.207,899.902,0.000
1606137607.437,-180.176,-37.598,-36.621,-220.215,0.000
1606137607.441,-521.973,-61.035,-49.805,-1000.000,0.000
1606137607.445,-262.695,-50.293,-35.156,-586.426,0.000
1606137607.449,247.559,-27.832,-16.602,623.535,0.000
1606137607.453,352.539,-20.508,-15.625,978.027,0.000
1606137607.457,-100.098,-39.551,-35.645,-71.777,0.000
1606137607.461,-478.516,-56.152,-49.316,-1000.000,0.000
1606137607.464,-290.039,-42.969,-33.691,-686.523,0.000
1606137607.468,235.840,-13.672,-5.371,503.418,0.000
1606137607.472,401.367,-3.906,0.977,-963.867,0.000
1606137607.476,-24.902,-32.227,-23.926,103.027,0.000
1606137607.480,-447.754,-57.129,-34.668,-1000.000,0.000
1606137607.484,-342.773,-44.922,-30.273,-796.387,0.000
1606137607.488,173.828,-16.602,-13.672,364.258,0.000
1606137607.492,419.434,1.953,5.859,-927.734,0.000
1606137607.496,56.152,-16.602,-14.160,284.180,0.000
1606137607.500,-406.738,-50.781,-40.527,-900.879,0.000
1606137607.504,-372.070,-48.828,-36.133,-884.766,0.000
1606137607.507,144.531,-23.438,-14.648,256.348,0.000
1606137607.511,434.082,-17.090,-5.859,-918.457,0.000
1606137607.515,122.559,-32.227,-20.508,425.293,0.000
1606137607.519,-358.398,-55.176,-41.504,-776.367,0.000
1606137607.523,-401.855,-55.664,-47.363,-964.355,0.000
1606137607.527,80.566,-30.762,-31.738,122.559,0.000
1606137607.531,423.340,-11.719,-16.113,-931.641,0.000
1606137607.535,181.152,-22.461,-20.996,562.500,0.000
1606137607.539,-326.660,-48.340,-45.410,-629.883,0.000
1606137607.543,-454.102,-50.293,-52.246,-1000.000,0.000
1606137607.546,5.859,-23.438,-24.414,-41.504,0.000
1606137607.550,412.598,0.488,-3.906,-970.215,0.000
1606137607.554,242.676,-8.789,-26.367,675.781,0.000
1606137607.558,-279.785,-42.969,-59.082,-507.324,0.000
1606137607.562,-465.820,-51.758,-49.805,-1000.000,0.000
1606137607.566,-66.895,-24.414,-28.320,-216.797,0.000
1606137607.570,376.465,2.930,-20.996,939.941,0.000
1606137607.574,290.527,-9.766,-23.438,775.879,0.000
1606137607.578,-245.605,-41.016,-41.504,-389.648,0.000
1606137607.582,-496.582,-56.641,-53.711,-1000.000,0.000
1606137607.586,-147.949,-42.969,-34.180,-382.324,0.000
1606137607.589,336.426,-9.766,-9.277,823.730,0.000
1606137607.593,321.777,-6.836,-9.766,867.188,0.000
1606137607.597,-196.289,-38.086,-31.250,-270.020,0.000
1606137607.601,-502.441,-55.176,-49.316,-1000.000,0.000
1606137607.605,-219.727,-35.645,-31.738,-532.715,0.000
1606137607.609,279.785,-4.883,-7.324,681.152,0.000
1606137607.613,360.840,0.000,-11.719,942.871,0.000
1606137607.617,-121.582,-31.738,-38.574,-143.066,0.000
1606137607.621,-491.211,-51.270,-56.641,-1000.000,0.000
1606137607.625,-272.461,-35.156,-43.457,-657.715,0.000
1606137607.629,238.281,-1.953,-11.719,535.645,0.000
1606137607.632,382.324,2.930,-0.977,-989.258,0.000
1606137607.636,-54.688,-27.832,-12.695,16.602,0.000
1606137607.640,-469.727,-57.129,-28.320,-1000.000,0.000
1606137607.644,-332.031,-50.781,-34.180,-765.625,0.000
1606137607.648,192.383,-8.301,-10.742,408.203,0.000
1606137607.652,395.508,7.812,1.953,-951.172,0.000
1606137607.656,1.953,-20.020,-16.113,165.527,0.000
1606137607.660,-442.871,-43.945,-30.762,-961.914,0.000
1606137607.664,-370.605,-41.504,-27.832,-862.305,0.000
1606137607.668,138.184,-7.812,-5.859,277.344,0.000
1606137607.671,397.949,17.090,11.719,-926.270,0.000
1606137607.675,70.312,-2.930,-9.766,335.449,0.000
1606137607.679,-394.531,-32.715,-32.227,-846.191,0.000
1606137607.683,-406.738,-38.086,-26.367,-933.594,0.000
1606137607.687,74.219,-14.160,-11.230,166.992,0.000
1606137607.691,397.461,7.812,-5.859,-924.805,0.000
1606137607.695,151.855,-6.836,-20.020,518.555,0.000
1606137607.699,-336.426,-36.133,-37.598,-687.500,0.000
1606137607.703,-418.457,-41.992,-36.133,-1000.000,0.000
1606137607.707,52.734,-15.137,-21.484,44.922,0.000
1606137607.711,434.570,14.648,-4.883,-949.707,0.000
1606137607.714,250.977,-1.953,-15.137,660.156,0.000
1606137607.718,-252.441,-35.645,-48.828,-529.297,0.000
1606137607.722,-403.320,-41.016,-61.523,-1000.000,0.000
1606137607.726,22.461,-14.160,-40.527,-76.660,0.000
1606137607.730,462.891,9.766,-12.695,-989.258,0.000
1606137607.734,342.773,0.977,-13.184,744.629,0.000
1606137607.738,-189.941,-24.902,-40.527,-428.223,0.000
1606137607.742,-390.625,-41.016,-47.363,-1000.000,0.000
1606137607.746,-17.578,-23.438,-27.832,-245.605,0.000
1606137607.750,429.199,2.441,-12.207,902.832,0.000
1606137607.754,388.672,-7.812,-16.602,856.445,0.000
1606137607.757,-114.746,-35.645,-38.086,-265.625,0.000
1606137607.761,-410.645,-48.828,-52.246,-1000.000,0.000
1606137607.765,-107.910,-40.527,-39.551,-433.594,0.000
1606137607.769,362.793,-11.719,-22.949,766.602,0.000
1606137607.773,399.414,-10.742,-22.949,932.617,0.000
1606137607.777,-76.172,-40.527,-45.898,-147.949,0.000
1606137607.781,-424.316,-61.523,-63.477,-1000.000,0.000
1606137607.785,-188.965,-52.734,-47.363,-571.777,0.000
1606137607.789,323.730,-16.113,-24.902,637.695,0.000
1606137607.793,427.734,-12.695,-25.879,-999.512,0.000
1606137607.796,-31.738,-49.316,-40.039,-2.441,0.000
1606137607.800,-415.039,-70.312,-54.688,-1000.000,0.000
1606137607.804,-249.023,-57.129,-50.781,-704.102,0.000
1606137607.808,277.344,-26.855,-19.531,517.090,0.000
1606137607.812,427.734,-19.043,-14.648,970.703,0.000
1606137607.816,-2.441,-38.574,-32.715,37.109,0.000
1606137607.820,-393.555,-50.781,-39.551,-963.379,0.000
1606137607.824,-299.805,-46.387,-40.039,-802.734,0.000
1606137607.828,212.891,-20.020,-24.414,356.934,0.000
1606137607.832,457.520,-6.836,-18.555,-923.340,0.000
1606137607.836,109.375,-26.367,-34.668,333.984,0.000
1606137607.839,-355.957,-51.758,-51.270,-865.723,0.000
1606137607.843,-346.191,-56.152,-52.734,-900.879,0.000
1606137607.847,154.785,-11.230,-22.949,231.934,0.000
1606137607.851,461.426,19.531,-1.465,-918.945,0.000
1606137607.855,160.156,-14.648,-20.020,463.379,0.000
1606137607.859,-325.684,-40.039,-45.410,-743.652,0.000
1606137607.863,-382.324,-47.852,-48.340,-981.934,0.000
1606137607.867,79.590,-31.738,-28.320,92.773,0.000
1606137607.871,437.500,-6.348,-7.324,-935.059,0.000
1606137607.875,222.656,-18.555,-11.719,611.328,0.000
1606137607.879,-286.133,-49.805,-39.062,-589.844,0.000
1606137607.882,-420.898,-55.176,-46.387,-1000.000,0.000
1606137607.886,20.508,-27.832,-25.879,-38.086,0.000
1606137607.890,420.898,12.207,-9.766,-978.516,0.000
1606137607.894,272.461,0.488,-8.789,706.543,0.000
1606137607.898,-237.793,-39.062,-30.273,-461.426,0.000
1606137607.902,-439.941,-48.828,-39.551,-1000.000,0.000
1606137607.906,-52.734,-29.297,-28.809,-231.445,0.000
1606137607.910,381.836,-4.395,-15.625,923.340,0.000
1606137607.914,314.941,-6.836,-6.836,807.129,0.000
1606137607.918,-199.707,-34.668,-29.297,-346.191,0.000
1606137607.921,-474.121,-52.734,-39.062,-1000.000,0.000
1606137607.925,-141.602,-32.715,-20.508,-405.762,0.000
1606137607.929,316.895,-5.371,-0.488,787.109,0.000
1606137607.933,314.941,-10.742,2.930,865.723,0.000
1606137607.937,-171.387,-41.992,-19.531,-228.516,0.000
1606137607.941,-490.234,-58.594,-46.875,-1000.000,0.000
1606137607.945,-214.844,-45.410,-33.691,-547.363,0.000
1606137607.949,275.879,-26.855,-12.695,665.039,0.000
1606137607.953,352.539,-27.832,-6.348,963.867,0.000
1606137607.957,-106.934,-48.828,-26.367,-99.609,0.000
1606137607.961,-478.516,-64.453,-50.293,-1000.000,0.000
1606137607.964,-288.574,-55.664,-36.133,-685.059,0.000
1606137607.968,220.215,-28.809,-12.207,500.977,0.000
1606137607.972,377.930,-14.648,0.488,-969.727,0.000
1606137607.976,-42.480,-32.227,-16.113,68.848,0.000
1606137607.980,-459.473,-57.617,-43.457,-1000.000,0.000
1606137607.984,-338.867,-55.664,-44.922,-785.156,0.000
1606137607.988,176.758,-23.438,-18.555,379.395,0.000
1606137607.992,399.414,-6.836,-2.441,-936.523,0.000
1606137607.996,31.738,-32.227,-23.438,243.164,0.000
1606137608.000,-404.297,-56.152,-41.016,-919.922,0.000
1606137608.004,-358.887,-51.270,-38.086,-877.441,0.000
1606137608.007,133.789,-14.648,-14.160,258.301,0.000
1606137608.011,418.457,12.695,-0.488,-917.480,0.000
1606137608.015,98.145,-20.996,-21.973,402.832,0.000
1606137608.019,-383.789,-55.176,-40.039,-805.176,0.000
1606137608.023,-406.250,-50.781,-41.992,-955.078,0.000
1606137608.027,61.523,-11.719,-19.043,141.113,0.000
1606137608.031,396.973,14.648,-2.441,-925.781,0.000
1606137608.035,161.133,-13.184,-19.531,541.016,0.000
1606137608.039,-333.008,-45.410,-40.039,-661.621,0.000
1606137608.043,-428.711,-55.664,-37.109,-1000.000,0.000
1606137608.046,23.926,-34.180,-17.578,4.883,0.000
1606137608.050,398.438,-10.742,-3.418,-959.473,0.000
1606137608.054,216.797,-20.996,-16.113,667.480,0.000
1606137608.058,-301.758,-51.758,-46.387,-514.160,0.000
1606137608.062,-471.680,-63.477,-50.293,-1000.000,0.000
1606137608.066,-55.176,-34.180,-20.508,-154.785,0.000
1606137608.070,365.234,-6.836,-3.906,974.121,0.000
1606137608.074,259.277,-20.508,-6.836,767.578,0.000
1606137608.078,-247.070,-46.875,-24.902,-392.578,0.000
1606137608.082,-487.793,-56.152,-39.062,-1000.000,0.000
1606137608.086,-134.766,-40.039,-28.320,-333.984,0.000
1606137608.089,330.566,-6.836,-6.836,857.422,0.000
1606137608.093,312.012,-8.301,-3.906,856.445,0.000
1606137608.097,-191.895,-45.410,-29.785,-280.762,0.000
1606137608.101,-482.910,-55.664,-54.688,-1000.000,0.000
1606137608.105,-182.617,-32.715,-43.457,-498.047,0.000
1606137608.109,278.809,-7.812,-19.043,715.820,0.000
1606137608.113,333.496,-4.883,-12.695,938.965,0.000
1606137608.117,-138.672,-32.227,-32.227,-151.855,0.000
1606137608.121,-490.723,-54.688,-53.223,-1000.000,0.000
1606137608.125,-257.812,-45.410,-41.992,-632.812,0.000
1606137608.129,246.094,-27.344,-21.973,566.406,0.000
1606137608.132,373.535,-19.531,-18.066,-997.559,0.000
1606137608.136,-62.500,-37.109,-29.297,-6.348,0.000
1606137608.140,-454.590,-63.477,-49.805,-1000.000,0.000
1606137608.144,-306.152,-60.547,-52.734,-753.418,0.000
1606137608.148,207.031,-31.738,-27.344,421.875,0.000
1606137608.152,398.438,-14.160,-16.602,-953.613,0.000
1606137608.156,-3.418,-37.109,-36.133,141.602,0.000
1606137608.160,-428.711,-59.082,-48.340,-983.398,0.000
1606137608.164,-344.238,-44.922,-45.410,-834.473,0.000
1606137608.168,158.691,-24.902,-28.809,316.895,0.000
1606137608.171,406.250,-21.973,-17.090,-928.711,0.000
1606137608.175,72.754,-29.785,-24.414,312.500,0.000
1606137608.179,-390.137,-47.852,-37.109,-864.746,0.000
1606137608.183,-396.973,-52.734,-43.945,-922.852,0.000
1606137608.187,93.262,-31.738,-28.320,188.477,0.000
1606137608.191,408.203,-12.695,-11.719,-920.898,0.000
1606137608.195,138.184,-23.926,-22.461,493.652,0.000
1606137608.199,-345.703,-41.504,-34.668,-715.820,0.000
1606137608.203,-423.340,-45.410,-32.715,-996.094,0.000
1606137608.207,41.504,-17.578,-16.602,70.312,0.000
1606137608.211,404.785,16.113,1.953,-938.477,0.000
1606137608.214,191.406,-3.906,-13.184,619.629,0.000
1606137608.218,-324.219,-44.434,-46.387,-571.289,0.000
1606137608.222,-471.191,-50.781,-56.641,-1000.000,0.000
1606137608.226,-32.715,-21.484,-30.273,-88.379,0.000
1606137608.230,378.418,3.906,-11.719,-991.699,0.000
1606137608.234,243.164,-7.324,-25.391,715.820,0.000
1606137608.238,-266.602,-39.551,-47.852,-455.078,0.000
1606137608.242,-475.586,-52.734,-61.035,-1000.000,0.000
1606137608.246,-90.820,-21.484,-34.668,-278.809,0.000
1606137608.250,350.586,-0.977,-6.836,899.902,0.000
1606137608.254,289.551,-16.113,-18.066,813.965,0.000
1606137608.257,-200.684,-41.016,-47.852,-338.867,0.000
1606137608.261,-477.051,-51.758,-54.688,-1000.000,0.000
1606137608.265,-171.875,-38.574,-38.086,-457.031,0.000
1606137608.269,308.105,5.859,-22.949,764.648,0.000
1606137608.273,341.309,14.648,-16.602,898.926,0.000
1606137608.277,-148.438,-35.156,-40.039,-225.586,0.000
1606137608.281,-475.586,-55.664,-59.570,-1000.000,0.000
1606137608.285,-218.262,-48.828,-37.598,-591.309,0.000
1606137608.289,274.902,-27.344,-11.719,621.094,0.000
1606137608.293,369.629,-20.996,-15.625,975.098,0.000
1606137608.296,-91.797,-49.316,-45.898,-84.961,0.000
1606137608.300,-471.680,-65.918,-58.105,-1000.000,0.000
1606137608.304,-284.180,-51.270,-42.969,-693.359,0.000
1606137608.308,227.051,-5.371,-24.902,488.281,0.000
1606137608.312,395.508,7.812,-10.254,-962.402,0.000
1606137608.316,-18.066,-30.273,-29.785,96.191,0.000
1606137608.320,-441.895,-51.758,-53.223,-1000.000,0.000
1606137608.324,-320.312,-48.340,-45.898,-792.969,0.000
1606137608.328,187.988,-20.508,-18.066,370.117,0.000
1606137608.332,404.785,-12.207,-5.371,-931.641,0.000
1606137608.336,44.434,-29.785,-22.949,260.742,0.000
1606137608.339,-416.504,-56.641,-39.062,-912.598,0.000
1606137608.343,-381.348,-63.477,-40.039,-883.789,0.000
1606137608.347,137.207,-22.461,-19.531,251.953,0.000
1606137608.351,427.246,4.395,-8.789,-917.969,0.000
1606137608.355,119.141,-17.578,-27.344,429.199,0.000
1606137608.359,-369.629,-45.410,-44.922,-775.879,0.000
1606137608.363,-415.039,-55.664,-43.945,-969.727,0.000
1606137608.367,76.660,-23.926,-24.902,120.117,0.000
1606137608.371,430.664,14.648,0.488,-927.246,0.000
1606137608.375,192.383,-3.906,-11.230,566.406,0.000
1606137608.379,-316.895,-39.551,-41.992,-634.766,0.000
1606137608.382,-437.988,-51.270,-43.945,-1000.000,0.000
1606137608.386,6.836,-30.762,-24.414,-25.879,0.000
1606137608.390,396.973,-7.812,-6.348,-969.727,0.000
1606137608.394,233.887,-14.160,-11.719,687.988,0.000
1606137608.398,-284.180,-41.504,-37.109,-487.793,0.000
1606137608.402,-472.168,-50.781,-50.293,-1000.000,0.000
1606137608.406,-62.500,-25.391,-27.344,-189.453,0.000
1606137608.410,375.977,5.859,-5.859,957.031,0.000
1606137608.414,290.039,-2.441,-14.648,772.949,0.000
1606137608.418,-229.004,-42.969,-42.969,-385.254,0.000
1606137608.421,-482.422,-63.477,-55.664,-1000.000,0.000
1606137608.425,-135.742,-44.434,-37.109,-383.301,0.000
1606137608.429,333.008,-18.555,-20.020,826.660,0.000
1606137608.433,327.148,-15.625,-18.066,869.629,0.000
1606137608.437,-172.363,-37.109,-38.574,-266.113,0.000
1606137608.441,-487.305,-53.711,-46.387,-1000.000,0.000
1606137608.445,-206.543,-41.504,-28.320,-527.832,0.000
1606137608.449,306.152,-14.160,-18.555,690.918,0.000
1606137608.453,360.352,-10.254,-11.719,940.430,0.000
1606137608.457,-135.742,-39.062,-28.809,-151.855,0.000
1606137608.461,-482.422,-56.641,-48.340,-1000.000,0.000
1606137608.464,-266.602,-40.039,-38.086,-654.785,0.000
1606137608.468,238.770,-8.789,-14.160,541.016,0.000
1606137608.472,383.301,-2.930,-6.836,-987.793,0.000
1606137608.476,-55.664,-34.668,-38.086,4.395,0.000
1606137608.480,-464.844,-55.664,-53.223,-1000.000,0.000
1606137608.484,-317.871,-46.387,-41.504,-762.695,0.000
1606137608.488,201.660,-9.277,-21.484,403.809,0.000
1606137608.492,405.762,3.906,-14.648,-943.848,0.000
1606137608.496,19.531,-21.973,-23.438,185.059,0.000
1606137608.500,-421.387,-47.363,-40.527,-959.961,0.000
1606137608.504,-364.258,-54.688,-50.781,-851.562,0.000
1606137608.507,148.926,-15.625,-27.832,293.457,0.000
1606137608.511,418.457,4.395,-0.488,-917.480,0.000
1606137608.515,81.055,-27.832,-14.648,363.281,0.000
1606137608.519,-401.367,-58.105,-48.340,-841.309,0.000
1606137608.523,-410.645,-53.223,-47.852,-926.758,0.000
1606137608.527,86.426,-24.902,-18.555,188.477,0.000
1606137608.531,405.762,-14.648,0.977,-924.316,0.000
1606137608.535,136.230,-28.809,-21.484,499.512,0.000
1606137608.539,-356.934,-51.270,-47.363,-700.195,0.000
1606137608.543,-444.336,-61.035,-41.504,-1000.000,0.000
1606137608.546,20.020,-32.715,-16.602,38.086,0.000
1606137608.550,386.719,20.020,-10.254,-945.312,0.000
1606137608.554,188.477,7.324,-18.555,626.465,0.000
1606137608.558,-323.242,-49.316,-36.621,-560.059,0.000
1606137608.562,-485.352,-64.941,-44.922,-1000.000,0.000
1606137608.566,-47.852,-35.156,-18.066,-129.883,0.000
1606137608.570,376.953,-13.672,3.418,988.770,0.000
1606137608.574,252.441,-23.438,-8.301,736.328,0.000
1606137608.578,-258.789,-43.945,-35.645,-432.129,0.000
1606137608.582,-480.957,-55.664,-46.875,-1000.000,0.000
1606137608.586,-104.492,-34.180,-27.832,-297.852,0.000
1606137608.589,357.422,3.418,-10.742,887.695,0.000
1606137608.593,312.988,0.000,-13.184,827.637,0.000
1606137608.597,-200.195,-42.480,-41.016,-321.289,0.000
1606137608.601,-488.281,-60.547,-54.199,-1000.000,0.000
1606137608.605,-173.340,-42.480,-27.832,-459.473,0.000
1606137608.609,317.871,-6.836,-3.418,756.836,0.000
1606137608.613,350.098,1.465,-8.301,915.039,0.000
1606137608.617,-142.578,-27.832,-31.738,-195.312,0.000
1606137608.621,-475.098,-44.922,-46.875,-1000.000,0.000
1606137608.625,-234.863,-36.133,-31.738,-604.492,0.000
1606137608.629,268.555,-4.395,-5.859,601.074,0.000
1606137608.632,379.883,4.883,-4.395,989.258,0.000
1606137608.636,-87.402,-29.297,-21.973,-53.711,0.000
1606137608.640,-475.586,-46.387,-41.504,-1000.000,0.000
1606137608.644,-299.316,-36.133,-36.621,-719.727,0.000
1606137608.648,213.867,5.859,-11.719,459.961,0.000
1606137608.652,393.555,21.484,-13.672,-960.938,0.000
1606137608.656,-18.066,-22.949,-33.203,97.656,0.000
1606137608.660,-451.660,-47.852,-51.270,-1000.000,0.000
1606137608.664,-356.934,-45.898,-48.828,-817.871,0.000
1606137608.668,162.109,-18.555,-10.254,338.379,0.000
1606137608.671,407.715,-3.906,5.859,-930.664,0.000
1606137608.675,49.316,-24.414,-16.113,273.926,0.000
1606137608.679,-413.574,-43.945,-39.551,-892.090,0.000
1606137608.683,-393.066,-48.340,-42.969,-910.156,0.000
1606137608.687,110.352,-21.973,-16.602,207.520,0.000
1606137608.691,410.156,3.906,-5.859,-917.969,0.000
1606137608.695,111.816,-21.973,-23.438,427.734,0.000
1606137608.699,-378.418,-54.688,-40.527,-774.414,0.000
1606137608.703,-428.223,-63.965,-45.898,-985.840,0.000
1606137608.707,49.805,-39.062,-28.320,77.148,0.000
1606137608.711,398.926,-8.789,-10.254,-934.570,0.000
1606137608.714,172.363,-20.996,-26.855,575.684,0.000
1606137608.718,-334.961,-51.270,-54.688,-625.488,0.000
1606137608.722,-464.355,-62.012,-51.758,-1000.000,0.000
1606137608.726,-12.207,-33.203,-22.949,-41.016,0.000
1606137608.730,387.695,-1.465,-3.418,-973.633,0.000
1606137608.734,229.980,-14.160,-8.301,693.359,0.000
1606137608.738,-280.273,-54.199,-26.855,-482.422,0.000
1606137608.742,-480.469,-67.871,-36.133,-1000.000,0.000
1606137608.746,-88.867,-42.480,-20.508,-218.750,0.000
1606137608.750,345.703,-19.531,-14.160,940.430,0.000
1606137608.754,260.254,-28.320,-20.996,780.273,0.000
1606137608.757,-254.395,-53.711,-40.527,-380.859,0.000
1606137608.761,-503.418,-64.941,-53.711,-1000.000,0.000
1606137608.765,-154.785,-44.434,-34.180,-402.832,0.000
1606137608.769,325.195,-10.742,-9.766,809.082,0.000
1606137608.773,334.473,-4.883,-10.742,873.535,0.000
1606137608.777,-163.574,-31.250,-40.527,-260.254,0.000
1606137608.781,-481.445,-49.805,-55.664,-1000.000,0.000
1606137608.785,-211.426,-35.645,-38.574,-552.246,0.000
1606137608.789,281.738,-7.812,-13.672,670.898,0.000
1606137608.793,359.863,-5.371,-14.160,955.566,0.000
1606137608.796,-116.699,-27.832,-39.062,-125.488,0.000
1606137608.800,-485.352,-43.457,-52.734,-1000.000,0.000
1606137608.804,-276.367,-32.227,-41.992,-669.922,0.000
1606137608.808,233.398,-7.812,-12.695,524.414,0.000
1606137608.812,380.371,-2.441,-8.301,-986.328,0.000
1606137608.816,-46.875,-29.297,-41.016,18.555,0.000
1606137608.820,-454.590,-47.363,-59.082,-1000.000,0.000
1606137608.824,-300.781,-25.879,-51.270,-773.926,0.000
1606137608.828,212.891,-6.348,-21.484,388.672,0.000
1606137608.832,403.320,-6.836,-9.277,-940.430,0.000
1606137608.836,28.320,-21.973,-30.762,191.895,0.000
1606137608.839,-419.434,-44.922,-49.316,-955.566,0.000
1606137608.843,-360.840,-41.504,-38.574,-865.234,0.000
1606137608.847,142.578,-20.508,-18.066,273.438,0.000
1606137608.851,405.762,-7.324,-10.742,-918.945,0.000
1606137608.855,88.867,-20.508,-23.438,372.070,0.000
1606137608.859,-392.578,-45.410,-49.316,-827.148,0.000
1606137608.863,-419.922,-41.016,-43.945,-941.406,0.000
1606137608.867,80.078,-10.742,-14.648,162.598,0.000
1606137608.871,414.062,1.953,2.441,-922.363,0.000
1606137608.875,155.762,-19.043,-10.742,530.273,0.000
1606137608.879,-347.656,-47.852,-38.574,-676.270,0.000
1606137608.882,-446.289,-59.082,-38.574,-1000.000,0.000
1606137608.886,15.137,-37.598,-9.277,19.043,0.000
1606137608.890,392.090,-10.254,2.930,-954.102,0.000
1606137608.894,208.008,-16.602,-8.789,655.273,0.000
1606137608.898,-296.387,-40.039,-32.715,-526.367,0.000
1606137608.902,-464.844,-50.293,-50.293,-1000.000,0.000
1606137608.906,-53.223,-32.715,-31.738,-149.902,0.000
1606137608.910,365.234,-8.789,-8.789,978.516,0.000
1606137608.914,254.883,-12.695,-12.207,750.977,0.000
1606137608.918,-251.953,-39.551,-39.062,-411.621,0.000
1606137608.921,-479.492,-55.176,-51.270,-1000.000,0.000
1606137608.925,-116.699,-34.668,-31.250,-334.961,0.000
1606137608.929,340.820,-1.465,-17.090,865.234,0.000
1606137608.933,309.570,-1.953,-20.508,840.820,0.000
1606137608.937,-193.848,-40.039,-47.363,-306.641,0.000
1606137608.941,-464.355,-58.105,-65.918,-1000.000,0.000
1606137608.945,-166.504,-36.133,-42.969,-490.723,0.000
1606137608.949,307.617,-6.836,-20.508,728.516,0.000
1606137608.953,358.398,-2.930,-22.461,919.922,0.000
1606137608.957,-122.559,-30.273,-43.457,-183.105,0.000
1606137608.961,-454.590,-48.340,-58.105,-1000.000,0.000
1606137608.964,-217.285,-33.691,-38.086,-615.723,0.000
1606137608.968,281.738,-12.207,-15.137,588.867,0.000
1606137608.972,387.207,-9.277,-19.531,994.629,0.000
1606137608.976,-62.012,-25.879,-37.598,-32.227,0.000
1606137608.980,-456.543,-56.152,-57.129,-1000.000,0.000
1606137608.984,-295.410,-49.805,-44.434,-727.539,0.000
1606137608.988,207.520,-17.578,-16.113,439.941,0.000
1606137608.992,381.348,-13.184,-9.277,-959.473,0.000
1606137608.996,3.906,-28.320,-20.020,161.133,0.000
1606137609.000,-420.898,-46.875,-41.016,-979.492,0.000
1606137609.004,-339.355,-39.062,-38.086,-817.383,0.000
1606137609.007,169.434,-14.648,-10.254,348.145,0.000
1606137609.011,406.738,-14.648,-5.371,-929.199,0.000
1606137609.015,58.594,-30.273,-20.508,296.875,0.000
1606137609.019,-404.297,-53.711,-41.016,-879.395,0.000
1606137609.023,-394.043,-60.059,-41.992,-912.109,0.000
1606137609.027,101.074,-34.180,-18.555,208.984,0.000
1606137609.031,396.973,-11.230,-12.207,-918.945,0.000
1606137609.035,109.375,-24.902,-28.320,451.172,0.000
1606137609.039,-375.977,-50.781,-51.270,-750.977,0.000
1606137609.043,-437.500,-46.387,-54.199,-989.258,0.000
1606137609.046,37.109,-21.484,-23.926,77.148,0.000
1606137609.050,389.648,-8.789,-4.395,-935.059,0.000
1606137609.054,178.223,-15.625,-14.648,596.680,0.000
1606137609.058,-319.824,-46.875,-37.109,-596.680,0.000
1606137609.062,-463.867,-62.012,-48.828,-1000.000,0.000
1606137609.066,-31.738,-39.551,-34.180,-86.426,0.000
1606137609.070,368.652,-13.672,-17.090,-989.746,0.000
1606137609.074,228.516,-15.137,-23.926,703.613,0.000
1606137609.078,-269.531,-42.480,-43.945,-470.703,0.000
1606137609.082,-472.656,-48.340,-49.805,-1000.000,0.000
1606137609.086,-88.379,-29.785,-24.902,-248.047,0.000
1606137609.089,363.281,-6.836,-4.395,920.410,0.000
1606137609.093,298.340,-10.742,-14.160,807.129,0.000
1606137609.097,-203.613,-42.480,-35.645,-350.098,0.000
1606137609.101,-457.031,-50.293,-46.387,-1000.000,0.000
1606137609.105,-136.719,-37.598,-38.574,-407.715,0.000
1606137609.109,331.055,-0.488,-17.578,795.898,0.000
1606137609.113,344.727,9.766,-9.766,887.207,0.000
1606137609.117,-147.461,-37.109,-29.785,-234.863,0.000
1606137609.121,-461.426,-52.246,-39.062,-1000.000,0.000
1606137609.125,-205.078,-37.109,-25.391,-557.129,0.000
1606137609.129,278.809,-12.695,-7.324,652.344,0.000
1606137609.132,371.582,-7.324,1.953,969.727,0.000
1606137609.136,-95.703,-46.875,-19.043,-90.820,0.000
1606137609.140,-475.586,-66.406,-34.180,-1000.000,0.000
1606137609.144,-275.879,-46.387,-22.949,-670.898,0.000
1606137609.148,233.887,-15.137,-8.301,520.508,0.000
1606137609.152,380.859,-4.395,-3.906,-977.539,0.000
1606137609.156,-41.992,-29.297,-17.090,57.617,0.000
1606137609.160,-455.566,-50.293,-34.668,-1000.000,0.000
1606137609.164,-342.773,-42.480,-42.969,-788.086,0.000
1606137609.168,161.133,-20.020,-23.438,375.977,0.000
1606137609.171,380.859,-7.324,2.930,-937.012,0.000
1606137609.175,13.184,-31.738,-15.625,210.449,0.000
1606137609.179,-435.059,-64.453,-44.922,-941.406,0.000
1606137609.183,-380.859,-58.105,-38.086,-882.324,0.000
1606137609.187,117.188,-28.320,-16.113,247.070,0.000
1606137609.191,389.160,-10.742,-2.441,-919.922,0.000
1606137609.195,86.914,-26.855,-18.555,389.160,0.000
1606137609.199,-382.324,-57.617,-41.504,-803.711,0.000
1606137609.203,-417.480,-64.941,-45.898,-967.285,0.000
1606137609.207,62.012,-30.273,-25.879,115.234,0.000
1606137609.211,395.996,4.395,-2.930,-926.270,0.000
1606137609.214,147.461,-10.742,-15.625,528.809,0.000
1606137609.218,-348.633,-48.340,-43.457,-673.340,0.000
1606137609.222,-450.195,-58.594,-45.410,-1000.000,0.000
1606137609.226,4.883,-28.320,-17.578,-14.160,0.000
1606137609.230,386.230,0.977,-4.883,-960.449,0.000
1606137609.234,205.078,-15.625,-23.926,650.879,0.000
1606137609.238,-304.688,-45.898,-39.551,-532.715,0.000
1606137609.242,-474.609,-52.246,-43.457,-1000.000,0.000
1606137609.246,-70.312,-34.668,-27.344,-182.617,0.000
1606137609.250,348.633,-12.207,-15.625,962.402,0.000
1606137609.254,256.836,-13.184,-21.484,770.996,0.000
1606137609.257,-241.699,-35.645,-41.992,-394.043,0.000
1606137609.261,-470.703,-42.480,-52.734,-1000.000,0.000
1606137609.265,-108.887,-29.297,-28.320,-336.426,0.000
1606137609.269,342.773,-9.766,-4.395,855.469,0.000
1606137609.273,311.035,-7.324,-9.277,854.980,0.000
1606137609.277,-186.035,-32.715,-30.273,-280.762,0.000
1606137609.281,-476.562,-54.688,-41.992,-1000.000,0.000
1606137609.285,-184.082,-46.387,-40.527,-497.070,0.000
1606137609.289,297.363,1.465,-27.344,722.168,0.000
1606137609.293,349.121,21.973,-11.230,937.012,0.000
1606137609.296,-121.094,-26.367,-24.414,-151.855,0.000
1606137609.300,-458.496,-56.152,-52.246,-1000.000,0.000
1606137609.304,-233.398,-42.969,-37.598,-616.211,0.000
1606137609.308,252.930,-21.973,-17.578,583.008,0.000
1606137609.312,378.418,-13.672,-12.207,-996.094,0.000
1606137609.316,-58.594,-39.062,-28.320,-3.418,0.000
1606137609.320,-444.824,-62.988,-45.898,-1000.000,0.000
1606137609.324,-277.344,-47.852,-32.227,-730.957,0.000
1606137609.328,222.656,-24.414,-20.020,442.383,0.000
1606137609.332,397.949,-15.625,-14.160,-950.684,0.000
1606137609.336,12.207,-30.762,-18.066,169.434,0.000
1606137609.339,-415.527,-54.199,-31.738,-970.703,0.000
1606137609.343,-345.703,-52.734,-41.504,-835.449,0.000
1606137609.347,159.180,-17.578,-28.809,319.336,0.000
1606137609.351,412.598,3.418,-15.137,-923.340,0.000
1606137609.355,74.707,-26.367,-27.832,331.055,0.000
1606137609.359,-389.160,-56.641,-46.875,-859.863,0.000
1606137609.363,-383.789,-54.688,-36.621,-916.992,0.000
1606137609.367,105.957,-31.250,-9.766,202.148,0.000
1606137609.371,408.691,-15.625,3.906,-920.898,0.000
1606137609.375,137.207,-27.344,-14.160,481.934,0.000
1606137609.379,-340.332,-48.340,-27.832,-722.168,0.000
1606137609.382,-412.109,-47.363,-29.297,-996.582,0.000
1606137609.386,46.387,-25.391,-21.973,61.523,0.000
1606137609.390,394.531,6.348,-2.441,-940.918,0.000
1606137609.394,185.059,-4.395,-17.578,607.910,0.000
1606137609.398,-305.664,-45.898,-40.039,-581.543,0.000
1606137609.402,-449.707,-53.711,-35.156,-1000.000,0.000
1606137609.406,-26.855,-31.250,-18.555,-91.309,0.000
1606137609.410,376.953,-8.301,-8.301,-994.141,0.000
1606137609.414,245.605,-12.695,-17.090,721.191,0.000
1606137609.418,-257.812,-39.062,-36.133,-446.777,0.000
1606137609.421,-471.191,-57.129,-48.828,-1000.000,0.000
1606137609.425,-85.938,-40.039,-37.109,-259.766,0.000
1606137609.429,362.793,1.465,-15.137,913.574,0.000
1606137609.433,308.105,0.977,-15.625,820.312,0.000
1606137609.437,-184.082,-35.645,-41.992,-328.613,0.000
1606137609.441,-451.172,-49.316,-55.664,-1000.000,0.000
1606137609.445,-129.883,-31.738,-33.691,-406.738,0.000
1606137609.449,341.309,-5.859,-6.836,794.434,0.000
1606137609.453,362.305,-4.395,-0.488,913.574,0.000
1606137609.457,-125.977,-35.645,-24.902,-187.012,0.000
1606137609.461,-459.473,-53.711,-53.711,-1000.000,0.000
1606137609.464,-199.707,-35.156,-36.621,-555.664,0.000
1606137609.468,296.875,-8.789,-11.230,658.691,0.000
1606137609.472,377.930,-5.371,-7.324,979.492,0.000
1606137609.476,-70.312,-27.344,-22.949,-62.500,0.000
1606137609.480,-431.641,-46.387,-45.898,-1000.000,0.000
1606137609.484,-278.320,-46.875,-46.387,-694.336,0.000
1606137609.488,212.891,-14.648,-21.973,491.211,0.000
1606137609.492,386.719,7.812,-8.301,-965.820,0.000
1606137609.496,-28.809,-30.273,-28.809,88.867,0.000
1606137609.500,-451.172,-61.523,-50.293,-1000.000,0.000
1606137609.504,-338.867,-45.410,-45.410,-796.387,0.000
1606137609.507,176.270,-18.555,-21.484,368.652,0.000
1606137609.511,396.484,-13.672,-8.301,-937.012,0.000
1606137609.515,33.691,-29.785,-22.949,238.770,0.000
1606137609.519,-409.668,-48.340,-37.598,-921.875,0.000
1606137609.523,-377.930,-45.898,-39.062,-880.859,0.000
1606137609.527,115.234,-20.508,-22.949,254.883,0.000
1606137609.531,393.555,0.000,-15.625,-919.922,0.000
1606137609.535,97.168,-21.973,-29.297,403.320,0.000
1606137609.539,-370.117,-50.293,-43.945,-792.969,0.000
1606137609.543,-416.504,-52.734,-47.852,-966.797,0.000
1606137609.546,59.082,-33.203,-27.344,116.699,0.000
1606137609.550,398.438,-15.137,-5.859,-927.734,0.000
1606137609.554,161.133,-20.996,-13.672,553.711,0.000
1606137609.558,-328.613,-41.504,-40.527,-646.484,0.000
1606137609.562,-438.965,-53.711,-49.316,-1000.000,0.000
1606137609.566,12.695,-30.273,-32.715,-25.879,0.000
1606137609.570,405.273,14.648,-8.789,-963.379,0.000
1606137609.574,236.816,2.441,-8.789,672.363,0.000
1606137609.578,-275.879,-40.527,-39.551,-506.836,0.000
1606137609.582,-457.520,-52.246,-59.082,-1000.000,0.000
1606137609.586,-48.828,-35.156,-34.180,-188.477,0.000
1606137609.589,376.953,-15.137,-9.766,954.590,0.000
1606137609.593,274.902,-14.648,-20.996,771.973,0.000
1606137609.597,-229.980,-39.551,-41.504,-391.602,0.000
1606137609.601,-467.285,-47.363,-44.922,-1000.000,0.000
1606137609.605,-122.070,-23.438,-30.762,-355.469,0.000
1606137609.609,336.426,-0.488,-10.254,839.844,0.000
1606137609.613,323.730,-4.883,-13.184,867.676,0.000
1606137609.617,-173.340,-38.086,-39.062,-266.602,0.000
1606137609.621,-471.680,-55.664,-46.875,-1000.000,0.000
1606137609.625,-184.082,-37.109,-30.762,-512.695,0.000
1606137609.629,299.805,-1.953,-5.371,702.148,0.000
1606137609.632,355.957,0.000,-8.301,936.035,0.000
1606137609.636,-121.582,-41.504,-35.645,-151.367,0.000
1606137609.640,-468.262,-54.688,-48.340,-1000.000,0.000
1606137609.644,-245.605,-34.180,-36.621,-640.137,0.000
1606137609.648,260.254,-6.348,-5.859,561.035,0.000
1606137609.652,385.254,1.953,-2.930,-992.188,0.000
1606137609.656,-60.547,-28.320,-31.250,0.000,0.000
1606137609.660,-459.473,-50.293,-50.781,-1000.000,0.000
1606137609.664,-308.105,-41.992,-38.574,-744.629,0.000
1606137609.668,205.078,-3.418,-11.230,430.176,0.000
1606137609.671,396.484,21.973,-5.859,-950.684,0.000
1606137609.675,3.906,-19.043,-23.926,159.180,0.000
1606137609.679,-418.457,-51.758,-41.016,-972.656,0.000
1606137609.683,-340.332,-46.875,-37.598,-841.797,0.000
1606137609.687,151.855,-16.113,-23.438,304.199,0.000
1606137609.691,403.809,3.906,-7.324,-923.340,0.000
1606137609.695,74.707,-14.648,-19.043,338.867,0.000
1606137609.699,-393.555,-39.062,-43.945,-853.027,0.000
1606137609.703,-395.020,-46.875,-40.039,-925.781,0.000
1606137609.707,97.656,-21.484,-19.043,187.500,0.000
1606137609.711,410.156,3.418,-7.324,-921.387,0.000
1606137609.714,140.137,-23.438,-24.414,490.723,0.000
1606137609.718,-340.820,-46.875,-38.574,-711.914,0.000
1606137609.722,-417.969,-40.039,-29.297,-1000.000,0.000
1606137609.726,44.922,-21.973,-22.461,47.363,0.000
1606137609.730,404.297,-10.742,-17.578,-943.848,0.000
1606137609.734,197.266,-22.461,-23.926,617.188,0.000
1606137609.738,-298.340,-47.363,-41.992,-572.266,0.000
1606137609.742,-438.965,-59.082,-51.270,-1000.000,0.000
1606137609.746,-15.137,-38.574,-33.203,-114.258,0.000
1606137609.750,392.090,-14.160,-13.672,-992.188,0.000
1606137609.754,237.305,-20.508,-21.484,694.824,0.000
1606137609.757,-273.926,-43.457,-39.551,-491.699,0.000
1606137609.761,-457.031,-46.387,-44.922,-1000.000,0.000
1606137609.765,-85.938,-29.297,-26.855,-284.180,0.000
1606137609.769,353.027,7.324,-12.207,894.043,0.000
1606137609.773,293.945,15.137,-19.043,816.406,0.000
1606137609.777,-212.891,-34.180,-41.504,-337.891,0.000
1606137609.781,-483.887,-54.199,-49.316,-1000.000,0.000
1606137609.785,-169.434,-34.180,-32.227,-445.312,0.000
1606137609.789,304.199,-9.277,-11.230,765.137,0.000
1606137609.793,332.031,-5.859,-9.277,904.785,0.000
1606137609.796,-149.414,-37.109,-37.598,-208.984,0.000
1606137609.800,-468.750,-57.129,-47.852,-1000.000,0.000
1606137609.804,-210.449,-43.945,-28.320,-575.195,0.000
1606137609.808,280.273,-6.348,-11.719,630.371,0.000
1606137609.812,379.395,5.371,-8.789,980.957,0.000
1606137609.816,-73.242,-32.227,-28.809,-55.664,0.000
1606137609.820,-455.566,-57.129,-49.805,-1000.000,0.000
1606137609.824,-277.344,-44.922,-44.434,-698.730,0.000
1606137609.828,228.516,-11.230,-17.090,488.281,0.000
1606137609.832,393.066,-2.930,-6.348,-963.867,0.000
1606137609.836,-13.184,-28.809,-26.855,101.562,0.000
1606137609.839,-426.758,-50.293,-45.898,-1000.000,0.000
1606137609.843,-323.242,-48.828,-46.387,-797.852,0.000
1606137609.847,179.688,-19.531,-17.578,364.258,0.000
1606137609.851,400.879,-4.395,-4.395,-932.617,0.000
1606137609.855,35.645,-33.691,-26.855,256.836,0.000
1606137609.859,-415.527,-56.152,-50.781,-911.621,0.000
1606137609.863,-381.348,-48.828,-51.758,-890.625,0.000
1606137609.867,119.141,-22.461,-24.414,240.234,0.000
1606137609.871,407.227,-11.230,-9.277,-918.945,0.000
1606137609.875,114.258,-25.879,-23.438,418.945,0.000
1606137609.879,-362.305,-48.340,-53.711,-780.762,0.000
1606137609.882,-415.527,-49.805,-57.617,-976.562,0.000
1606137609.886,67.383,-25.879,-27.832,114.746,0.000
1606137609.890,394.531,-19.531,-12.695,-961.426,0.000
1606137609.894,150.391,-28.320,-22.949,520.020,0.000
1606137609.898,-315.918,-42.480,-46.875,-625.488,0.000
1606137609.902,-420.410,-46.875,-49.805,-1000.000,0.000
1606137609.906,4.395,-25.391,-24.414,-29.785,0.000
1606137609.910,377.930,-5.371,-15.137,-970.703,0.000
1606137609.914,218.262,-14.648,-24.414,678.711,0.000
1606137609.918,-283.203,-42.969,-40.039,-496.094,0.000
1606137609.921,-468.262,-55.664,-49.316,-1000.000,0.000
1606137609.925,-67.871,-33.203,-32.715,-199.707,0.000
1606137609.929,363.770,-12.207,-16.113,951.172,0.000
1606137609.933,275.391,-16.602,-13.184,784.668,0.000
1606137609.937,-227.539,-37.109,-27.832,-372.070,0.000
1606137609.941,-470.703,-49.316,-49.805,-1000.000,0.000
1606137609.945,-128.418,-28.320,-40.039,-362.305,0.000
1606137609.949,339.844,3.906,-13.184,838.867,0.000
1606137609.953,329.102,-0.488,-11.719,863.281,0.000
1606137609.957,-169.922,-38.086,-32.227,-270.020,0.000
1606137609.961,-465.820,-51.270,-49.316,-1000.000,0.000
1606137609.964,-184.570,-37.109,-38.086,-520.020,0.000
1606137609.968,295.898,-11.230,-17.090,696.289,0.000
1606137609.972,355.469,-6.836,-16.113,946.777,0.000
1606137609.976,-115.723,-37.109,-32.715,-137.207,0.000
1606137609.980,-470.215,-56.152,-52.246,-1000.000,0.000
1606137609.984,-256.348,-44.922,-43.457,-658.203,0.000
1606137609.988,241.211,-20.020,-20.508,540.039,0.000
1606137609.992,375.977,-9.277,-19.043,-996.582,0.000
1606137609.996,-53.711,-31.738,-41.016,-7.324,0.000
1606137610.000,-457.031,-55.176,-55.664,-1000.000,0.000
1606137610.004,-319.824,-55.176,-45.898,-769.531,0.000
1606137610.007,180.664,-25.391,-30.273,395.508,0.000
1606137610.011,385.742,-1.465,-10.742,-947.754,0.000
1606137610.015,2.441,-26.855,-23.926,158.691,0.000
1606137610.019,-442.871,-57.617,-53.223,-969.727,0.000
1606137610.023,-373.535,-53.711,-49.805,-863.770,0.000
1606137610.027,137.207,-23.926,-27.344,272.949,0.000
1606137610.031,399.414,-6.348,-14.160,-925.293,0.000
1606137610.035,73.730,-24.414,-26.367,340.820,0.000
1606137610.039,-385.742,-44.922,-45.410,-841.309,0.000
1606137610.043,-397.949,-49.316,-48.828,-938.965,0.000
1606137610.046,81.055,-32.227,-25.879,161.133,0.000
1606137610.050,397.949,7.812,-10.742,-923.340,0.000
1606137610.054,138.672,-3.418,-20.508,504.395,0.000
1606137610.058,-349.121,-49.316,-45.898,-700.195,0.000
1606137610.062,-430.664,-56.641,-49.805,-1000.000,0.000
1606137610.066,29.297,-35.645,-27.832,30.762,0.000
1606137610.070,411.621,-14.648,-9.766,-948.730,0.000
1606137610.074,210.938,-25.391,-11.230,634.766,0.000
1606137610.078,-314.453,-47.363,-35.645,-557.129,0.000
1606137610.082,-465.820,-60.059,-51.758,-1000.000,0.000
1606137610.086,-44.434,-45.410,-33.691,-112.793,0.000
1606137610.089,373.047,-9.277,-3.906,992.188,0.000
1606137610.093,249.512,-14.648,-7.812,737.793,0.000
1606137610.097,-265.137,-48.828,-42.969,-431.152,0.000
1606137610.101,-479.004,-57.617,-52.246,-1000.000,0.000
1606137610.105,-110.840,-44.434,-30.762,-275.879,0.000
1606137610.109,329.590,-22.461,-10.742,896.973,0.000
1606137610.113,278.809,-24.902,-5.371,833.984,0.000
1606137610.117,-220.215,-49.805,-26.367,-309.570,0.000
1606137610.121,-494.629,-57.129,-45.410,-1000.000,0.000
1606137610.125,-189.453,-37.109,-30.762,-444.824,0.000
1606137610.129,284.668,-7.812,-8.301,760.254,0.000
1606137610.132,321.777,1.465,-14.160,919.922,0.000
1606137610.136,-153.320,-30.273,-36.133,-181.152,0.000
1606137610.140,-480.469,-54.688,-40.527,-1000.000,0.000
1606137610.144,-233.887,-44.434,-22.461,-590.820,0.000
1606137610.148,258.789,-11.230,-3.906,617.676,0.000
1606137610.152,358.887,0.977,-3.906,982.910,0.000
1606137610.156,-88.867,-38.574,-29.785,-54.688,0.000
1606137610.160,-463.379,-63.477,-46.387,-1000.000,0.000
1606137610.164,-285.645,-48.828,-37.109,-712.402,0.000
1606137610.168,224.609,-18.555,-17.578,469.238,0.000
1606137610.171,394.043,-6.836,-13.184,-962.402,0.000
1606137610.175,-12.207,-28.320,-26.855,104.004,0.000
1606137610.179,-428.711,-49.316,-45.410,-1000.000,0.000
1606137610.183,-334.961,-47.852,-58.105,-813.477,0.000
1606137610.187,177.246,-6.836,-36.621,346.191,0.000
1606137610.191,404.297,8.301,-13.672,-932.617,0.000
1606137610.195,32.227,-38.086,-18.066,260.254,0.000
1606137610.199,-427.734,-64.941,-41.504,-902.832,0.000
1606137610.203,-403.809,-62.988,-36.133,-902.344,0.000
1606137610.207,87.402,-34.668,-8.301,218.750,0.000
1606137610.211,373.535,-19.043,-0.977,-919.922,0.000
1606137610.214,81.543,-41.016,-17.578,430.176,0.000
1606137610.218,-395.508,-69.336,-43.945,-772.949,0.000
1606137610.222,-446.289,-68.359,-42.480,-974.121,0.000
1606137610.226,38.574,-36.133,-16.113,106.445,0.000
1606137610.230,392.578,9.766,-1.953,-931.152,0.000
1606137610.234,173.340,-0.488,-15.137,576.172,0.000
1606137610.238,-324.219,-53.223,-40.039,-621.582,0.000
1606137610.242,-457.031,-68.359,-46.387,-1000.000,0.000
1606137610.246,-14.160,-45.410,-26.367,-41.992,0.000
1606137610.250,386.230,-12.207,-11.719,-975.098,0.000
1606137610.254,230.957,-19.043,-21.484,688.477,0.000
1606137610.257,-270.020,-49.805,-40.527,-486.816,0.000
1606137610.261,-459.473,-62.500,-48.828,-1000.000,0.000
1606137610.265,-76.172,-42.480,-30.762,-213.867,0.000
1606137610.269,354.492,-16.113,-4.883,941.406,0.000
1606137610.273,273.926,-15.137,-8.301,783.203,0.000
1606137610.277,-228.516,-40.527,-38.086,-377.441,0.000
1606137610.281,-473.145,-61.523,-45.898,-1000.000,0.000
1606137610.285,-138.672,-47.363,-29.297,-386.230,0.000
1606137610.289,327.637,-6.348,-9.277,820.801,0.000
1606137610.293,326.172,-2.441,-15.625,875.488,0.000
1606137610.296,-171.875,-43.945,-46.387,-253.906,0.000
1606137610.300,-479.980,-64.453,-57.617,-1000.000,0.000
1606137610.304,-199.707,-46.875,-39.062,-530.273,0.000
1606137610.308,286.133,-16.113,-18.555,682.129,0.000
1606137610.312,351.562,-7.324,-8.301,955.078,0.000
1606137610.316,-112.305,-27.832,-27.344,-115.723,0.000
1606137610.320,-468.750,-50.781,-44.434,-1000.000,0.000
1606137610.324,-263.184,-49.805,-23.438,-657.715,0.000
1606137610.328,235.352,-17.090,-7.812,536.621,0.000
1606137610.332,369.141,-9.766,-9.766,-987.793,0.000
1606137610.336,-58.594,-40.527,-30.273,18.066,0.000
1606137610.339,-459.961,-57.129,-48.340,-1000.000,0.000
1606137610.343,-323.242,-44.922,-38.086,-769.531,0.000
1606137610.347,180.664,-24.902,-18.066,395.508,0.000
1606137610.351,382.324,-15.137,-13.184,-942.871,0.000
1606137610.355,10.742,-30.273,-27.832,195.312,0.000
1606137610.359,-423.340,-48.828,-40.527,-951.660,0.000
1606137610.363,-360.840,-44.922,-44.922,-855.469,0.000
1606137610.367,141.113,-14.648,-26.855,287.598,0.000
1606137610.371,403.809,0.488,-11.719,-920.410,0.000
1606137610.375,82.520,-31.738,-30.762,359.863,0.000
1606137610.379,-381.348,-49.805,-43.945,-835.938,0.000
1606137610.382,-386.719,-38.574,-38.086,-936.523,0.000
1606137610.386,97.168,-16.602,-26.855,166.992,0.000
1606137610.390,408.691,1.465,-18.066,-925.781,0.000
1606137610.394,146.973,-14.648,-25.391,503.418,0.000
1606137610.398,-336.914,-39.551,-47.363,-694.824,0.000
1606137610.402,-424.316,-44.434,-55.664,-1000.000,0.000
1606137610.406,31.738,-21.484,-36.133,19.043,0.000
1606137610.410,395.996,2.930,-18.555,-950.195,0.000
1606137610.414,198.730,-9.766,-22.461,633.789,0.000
1606137610.418,-295.410,-42.480,-46.387,-550.293,0.000
1606137610.421,-447.754,-53.711,-60.547,-1000.000,0.000
1606137610.425,-34.668,-27.832,-31.250,-134.277,0.000
1606137610.429,376.953,17.578,-4.395,985.352,0.000
1606137610.433,263.672,15.137,-16.602,748.047,0.000
1606137610.437,-240.723,-39.062,-41.016,-417.480,0.000
1606137610.441,-464.355,-57.617,-47.363,-1000.000,0.000
1606137610.445,-100.098,-33.691,-26.855,-295.410,0.000
1606137610.449,346.191,-7.324,-5.371,880.371,0.000
1606137610.453,310.547,-1.953,-0.977,838.867,0.000
1606137610.457,-181.641,-28.320,-32.715,-304.199,0.000
1606137610.461,-461.426,-44.922,-52.734,-1000.000,0.000
1606137610.464,-155.273,-28.809,-33.691,-448.242,0.000
1606137610.468,325.195,11.719,-8.301,758.789,0.000
1606137610.472,362.305,13.184,-8.789,921.387,0.000
1606137610.476,-118.164,-35.156,-29.785,-173.828,0.000
1606137610.480,-451.172,-50.781,-43.457,-1000.000,0.000
1606137610.484,-213.867,-39.062,-38.086,-596.680,0.000
1606137610.488,275.879,-13.184,-8.301,607.910,0.000
1606137610.492,383.789,-2.441,-4.883,989.258,0.000
1606137610.496,-66.895,-28.809,-34.668,-40.527,0.000
1606137610.500,-449.219,-53.711,-53.711,-1000.000,0.000
1606137610.504,-274.414,-51.270,-42.480,-715.820,0.000
1606137610.507,231.445,-10.254,-20.508,466.797,0.000
1606137610.511,400.391,19.043,-11.230,-962.402,0.000
1606137610.515,-6.348,-23.926,-25.879,106.934,0.000
1606137610.519,-429.199,-60.547,-45.410,-1000.000,0.000
1606137610.523,-337.402,-53.711,-50.781,-812.012,0.000
1606137610.527,166.504,-25.879,-30.762,347.168,0.000
1606137610.531,401.367,-5.859,-16.602,-930.664,0.000
1606137610.535,48.340,-28.809,-38.574,277.344,0.000
1606137610.539,-404.297,-57.617,-57.617,-895.508,0.000
1606137610.543,-376.953,-44.434,-50.781,-893.555,0.000
1606137610.546,121.582,-15.625,-24.414,235.352,0.000
1606137610.550,411.621,-4.395,-4.395,-917.480,0.000
1606137610.554,117.188,-21.484,-29.297,454.590,0.000
1606137610.558,-362.793,-45.410,-49.316,-753.906,0.000
1606137610.562,-415.527,-45.898,-47.852,-975.586,0.000
1606137610.566,60.547,-21.973,-26.855,105.469,0.000
1606137610.570,411.621,12.207,-5.371,-933.594,0.000
1606137610.574,185.547,-2.441,-11.719,591.797,0.000
1606137610.578,-312.988,-49.805,-36.133,-603.516,0.000
1606137610.582,-433.594,-58.594,-48.828,-1000.000,0.000
1606137610.586,1.465,-32.227,-25.391,-34.668,0.000
1606137610.589,381.836,-12.207,-6.836,-976.074,0.000
1606137610.593,232.422,-21.973,-14.648,698.730,0.000
1606137610.597,-268.066,-49.316,-34.180,-474.609,0.000
1606137610.601,-459.961,-55.176,-43.945,-1000.000,0.000
1606137610.605,-73.730,-42.480,-34.668,-204.590,0.000
1606137610.609,352.539,-4.883,-12.207,939.453,0.000
1606137610.613,277.832,4.883,-8.789,791.992,0.000
1606137610.617,-220.215,-40.527,-40.039,-363.770,0.000
1606137610.621,-474.609,-67.383,-60.547,-1000.000,0.000
1606137610.625,-137.695,-45.410,-26.367,-384.766,0.000
1606137610.629,327.637,-20.020,1.465,816.406,0.000
1606137610.632,331.543,-15.625,0.488,882.324,0.000
1606137610.636,-151.855,-30.762,-14.160,-239.746,0.000
1606137610.640,-454.102,-49.316,-40.527,-1000.000,0.000
1606137610.644,-173.340,-42.969,-36.621,-528.320,0.000
1606137610.648,300.293,-8.789,-13.184,686.035,0.000
1606137610.652,359.863,-6.836,-11.230,954.590,0.000
1606137610.656,-107.422,-45.898,-39.062,-119.141,0.000
1606137610.660,-468.262,-62.012,-54.688,-1000.000,0.000
1606137610.664,-260.254,-51.758,-32.715,-656.250,0.000
1606137610.668,232.422,-26.855,-18.066,534.668,0.000
1606137610.671,364.746,-22.949,-20.508,-982.910,0.000
1606137610.675,-64.941,-46.387,-29.297,34.668,0.000
1606137610.679,-463.379,-56.152,-43.457,-1000.000,0.000
1606137610.683,-321.777,-46.387,-39.551,-767.090,0.000
1606137610.687,185.059,-19.531,-20.996,398.926,0.000
1606137610.691,392.578,-9.766,-13.672,-940.918,0.000
1606137610.695,15.137,-32.715,-30.762,212.402,0.000
1606137610.699,-429.199,-48.828,-43.457,-942.871,0.000
1606137610.703,-376.465,-50.781,-32.715,-860.840,0.000
1606137610.707,121.094,-21.973,-10.742,281.738,0.000
1606137610.711,385.254,19.531,-6.836,-919.922,0.000
1606137610.714,61.523,-11.719,-26.367,370.117,0.000
1606137610.718,-407.227,-56.641,-45.898,-826.172,0.000
1606137610.722,-429.199,-56.152,-43.945,-946.777,0.000
1606137610.726,51.758,-39.062,-25.391,149.902,0.000
1606137610.730,375.000,-19.043,-6.836,-924.805,0.000
1606137610.734,130.371,-27.344,-12.695,513.184,0.000
1606137610.738,-342.285,-45.410,-30.273,-689.453,0.000
1606137610.742,-429.199,-46.875,-37.109,-1000.000,0.000
1606137610.746,20.996,-31.250,-26.367,8.789,0.000
1606137610.750,386.719,-3.906,-11.230,-954.590,0.000
1606137610.754,201.660,-5.859,-12.695,631.348,0.000
1606137610.757,-300.781,-42.969,-38.574,-555.176,0.000
1606137610.761,-461.426,-62.988,-53.223,-1000.000,0.000
1606137610.765,-45.410,-39.062,-32.227,-150.879,0.000
1606137610.769,366.211,-12.695,-13.672,977.539,0.000
1606137610.773,256.348,-17.578,-18.066,742.676,0.000
1606137610.777,-242.188,-39.551,-37.109,-424.316,0.000
1606137610.781,-458.496,-50.781,-44.434,-1000.000,0.000
1606137610.785,-96.680,-35.156,-28.320,-312.500,0.000
1606137610.789,343.750,4.395,-3.418,877.930,0.000
1606137610.793,298.828,3.906,-7.812,831.543,0.000
1606137610.796,-198.730,-36.133,-20.508,-317.383,0.000
1606137610.800,-480.469,-53.223,-33.203,-1000.000,0.000
1606137610.804,-187.500,-42.480,-36.133,-472.656,0.000
1606137610.808,285.645,-12.695,-8.789,740.723,0.000
1606137610.812,328.613,-5.371,-8.789,915.039,0.000
1606137610.816,-149.902,-31.738,-37.598,-191.895,0.000
1606137610.820,-487.793,-55.176,-43.945,-1000.000,0.000
1606137610.824,-254.395,-45.410,-26.855,-603.027,0.000
1606137610.828,237.793,-13.184,-6.348,600.098,0.000
1606137610.832,357.910,-1.465,-4.395,989.258,0.000
1606137610.836,-82.520,-23.926,-20.508,-42.480,0.000
1606137610.839,-464.355,-43.945,-37.598,-1000.000,0.000
1606137610.843,-294.434,-37.598,-40.527,-735.840,0.000
1606137610.847,208.008,-0.488,-21.973,444.336,0.000
1606137610.851,376.465,14.648,-12.695,-969.238,0.000
1606137610.855,-35.645,-23.926,-32.715,80.078,0.000
1606137610.859,-460.449,-53.223,-49.316,-1000.000,0.000
1606137610.863,-355.957,-47.363,-35.645,-820.801,0.000
1606137610.867,154.785,-16.113,-11.719,330.566,0.000
1606137610.871,388.672,-4.883,-5.371,-929.199,0.000
1606137610.875,48.340,-27.344,-23.438,279.785,0.000
1606137610.879,-402.832,-52.246,-43.945,-892.578,0.000
1606137610.882,-388.672,-47.852,-35.156,-900.391,0.000
1606137610.886,109.375,-20.508,-11.719,223.633,0.000
1606137610.890,408.203,-0.977,0.977,-919.434,0.000
1606137610.894,125.977,-15.137,-12.207,451.660,0.000
1606137610.898,-358.887,-46.387,-47.852,-753.418,0.000
1606137610.902,-417.969,-49.805,-59.082,-978.516,0.000
1606137610.906,57.617,-14.160,-29.785,98.145,0.000
1606137610.910,399.902,-2.930,-8.789,-934.570,0.000
1606137610.914,177.246,-28.320,-20.508,585.449,0.000
1606137610.918,-313.477,-50.293,-43.945,-610.352,0.000
1606137610.921,-440.430,-54.199,-50.781,-1000.000,0.000
1606137610.925,-1.465,-23.926,-25.879,-44.434,0.000
1606137610.929,392.090,3.906,-3.906,-979.004,0.000
1606137610.933,233.887,-8.789,-11.719,694.336,0.000
1606137610.937,-273.438,-37.598,-41.016,-477.051,0.000
1606137610.941,-462.891,-52.734,-49.805,-1000.000,0.000
1606137610.945,-76.660,-34.668,-29.297,-229.004,0.000
1606137610.949,347.656,-8.789,-10.742,927.246,0.000
1606137610.953,275.879,-16.113,-12.695,789.551,0.000
1606137610.957,-217.773,-45.898,-38.574,-370.605,0.000
1606137610.961,-472.168,-54.199,-53.711,-1000.000,0.000
1606137610.964,-141.113,-29.785,-39.062,-399.414,0.000
1606137610.968,318.359,-10.742,-14.648,804.688,0.000
1606137610.972,317.383,-9.766,-17.090,883.301,0.000
1606137610.976,-159.180,-26.855,-33.691,-239.746,0.000
1606137610.980,-464.355,-45.410,-38.086,-1000.000,0.000
1606137610.984,-207.520,-44.922,-36.621,-551.270,0.000
1606137610.988,271.484,-10.254,-16.113,661.133,0.000
1606137610.992,360.352,19.043,-9.277,959.473,0.000
1606137610.996,-96.680,-19.531,-41.016,-112.305,0.000
1606137611.000,-461.426,-53.711,-56.152,-1000.000,0.000
1606137611.004,-257.324,-41.992,-32.227,-653.320,0.000
1606137611.007,243.164,-16.113,-14.648,538.574,0.000
1606137611.011,395.996,-3.906,-14.160,-980.957,0.000
1606137611.015,-20.508,-24.414,-26.855,45.410,0.000
1606137611.019,-431.152,-51.758,-50.781,-1000.000,0.000
1606137611.023,-298.828,-46.875,-47.363,-760.742,0.000
1606137611.027,208.008,-14.648,-14.648,407.715,0.000
1606137611.031,417.969,6.348,-0.977,-941.895,0.000
1606137611.035,42.969,-25.391,-21.484,213.867,0.000
1606137611.039,-395.020,-56.641,-39.551,-942.383,0.000
1606137611.043,-345.703,-50.781,-38.574,-853.516,0.000
1606137611.046,146.484,-20.020,-16.113,292.969,0.000
1606137611.050,417.480,-4.883,-1.465,-920.898,0.000
1606137611.054,106.445,-26.367,-16.113,385.254,0.000
1606137611.058,-365.234,-52.246,-38.574,-811.523,0.000
1606137611.062,-395.020,-58.105,-43.945,-946.777,0.000
1606137611.066,85.938,-32.715,-28.320,154.297,0.000
1606137611.070,405.762,10.254,-14.160,-924.805,0.000
1606137611.074,151.367,-4.883,-21.973,514.160,0.000
1606137611.078,-332.520,-50.293,-45.410,-685.059,0.000
1606137611.082,-422.852,-59.082,-55.664,-1000.000,0.000
1606137611.086,26.367,-33.691,-35.156,1.465,0.000
1606137611.089,393.066,-6.348,-14.648,-956.055,0.000
1606137611.093,197.754,-18.066,-25.879,631.348,0.000
1606137611.097,-302.734,-44.922,-50.293,-556.152,0.000
1606137611.101,-455.566,-58.105,-49.316,-1000.000,0.000
1606137611.105,-46.387,-38.574,-24.414,-146.973,0.000
1606137611.109,362.793,-17.090,-13.184,975.098,0.000
1606137611.113,250.977,-27.832,-23.926,746.094,0.000
1606137611.117,-252.441,-51.270,-47.852,-419.922,0.000
1606137611.121,-476.562,-66.895,-52.734,-1000.000,0.000
1606137611.125,-116.699,-56.641,-29.785,-310.547,0.000
1606137611.129,331.055,-6.348,-13.184,870.605,0.000
1606137611.132,287.598,2.441,-14.648,836.426,0.000
1606137611.136,-210.938,-45.898,-34.180,-309.570,0.000
1606137611.140,-487.793,-61.523,-43.457,-1000.000,0.000
1606137611.144,-186.035,-44.434,-29.297,-468.750,0.000
1606137611.148,292.969,-21.484,-14.648,744.629,0.000
1606137611.152,330.566,-17.090,-20.508,916.992,0.000
1606137611.156,-145.508,-43.457,-41.504,-185.547,0.000
1606137611.160,-471.680,-63.965,-55.176,-1000.000,0.000
1606137611.164,-227.539,-47.852,-45.898,-604.492,0.000
1606137611.168,259.766,-9.766,-21.973,600.098,0.000
1606137611.171,362.793,16.602,-19.043,980.469,0.000
1606137611.175,-82.031,-28.320,-40.527,-60.547,0.000
1606137611.179,-458.984,-63.477,-54.199,-1000.000,0.000
1606137611.183,-281.250,-43.945,-40.039,-724.121,0.000
1606137611.187,218.750,-17.090,-14.160,454.590,0.000
1606137611.191,388.184,-11.719,-13.672,-964.844,0.000
1606137611.195,-3.906,-26.855,-26.367,101.074,0.000
1606137611.199,-422.852,-45.898,-43.945,-1000.000,0.000
1606137611.203,-334.473,-44.922,-49.316,-824.707,0.000
1606137611.207,178.223,-12.695,-25.391,330.078,0.000
1606137611.211,413.574,8.789,-8.789,-934.082,0.000
1606137611.214,62.012,-19.531,-20.508,262.695,0.000
1606137611.218,-387.207,-48.340,-45.410,-897.461,0.000
1606137611.222,-367.676,-47.852,-41.504,-904.297,0.000
1606137611.226,125.000,-18.066,-15.625,211.426,0.000
1606137611.230,415.527,7.324,-8.789,-923.340,0.000
1606137611.234,129.883,-14.648,-25.391,445.801,0.000
1606137611.238,-342.773,-44.922,-43.457,-756.836,0.000
1606137611.242,-389.648,-45.410,-44.922,-975.098,0.000
1606137611.246,77.637,-24.414,-27.832,104.004,0.000
1606137611.250,420.898,-6.836,-1.953,-935.059,0.000
1606137611.254,202.637,-17.090,-9.277,592.285,0.000
1606137611.257,-301.758,-43.457,-46.387,-598.633,0.000
1606137611.261,-436.035,-49.316,-52.734,-1000.000,0.000
1606137611.265,-6.348,-36.133,-29.785,-59.082,0.000
1606137611.269,382.812,10.254,-15.137,-983.887,0.000
1606137611.273,231.934,18.066,-17.090,693.359,0.000
1606137611.277,-283.691,-48.828,-42.480,-480.469,0.000
1606137611.281,-479.980,-71.289,-48.828,-1000.000,0.000
1606137611.285,-83.984,-45.410,-28.320,-228.027,0.000
1606137611.289,349.609,-16.602,-14.160,931.641,0.000
1606137611.293,270.996,-24.414,-10.254,793.457,0.000
1606137611.296,-229.492,-64.453,-34.668,-367.188,0.000
1606137611.300,-478.027,-76.172,-42.480,-1000.000,0.000
1606137611.304,-145.996,-48.828,-25.391,-390.625,0.000
1606137611.308,312.988,-11.230,-9.766,810.059,0.000
1606137611.312,313.965,-12.207,-8.301,870.117,0.000
1606137611.316,-173.340,-53.711,-29.785,-261.719,0.000
1606137611.320,-475.586,-64.941,-45.410,-1000.000,0.000
1606137611.324,-197.754,-45.898,-33.691,-544.922,0.000
1606137611.328,284.668,-17.578,-18.066,670.898,0.000
1606137611.332,352.051,-12.207,-19.531,947.754,0.000
1606137611.336,-109.375,-39.062,-36.133,-133.301,0.000
1606137611.339,-461.426,-62.012,-47.852,-1000.000,0.000
1606137611.343,-257.812,-47.363,-32.227,-667.480,0.000
1606137611.347,240.723,7.324,-8.789,523.438,0.000
1606137611.351,383.301,19.531,-9.766,-983.398,0.000
1606137611.355,-40.039,-29.785,-33.691,28.809,0.000
1606137611.359,-444.336,-51.270,-52.246,-1000.000,0.000
1606137611.363,-318.848,-49.805,-47.363,-774.902,0.000
1606137611.367,190.430,-11.719,-17.578,390.137,0.000
1606137611.371,400.879,16.113,-8.789,-941.895,0.000
1606137611.375,27.344,-19.531,-30.273,201.172,0.000
1606137611.379,-413.086,-51.270,-46.387,-948.730,0.000
1606137611.382,-354.004,-44.922,-45.410,-858.887,0.000
1606137611.386,152.344,-13.672,-23.926,285.156,0.000
1606137611.390,408.203,1.953,-10.742,-923.340,0.000
1606137611.394,86.914,-21.973,-22.949,374.023,0.000
1606137611.398,-371.094,-43.457,-39.062,-818.359,0.000
1606137611.402,-393.555,-47.852,-35.156,-940.918,0.000
1606137611.406,84.473,-25.391,-19.531,163.086,0.000
1606137611.410,398.926,10.742,-18.066,-923.828,0.000
1606137611.414,139.160,-14.160,-21.973,528.809,0.000
1606137611.418,-349.121,-58.105,-43.945,-675.293,0.000
1606137611.421,-441.895,-61.035,-55.664,-1000.000,0.000
1606137611.425,17.578,-39.062,-22.949,23.438,0.000
1606137611.429,387.207,-21.484,-3.906,-951.660,0.000
1606137611.433,204.102,-32.227,-18.066,644.531,0.000
1606137611.437,-290.527,-58.105,-50.781,-542.480,0.000
1606137611.441,-445.312,-56.152,-60.547,-1000.000,0.000
1606137611.445,-26.367,-35.156,-31.738,-123.535,0.000
1606137611.449,375.977,13.672,-17.578,985.352,0.000
1606137611.453,255.859,30.762,-29.297,738.281,0.000
1606137611.457,-243.164,-37.109,-48.828,-428.223,0.000
1606137611.461,-460.449,-69.336,-57.617,-1000.000,0.000
1606137611.464,-91.797,-39.551,-31.250,-305.176,0.000
1606137611.468,353.516,-5.859,-16.602,880.371,0.000
1606137611.472,309.570,-13.184,-24.414,831.055,0.000
1606137611.476,-181.641,-40.039,-42.480,-316.895,0.000
1606137611.480,-457.520,-55.664,-52.246,-1000.000,0.000
1606137611.484,-157.227,-41.992,-25.879,-459.473,0.000
1606137611.488,313.477,-10.254,-8.301,751.465,0.000
1606137611.492,350.098,-7.324,-17.090,915.039,0.000
1606137611.496,-128.418,-33.203,-24.902,-186.523,0.000
1606137611.500,-466.309,-54.688,-42.969,-1000.000,0.000
1606137611.504,-235.840,-51.270,-40.527,-609.863,0.000
1606137611.507,259.277,-5.371,-6.836,598.633,0.000
1606137611.511,375.977,16.113,-10.254,990.234,0.000
1606137611.515,-71.777,-33.691,-31.738,-43.945,0.000
1606137611.519,-452.637,-59.082,-40.039,-1000.000,0.000
1606137611.523,-280.762,-43.457,-31.250,-710.938,0.000
1606137611.527,215.820,-19.531,-12.695,467.773,0.000
1606137611.531,384.766,-7.324,0.000,-960.449,0.000
1606137611.535,-15.137,-28.320,-14.648,126.465,0.000
1606137611.539,-434.082,-53.711,-41.504,-994.629,0.000
1606137611.543,-334.961,-49.316,-39.551,-810.059,0.000
1606137611.546,172.363,-12.207,-13.184,350.586,0.000
1606137611.550,402.832,39.551,-4.395,-932.129,0.000
1606137611.554,59.570,7.812,-24.414,288.086,0.000
1606137611.558,-387.695,-50.781,-41.504,-885.742,0.000
1606137611.562,-371.094,-48.340,-38.574,-897.461,0.000
1606137611.566,121.094,-23.438,-17.578,227.539,0.000
1606137611.570,413.086,-8.301,0.000,-918.945,0.000
1606137611.574,125.488,-27.344,-13.672,457.520,0.000
1606137611.578,-355.469,-49.316,-39.062,-752.930,0.000
1606137611.582,-409.180,-52.734,-43.457,-973.145,0.000
1606137611.586,64.941,-20.996,-18.066,111.816,0.000
1606137611.589,410.156,10.742,-3.418,-933.105,0.000
1606137611.593,186.035,-13.184,-30.762,581.055,0.000
1606137611.597,-311.035,-52.734,-50.781,-612.305,0.000
1606137611.601,-439.453,-60.059,-54.688,-1000.000,0.000
1606137611.605,-3.906,-41.992,-35.645,-47.363,0.000
1606137611.609,387.207,-19.043,-13.184,-979.004,0.000
1606137611.613,231.934,-23.926,-15.625,694.336,0.000
1606137611.617,-271.484,-50.293,-38.086,-479.492,0.000
1606137611.621,-468.750,-63.477,-57.129,-1000.000,0.000
1606137611.625,-87.402,-52.734,-36.133,-230.469,0.000
1606137611.629,349.121,-20.508,-13.672,926.270,0.000
1606137611.632,285.645,-7.812,-25.391,796.387,0.000
1606137611.636,-216.309,-39.062,-46.875,-365.723,0.000
1606137611.640,-474.609,-53.711,-58.594,-1000.000,0.000
1606137611.644,-143.555,-40.039,-37.598,-386.719,0.000
1606137611.648,309.570,-6.836,-10.742,809.082,0.000
1606137611.652,313.965,8.789,-16.113,872.070,0.000
1606137611.656,-166.992,-30.762,-40.527,-259.277,0.000
1606137611.660,-467.773,-58.105,-48.828,-1000.000,0.000
1606137611.664,-192.383,-46.387,-41.016,-547.363,0.000
1606137611.668,287.109,-19.043,-25.879,665.527,0.000
1606137611.671,365.723,-8.301,-17.090,948.242,0.000
1606137611.675,-84.961,-27.832,-33.203,-128.418,0.000
1606137611.679,-438.965,-44.922,-45.410,-1000.000,0.000
1606137611.683,-243.652,-40.039,-36.133,-658.691,0.000
1606137611.687,247.070,-5.371,-14.160,532.715,0.000
1606137611.691,382.324,8.301,-11.230,-984.375,0.000
1606137611.695,-36.621,-26.367,-36.621,38.574,0.000
1606137611.699,-433.594,-54.688,-59.570,-1000.000,0.000
1606137611.703,-303.711,-50.781,-46.387,-770.508,0.000
1606137611.707,205.078,-23.926,-10.254,397.949,0.000
1606137611.711,411.133,-11.230,-1.953,-944.336,0.000
1606137611.714,39.062,-28.809,-21.484,202.148,0.000
1606137611.718,-399.414,-56.152,-39.062,-946.289,0.000
1606137611.722,-348.633,-51.270,-31.250,-855.469,0.000
1606137611.726,145.508,-15.137,-9.766,293.945,0.000
1606137611.730,399.902,0.000,-15.625,-927.246,0.000
1606137611.734,85.938,-20.508,-34.668,359.375,0.000
1606137611.738,-371.582,-49.316,-41.992,-824.219,0.000
1606137611.742,-396.484,-56.641,-42.969,-937.988,0.000
1606137611.746,83.008,-36.133,-33.203,164.062,0.000
1606137611.750,405.273,-11.230,-9.277,-927.246,0.000
1606137611.754,145.020,-20.508,-13.672,508.789,0.000
1606137611.757,-340.820,-46.875,-38.086,-688.965,0.000
1606137611.761,-425.781,-54.199,-38.086,-1000.000,0.000
1606137611.765,20.508,-33.203,-23.926,27.344,0.000
1606137611.769,383.301,-12.695,-12.695,-953.613,0.000
1606137611.773,197.754,-25.391,-20.020,641.602,0.000
1606137611.777,-298.828,-52.734,-43.457,-545.898,0.000
1606137611.781,-448.242,-57.129,-36.133,-1000.000,0.000
1606137611.785,-31.250,-32.715,-18.066,-128.906,0.000
1606137611.789,372.559,-1.953,-20.020,983.398,0.000
1606137611.793,259.766,-2.930,-20.996,746.094,0.000
1606137611.796,-237.793,-43.945,-36.133,-418.945,0.000
1606137611.800,-461.426,-52.246,-45.410,-1000.000,0.000
1606137611.804,-105.469,-28.320,-37.109,-302.734,0.000
1606137611.808,341.309,-11.230,-16.113,879.395,0.000
1606137611.812,306.641,-13.184,-8.789,835.938,0.000
1606137611.816,-187.988,-35.156,-33.691,-309.570,0.000
1606137611.820,-461.426,-47.363,-48.340,-1000.000,0.000
1606137611.824,-151.367,-31.738,-34.668,-449.219,0.000
1606137611.828,314.941,-9.277,-13.184,758.789,0.000
1606137611.832,341.309,-15.625,-14.648,907.227,0.000
1606137611.836,-134.766,-40.039,-40.039,-200.684,0.000
1606137611.839,-459.473,-55.176,-46.875,-1000.000,0.000
1606137611.843,-221.680,-44.434,-33.203,-612.793,0.000
1606137611.847,263.672,-17.578,-18.066,589.844,0.000
1606137611.851,370.605,-9.766,-14.648,981.445,0.000
1606137611.855,-77.148,-34.668,-31.250,-57.129,0.000
1606137611.859,-459.961,-56.641,-49.805,-1000.000,0.000
1606137611.863,-290.039,-48.828,-41.016,-713.867,0.000
1606137611.867,215.332,-6.348,-9.277,467.773,0.000
1606137611.871,389.160,15.625,-6.836,-962.402,0.000
1606137611.875,-13.184,-31.738,-37.598,111.328,0.000
1606137611.879,-426.758,-62.012,-55.176,-999.512,0.000
1606137611.882,-322.266,-52.246,-45.898,-811.035,0.000
1606137611.886,174.316,-23.438,-27.344,345.703,0.000
1606137611.890,397.949,-12.207,-19.531,-931.152,0.000
1606137611.894,52.734,-34.180,-27.344,289.551,0.000
1606137611.898,-397.949,-55.664,-44.434,-886.719,0.000
1606137611.902,-381.836,-55.664,-47.852,-896.484,0.000
1606137611.906,114.746,-27.832,-26.367,231.934,0.000
1606137611.910,407.715,-3.906,-2.930,-918.457,0.000
1606137611.914,112.793,-19.043,-22.461,452.148,0.000
1606137611.918,-359.863,-45.410,-53.223,-751.953,0.000
1606137611.921,-413.086,-51.758,-50.781,-984.375,0.000
1606137611.925,52.734,-33.691,-31.250,85.938,0.000
1606137611.929,405.762,3.906,-11.719,-936.035,0.000
1606137611.933,183.105,-0.977,-21.484,578.613,0.000
1606137611.937,-306.641,-48.828,-42.480,-615.723,0.000
1606137611.941,-421.387,-57.617,-44.434,-1000.000,0.000
1606137611.945,9.277,-28.320,-24.414,-49.316,0.000
1606137611.949,395.508,-2.930,-6.836,-980.957,0.000
1606137611.953,240.234,-8.301,-12.207,689.941,0.000
1606137611.957,-257.812,-31.250,-34.668,-486.328,0.000
1606137611.961,-445.801,-41.504,-49.316,-1000.000,0.000
1606137611.964,-61.035,-34.180,-33.691,-219.238,0.000
1606137611.968,370.605,0.977,-12.207,934.082,0.000
1606137611.972,286.621,6.836,-17.578,788.574,0.000
1606137611.976,-212.402,-33.203,-33.691,-369.629,0.000
1606137611.980,-462.402,-54.688,-47.363,-1000.000,0.000
1606137611.984,-133.789,-42.480,-35.645,-380.371,0.000
1606137611.988,325.195,-14.648,-7.324,818.359,0.000
1606137611.992,318.359,-12.695,-3.906,879.395,0.000
1606137611.996,-172.363,-34.668,-22.461,-242.188,0.000
1606137612.000,-473.145,-49.316,-37.598,-1000.000,0.000
1606137612.004,-198.242,-41.016,-22.949,-525.879,0.000
1606137612.007,290.527,1.465,-6.348,686.523,0.000
1606137612.011,364.258,15.137,-6.348,954.102,0.000
1606137612.015,-111.816,-31.738,-26.367,-118.652,0.000
1606137612.019,-468.750,-56.641,-48.340,-1000.000,0.000
1606137612.023,-258.301,-38.574,-41.992,-657.715,0.000
1606137612.027,238.281,-10.742,-18.066,537.109,0.000
1606137612.031,381.836,-6.836,-6.836,-989.746,0.000
1606137612.035,-38.086,-22.461,-33.203,24.414,0.000
1606137612.039,-436.523,-42.969,-49.805,-1000.000,0.000
1606137612.043,-301.270,-46.387,-38.086,-757.324,0.000
1606137612.046,202.148,-19.043,-10.742,412.109,0.000
1606137612.050,395.508,-9.277,-7.324,-943.848,0.000
1606137612.054,14.648,-32.715,-37.598,207.031,0.000
1606137612.058,-423.828,-62.988,-56.152,-945.801,0.000
1606137612.062,-358.887,-59.082,-43.945,-848.633,0.000
1606137612.066,150.879,-26.367,-20.020,298.828,0.000
1606137612.070,410.156,-0.977,-8.301,-921.387,0.000
1606137612.074,88.867,-16.602,-19.531,377.441,0.000
1606137612.078,-380.371,-52.734,-43.457,-822.266,0.000
1606137612.082,-395.996,-55.664,-44.922,-932.617,0.000
1606137612.086,92.773,-28.320,-28.320,178.711,0.000
1606137612.089,407.227,-14.160,-11.719,-925.293,0.000
1606137612.093,147.461,-28.809,-18.066,510.254,0.000
1606137612.097,-333.496,-47.852,-36.621,-688.965,0.000
1606137612.101,-417.480,-48.828,-43.945,-1000.000,0.000
1606137612.105,32.715,-32.715,-20.508,37.598,0.000
1606137612.109,395.508,6.348,-2.930,-951.660,0.000
1606137612.113,207.520,13.184,-12.695,633.301,0.000
1606137612.117,-294.922,-42.969,-28.809,-549.316,0.000
1606137612.121,-451.660,-63.477,-38.574,-1000.000,0.000
1606137612.125,-35.156,-36.133,-27.344,-136.230,0.000
1606137612.129,381.348,-8.789,-5.859,981.934,0.000
1606137612.132,260.742,-9.277,-15.625,739.746,0.000
1606137612.136,-244.629,-35.156,-43.945,-428.223,0.000
1606137612.140,-461.426,-49.316,-45.898,-1000.000,0.000
1606137612.144,-102.051,-27.344,-25.879,-294.922,0.000
1606137612.148,339.355,-3.418,-6.836,889.160,0.000
1606137612.152,290.527,-16.602,-9.277,825.684,0.000
1606137612.156,-207.031,-46.875,-28.809,-322.754,0.000
1606137612.160,-480.469,-60.059,-50.293,-1000.000,0.000
1606137612.164,-176.270,-53.223,-45.410,-467.773,0.000
1606137612.168,295.410,-12.207,-23.438,744.141,0.000
1606137612.171,333.984,2.930,-20.508,914.551,0.000
1606137612.175,-145.508,-35.645,-37.109,-193.848,0.000
1606137612.179,-479.492,-51.758,-45.898,-1000.000,0.000
1606137612.183,-237.305,-41.992,-34.180,-594.727,0.000
1606137612.187,257.812,-2.930,-14.160,606.445,0.000
1606137612.191,366.211,20.996,-10.254,987.305,0.000
1606137612.195,-81.055,-24.902,-25.879,-46.875,0.000
1606137612.199,-456.543,-50.781,-43.457,-1000.000,0.000
1606137612.203,-278.320,-39.062,-32.715,-711.426,0.000
1606137612.207,224.609,-10.742,-8.301,467.285,0.000
1606137612.211,389.160,25.391,-6.836,-964.355,0.000
1606137612.214,-17.578,-12.207,-20.508,105.469,0.000
1606137612.218,-430.664,-64.941,-36.621,-1000.000,0.000
1606137612.222,-328.613,-49.316,-40.527,-811.523,0.000
1606137612.226,176.270,-12.695,-15.625,346.191,0.000
1606137612.230,418.457,1.465,5.371,-929.688,0.000
1606137612.234,67.871,-30.273,-22.461,277.344,0.000
1606137612.238,-384.766,-59.082,-48.828,-898.926,0.000
1606137612.242,-360.840,-56.152,-45.410,-889.160,0.000
1606137612.246,127.930,-25.879,-25.391,244.141,0.000
1606137612.250,418.945,12.695,-9.766,-921.387,0.000
1606137612.254,130.371,-4.883,-19.043,437.988,0.000
1606137612.257,-344.727,-42.480,-41.504,-761.230,0.000
1606137612.261,-396.973,-47.852,-46.875,-972.656,0.000
1606137612.265,71.289,-32.227,-27.832,107.422,0.000
1606137612.269,417.969,-8.301,-5.859,-932.617,0.000
1606137612.273,198.730,-16.113,-11.230,580.078,0.000
1606137612.277,-299.316,-49.316,-43.457,-617.188,0.000
1606137612.281,-418.457,-49.805,-47.363,-1000.000,0.000
1606137612.285,23.438,-31.738,-21.973,-37.109,0.000
1606137612.289,414.062,6.836,-7.324,-972.656,0.000
1606137612.293,248.535,13.184,-20.996,689.453,0.000
1606137612.296,-270.020,-43.945,-44.922,-489.258,0.000
1606137612.300,-458.008,-61.035,-47.363,-1000.000,0.000
1606137612.304,-56.641,-38.574,-20.020,-200.195,0.000
1606137612.308,376.953,-10.254,1.465,942.383,0.000
1606137612.312,285.645,-12.695,-6.348,782.227,0.000
1606137612.316,-226.562,-37.109,-32.227,-378.418,0.000
1606137612.320,-466.309,-48.828,-41.504,-1000.000,0.000
1606137612.324,-121.582,-27.832,-18.066,-369.141,0.000
1606137612.328,344.238,1.465,3.418,828.125,0.000
1606137612.332,337.891,-6.348,-9.277,876.465,0.000
1606137612.336,-155.273,-29.297,-36.621,-250.000,0.000
1606137612.339,-458.496,-47.363,-44.922,-1000.000,0.000
1606137612.343,-178.711,-39.551,-34.180,-520.020,0.000
1606137612.347,305.664,-5.371,-11.230,691.895,0.000
1606137612.351,363.770,2.441,-11.719,943.359,0.000
1606137612.355,-108.887,-34.180,-34.180,-138.184,0.000
1606137612.359,-458.008,-52.246,-45.898,-1000.000,0.000
1606137612.363,-246.582,-41.016,-40.039,-656.250,0.000
1606137612.367,251.465,-14.160,-13.184,538.086,0.000
1606137612.371,380.859,-3.906,-4.883,-988.770,0.000
1606137612.375,-61.035,-33.203,-33.691,13.672,0.000
1606137612.379,-457.031,-56.152,-54.688,-1000.000,0.000
1606137612.382,-309.570,-48.828,-42.969,-759.766,0.000
1606137612.386,196.777,-25.391,-10.742,409.180,0.000
1606137612.390,395.508,2.930,-1.953,-945.312,0.000
1606137612.394,8.789,-5.859,-30.762,184.570,0.000
1606137612.398,-420.898,-43.457,-44.434,-958.496,0.000
1606137612.402,-346.191,-48.340,-41.016,-848.145,0.000
1606137612.406,156.250,-26.367,-26.367,296.875,0.000
1606137612.410,417.969,-10.742,-7.324,-920.898,0.000
1606137612.414,96.680,-28.320,-18.066,366.699,0.000
1606137612.418,-373.047,-55.664,-46.875,-832.031,0.000
1606137612.421,-383.789,-52.734,-47.852,-931.641,0.000
1606137612.425,106.445,-24.414,-20.996,182.617,0.000
1606137612.429,417.480,6.836,-15.625,-924.316,0.000
1606137612.433,148.438,-17.578,-35.156,504.883,0.000
1606137612.437,-332.031,-53.711,-43.945,-694.824,0.000
1606137612.441,-416.016,-50.293,-47.363,-999.512,0.000
1606137612.445,42.969,-27.832,-31.250,53.223,0.000
1606137612.449,413.086,-4.883,-4.883,-947.266,0.000
1606137612.453,214.355,-12.207,-15.137,636.230,0.000
1606137612.457,-288.574,-44.434,-40.527,-547.363,0.000
1606137612.461,-443.848,-61.523,-47.363,-1000.000,0.000
1606137612.464,-34.180,-37.598,-27.344,-112.793,0.000
1606137612.468,372.070,-6.348,-11.230,991.699,0.000
1606137612.472,252.441,-11.230,-18.066,737.793,0.000
1606137612.476,-250.000,-43.457,-38.574,-427.246,0.000
1606137612.480,-464.844,-52.734,-49.316,-1000.000,0.000
1606137612.484,-100.098,-36.133,-27.832,-289.551,0.000
1606137612.488,343.262,3.418,-9.766,883.301,0.000
1606137612.492,301.270,35.645,-13.184,834.961,0.000
1606137612.496,-191.406,-14.648,-36.621,-309.082,0.000
1606137612.500,-465.820,-54.688,-52.246,-1000.000,0.000
1606137612.504,-160.156,-37.598,-39.062,-457.031,0.000
1606137612.507,309.570,-8.301,-18.066,754.883,0.000
1606137612.511,340.332,-3.418,-19.043,907.715,0.000
1606137612.515,-139.160,-30.762,-41.504,-201.172,0.000
1606137612.519,-467.773,-50.781,-43.457,-1000.000,0.000
1606137612.523,-220.215,-43.945,-33.203,-587.891,0.000
1606137612.527,270.996,-7.324,-19.043,616.699,0.000
1606137612.531,368.652,15.625,-1.953,978.027,0.000
1606137612.535,-84.473,-27.832,-23.438,-60.547,0.000
1606137612.539,-455.566,-60.059,-49.316,-1000.000,0.000
1606137612.543,-274.414,-45.898,-40.527,-701.172,0.000
1606137612.546,225.586,-12.695,-16.602,478.027,0.000
1606137612.550,402.344,1.465,-7.812,-963.867,0.000
1606137612.554,8.301,-16.602,-28.320,107.910,0.000
1606137612.558,-419.922,-44.434,-53.223,-1000.000,0.000
1606137612.562,-329.590,-47.852,-40.039,-809.570,0.000
1606137612.566,168.457,-23.438,-19.531,350.586,0.000
1606137612.570,391.602,-1.953,-22.461,-934.082,0.000
1606137612.574,34.668,-23.926,-35.645,259.766,0.000
1606137612.578,-413.086,-61.035,-44.922,-906.738,0.000
1606137612.582,-375.488,-55.176,-34.668,-890.137,0.000
1606137612.586,120.605,-33.203,-22.461,239.258,0.000
1606137612.589,400.391,-18.066,-20.020,-921.875,0.000
1606137612.593,108.887,-22.949,-30.762,432.617,0.000
1606137612.597,-362.305,-45.410,-39.551,-767.578,0.000
1606137612.601,-410.156,-53.711,-41.504,-965.820,0.000
1606137612.605,63.477,-32.227,-27.832,119.141,0.000
1606137612.609,396.973,-9.277,-13.184,-934.082,0.000
1606137612.613,161.621,-20.020,-25.391,576.172,0.000
1606137612.617,-327.637,-50.293,-45.898,-616.699,0.000
1606137612.621,-442.871,-53.223,-48.828,-1000.000,0.000
1606137612.625,0.977,-32.227,-20.996,-30.273,0.000
1606137612.629,388.672,-0.488,-7.812,-973.633,0.000
1606137612.632,230.957,2.441,-16.113,681.641,0.000
1606137612.636,-266.602,-36.621,-31.738,-494.141,0.000
1606137612.640,-448.242,-54.688,-45.410,-1000.000,0.000
1606137612.644,-51.270,-33.691,-37.109,-201.660,0.000
1606137612.648,377.441,-3.418,-15.137,944.336,0.000
1606137612.652,294.922,-2.930,-13.672,782.227,0.000
1606137612.656,-210.938,-33.691,-41.016,-380.371,0.000
1606137612.660,-458.496,-44.922,-57.617,-1000.000,0.000
1606137612.664,-112.793,-22.949,-34.668,-354.004,0.000
1606137612.668,340.820,-2.930,-13.184,837.891,0.000
1606137612.671,323.242,8.789,-23.926,861.328,0.000
1606137612.675,-169.922,-30.273,-44.434,-271.973,0.000
1606137612.679,-471.191,-59.082,-52.734,-1000.000,0.000
1606137612.683,-181.152,-25.879,-32.227,-513.672,0.000
1606137612.687,302.246,-0.977,-21.484,696.289,0.000
1606137612.691,356.445,-6.836,-32.227,940.918,0.000
1606137612.695,-104.492,-27.344,-49.316,-138.184,0.000
1606137612.699,-448.730,-42.480,-54.199,-1000.000,0.000
1606137612.703,-237.793,-32.715,-41.504,-638.672,0.000
1606137612.707,262.695,1.465,-14.648,555.664,0.000
1606137612.711,390.137,15.137,-10.742,-998.047,0.000
1606137612.714,-47.363,-30.273,-34.668,9.277,0.000
1606137612.718,-434.082,-59.570,-41.016,-1000.000,0.000
1606137612.722,-282.715,-45.410,-41.992,-753.906,0.000
1606137612.726,217.285,-9.277,-21.973,416.504,0.000
1606137612.730,405.273,-3.418,-16.113,-951.660,0.000
1606137612.734,16.602,-32.227,-44.922,162.598,0.000
1606137612.738,-419.434,-52.246,-49.805,-969.238,0.000
1606137612.742,-345.703,-46.875,-34.668,-846.191,0.000
1606137612.746,160.156,-20.508,-21.484,298.340,0.000
1606137612.750,417.480,-3.906,-12.695,-926.758,0.000
1606137612.754,103.516,-20.508,-14.160,354.980,0.000
1606137612.757,-356.934,-46.875,-36.621,-832.031,0.000
1606137612.761,-371.094,-45.410,-53.711,-930.664,0.000
1606137612.765,110.352,-23.438,-32.715,179.688,0.000
1606137612.769,412.598,-8.301,-12.207,-924.805,0.000
1606137612.773,149.902,-10.742,-22.949,497.070,0.000
1606137612.777,-319.824,-33.691,-37.109,-702.637,0.000
1606137612.781,-402.832,-40.527,-40.039,-1000.000,0.000
1606137612.785,54.199,-13.672,-17.578,50.781,0.000
1606137612.789,416.992,5.859,-5.371,-946.777,0.000
1606137612.793,213.379,-9.766,-16.113,631.348,0.000
1606137612.796,-285.645,-38.574,-35.156,-556.641,0.000
1606137612.800,-429.199,-48.828,-42.969,-1000.000,0.000
1606137612.804,-7.324,-28.809,-25.879,-95.215,0.000
1606137612.808,390.137,10.742,-16.113,996.094,0.000
1606137612.812,266.602,11.230,-22.461,729.004,0.000
1606137612.816,-233.398,-35.645,-36.133,-437.500,0.000
1606137612.820,-446.777,-51.758,-45.410,-1000.000,0.000
1606137612.824,-76.660,-31.738,-33.691,-274.414,0.000
1606137612.828,365.234,1.465,-9.766,900.391,0.000
1606137612.832,309.082,2.441,-6.348,825.195,0.000
1606137612.836,-198.730,-33.203,-39.551,-323.730,0.000
1606137612.839,-472.656,-51.758,-64.453,-1000.000,0.000
1606137612.843,-163.086,-36.133,-35.156,-454.102,0.000
1606137612.847,300.781,-8.789,-9.766,756.836,0.000
1606137612.851,332.520,-0.977,-18.555,901.367,0.000
1606137612.855,-149.414,-37.598,-31.250,-214.844,0.000
1606137612.859,-489.258,-61.035,-45.410,-1000.000,0.000
1606137612.863,-242.188,-45.410,-41.992,-598.633,0.000
1606137612.867,256.348,-9.277,-9.766,607.422,0.000
1606137612.871,354.004,5.371,-0.488,974.609,0.000
1606137612.875,-104.004,-25.391,-26.367,-74.219,0.000
1606137612.879,-471.680,-43.457,-47.852,-1000.000,0.000
1606137612.882,-291.016,-39.062,-37.109,-708.984,0.000
1606137612.886,208.008,-20.996,-19.043,473.633,0.000
1606137612.890,371.582,-12.207,-11.719,-974.121,0.000
1606137612.894,-37.598,-33.691,-24.414,81.055,0.000
1606137612.898,-440.918,-54.199,-47.852,-1000.000,0.000
1606137612.902,-334.473,-47.363,-47.363,-803.223,0.000
1606137612.906,166.504,-15.625,-28.809,354.492,0.000
1606137612.910,401.367,7.812,-17.090,-935.547,0.000
1606137612.914,50.781,-8.789,-28.809,265.137,0.000
1606137612.918,-395.508,-39.062,-48.828,-902.344,0.000
1606137612.921,-367.676,-42.480,-49.805,-885.254,0.000
1606137612.925,134.277,-16.113,-19.043,267.090,0.000
1606137612.929,412.109,2.441,5.371,-955.566,0.000
1606137612.933,110.840,-17.090,-12.207,388.184,0.000
1606137612.937,-342.773,-40.039,-45.898,-756.348,0.000
1606137612.941,-393.555,-41.992,-54.688,-952.148,0.000
1606137612.945,84.961,-15.625,-31.250,147.949,0.000
1606137612.949,426.758,13.184,-7.812,-927.734,0.000
1606137612.953,184.570,9.766,-13.184,572.266,0.000
1606137612.957,-302.734,-34.180,-46.387,-628.906,0.000
1606137612.961,-407.715,-44.922,-48.340,-1000.000,0.000
1606137612.964,25.879,-20.996,-25.391,-1.953,0.000
1606137612.968,404.297,-9.277,-13.672,-968.262,0.000
1606137612.972,235.352,-23.926,-23.926,682.129,0.000
1606137612.976,-267.090,-49.316,-46.387,-494.629,0.000
1606137612.980,-442.871,-55.176,-49.316,-1000.000,0.000
1606137612.984,-47.363,-34.668,-34.180,-173.828,0.000
1606137612.988,370.117,-9.766,-12.207,955.078,0.000
1606137612.992,282.227,-16.113,-11.719,784.668,0.000
1606137612.996,-214.355,-50.293,-35.645,-369.141,0.000
1606137613.000,-458.984,-69.336,-51.758,-1000.000,0.000
1606137613.004,-119.629,-53.223,-28.320,-359.863,0.000
1606137613.007,337.891,-19.531,-4.883,837.402,0.000
1606137613.011,324.707,-17.578,-10.254,857.910,0.000
1606137613.015,-166.992,-50.293,-39.062,-277.832,0.000
1606137613.019,-461.426,-66.895,-45.410,-1000.000,0.000
1606137613.023,-174.316,-48.828,-25.391,-518.555,0.000
1606137613.027,309.570,-14.160,-8.301,693.848,0.000
1606137613.031,363.770,-9.277,-11.719,934.082,0.000
1606137613.035,-109.375,-35.156,-35.156,-156.250,0.000
1606137613.039,-448.730,-53.711,-43.457,-1000.000,0.000
1606137613.043,-231.934,-50.293,-28.320,-646.484,0.000
1606137613.046,256.836,-25.879,-15.137,544.434,0.000
1606137613.050,381.836,-3.906,-21.973,999.023,0.000
1606137613.054,-52.734,-26.367,-43.457,-5.859,0.000
1606137613.058,-443.359,-52.246,-55.664,-1000.000,0.000
1606137613.062,-289.062,-41.504,-38.574,-746.582,0.000
1606137613.066,211.914,-9.766,-11.230,421.387,0.000
1606137613.070,397.949,1.465,-5.371,-951.172,0.000
1606137613.074,17.578,-26.367,-28.809,171.875,0.000
1606137613.078,-409.668,-44.434,-50.781,-964.844,0.000
1606137613.082,-344.727,-39.062,-42.480,-841.797,0.000
1606137613.086,152.832,-16.602,-13.184,310.547,0.000
1606137613.089,400.391,6.348,-11.719,-927.734,0.000
1606137613.093,72.266,-16.113,-33.691,325.684,0.000
1606137613.097,-384.766,-56.152,-46.875,-855.957,0.000
1606137613.101,-387.207,-49.316,-45.898,-919.434,0.000
1606137613.105,104.492,-21.484,-13.672,196.777,0.000
1606137613.109,405.273,-16.113,0.000,-924.316,0.000
1606137613.113,128.906,-30.762,-22.949,487.305,0.000
1606137613.117,-354.492,-53.711,-41.504,-712.891,0.000
1606137613.121,-430.664,-55.664,-44.434,-989.258,0.000
1606137613.125,34.180,-24.902,-21.484,76.660,0.000
1606137613.129,394.043,-2.441,-1.465,-941.406,0.000
1606137613.132,196.777,-13.672,-13.184,626.953,0.000
1606137613.136,-298.828,-49.805,-43.945,-560.059,0.000
1606137613.140,-446.289,-59.570,-49.316,-1000.000,0.000
1606137613.144,-22.461,-37.598,-26.855,-86.914,0.000
1606137613.148,381.836,-7.812,-15.625,998.047,0.000
1606137613.152,257.812,4.395,-20.020,731.445,0.000
1606137613.156,-239.258,-32.715,-35.645,-434.570,0.000
1606137613.160,-445.312,-53.223,-49.805,-1000.000,0.000
1606137613.164,-79.102,-31.250,-35.156,-259.277,0.000
1606137613.168,355.957,-11.230,-10.742,906.738,0.000
1606137613.171,304.688,-10.254,-9.277,820.312,0.000
1606137613.175,-193.848,-37.109,-25.879,-328.613,0.000
1606137613.179,-458.008,-52.246,-41.016,-1000.000,0.000
1606137613.183,-148.926,-40.527,-34.668,-438.965,0.000
1606137613.187,315.918,-9.766,-10.742,772.949,0.000
1606137613.191,337.402,8.789,-9.766,895.020,0.000
1606137613.195,-146.484,-33.691,-32.227,-225.586,0.000
1606137613.199,-465.332,-58.594,-51.758,-1000.000,0.000
1606137613.203,-223.145,-47.363,-52.734,-596.191,0.000
1606137613.207,259.277,-21.484,-31.738,611.816,0.000
1606137613.211,359.863,-9.277,-16.602,963.867,0.000
1606137613.214,-93.750,-37.109,-32.227,-99.609,0.000
1606137613.218,-468.750,-63.965,-53.223,-1000.000,0.000
1606137613.222,-282.227,-49.805,-41.992,-693.848,0.000
1606137613.226,228.516,-11.230,-9.766,493.652,0.000
1606137613.230,386.719,21.973,-7.324,-974.121,0.000
1606137613.234,-30.273,-7.812,-35.156,76.660,0.000
1606137613.238,-437.012,-58.594,-51.270,-1000.000,0.000
1606137613.242,-311.523,-45.410,-39.551,-780.273,0.000
1606137613.246,197.754,-14.648,-12.207,386.719,0.000
1606137613.250,411.133,-12.695,-4.395,-939.941,0.000
1606137613.254,51.758,-37.109,-15.137,255.859,0.000
1606137613.257,-391.602,-58.594,-31.250,-906.738,0.000
1606137613.261,-358.398,-60.547,-29.785,-876.953,0.000
1606137613.265,130.371,-35.156,-17.578,261.719,0.000
1606137613.269,406.250,-11.230,-13.672,-920.898,0.000
1606137613.273,102.539,-26.855,-25.391,417.480,0.000
1606137613.277,-370.117,-63.965,-49.805,-784.180,0.000
1606137613.281,-405.273,-60.059,-44.922,-957.520,0.000
1606137613.285,74.707,-20.508,-18.066,135.742,0.000
1606137613.289,418.945,13.184,-4.883,-928.223,0.000
1606137613.293,181.641,-0.488,-24.902,551.270,0.000
1606137613.296,-314.453,-40.527,-48.340,-646.973,0.000
1606137613.300,-424.316,-50.781,-45.898,-1000.000,0.000
1606137613.304,25.391,-22.461,-25.879,-16.113,0.000
1606137613.308,406.738,4.883,-18.066,-964.355,0.000
1606137613.312,235.352,-6.348,-19.531,667.969,0.000
1606137613.316,-273.438,-35.645,-46.875,-516.602,0.000
1606137613.320,-451.660,-48.828,-60.547,-1000.000,0.000
1606137613.324,-37.598,-25.879,-27.344,-165.527,0.000
1606137613.328,384.277,5.859,-20.996,963.867,0.000
1606137613.332,277.344,9.766,-29.297,762.207,0.000
1606137613.336,-223.145,-27.832,-39.551,-400.391,0.000
1606137613.339,-454.102,-48.828,-49.805,-1000.000,0.000
1606137613.343,-101.074,-21.973,-25.391,-334.473,0.000
1606137613.347,344.727,3.906,-7.812,852.051,0.000
1606137613.351,318.359,-5.371,-17.090,855.469,0.000
1606137613.355,-172.363,-26.367,-36.133,-278.809,0.000
1606137613.359,-453.613,-37.598,-48.828,-1000.000,0.000
1606137613.363,-157.227,-40.039,-32.715,-484.863,0.000
1606137613.367,297.852,-12.207,-16.113,726.074,0.000
1606137613.371,337.891,14.160,-12.695,937.012,0.000
1606137613.375,-130.371,-21.973,-25.391,-143.066,0.000
1606137613.379,-473.633,-60.059,-40.039,-1000.000,0.000
1606137613.382,-251.953,-52.246,-31.738,-616.699,0.000
1606137613.386,249.023,-19.043,-8.301,584.961,0.000
1606137613.390,374.023,-5.859,-4.395,-999.512,0.000
1606137613.394,-62.012,-26.855,-21.484,-5.371,0.000
1606137613.398,-451.660,-45.898,-34.180,-1000.000,0.000
1606137613.402,-296.875,-37.109,-36.621,-730.469,0.000
1606137613.406,222.656,-1.953,-14.160,447.266,0.000
1606137613.410,410.645,11.230,-3.906,-952.637,0.000
1606137613.414,8.301,-17.578,-24.902,157.715,0.000
1606137613.418,-418.945,-44.922,-45.898,-974.609,0.000
1606137613.421,-342.285,-44.922,-46.387,-836.426,0.000
1606137613.425,159.668,-24.902,-13.672,315.918,0.000
1606137613.429,417.969,17.090,5.859,-927.246,0.000
1606137613.433,90.820,14.648,-21.973,330.566,0.000
1606137613.437,-358.398,-37.598,-44.434,-854.492,0.000
1606137613.441,-355.469,-46.875,-37.598,-918.457,0.000
1606137613.445,128.418,-15.137,-20.020,199.707,0.000
1606137613.449,435.547,1.953,-6.836,-920.898,0.000
1606137613.453,178.223,-11.719,-11.719,485.840,0.000
1606137613.457,-315.918,-33.691,-41.016,-721.680,0.000
1606137613.461,-408.691,-46.387,-50.293,-992.676,0.000
1606137613.464,62.500,-29.785,-18.066,77.148,0.000
1606137613.468,421.875,10.254,1.953,-938.965,0.000
1606137613.472,208.984,3.418,-12.207,617.188,0.000
1606137613.476,-285.645,-51.270,-28.809,-572.266,0.000
1606137613.480,-420.410,-61.035,-28.320,-1000.000,0.000
1606137613.484,-1.465,-34.180,-13.672,-58.105,0.000
1606137613.488,388.184,-13.184,-0.488,-988.770,0.000
1606137613.492,250.000,-21.484,-5.859,729.492,0.000
1606137613.496,-251.465,-41.992,-26.855,-434.082,0.000
1606137613.500,-457.031,-54.199,-35.645,-1000.000,0.000
1606137613.504,-81.055,-43.945,-16.113,-228.516,0.000
1606137613.507,360.352,-3.906,7.324,927.734,0.000
1606137613.511,297.363,12.695,1.953,814.453,0.000
1606137613.515,-209.961,-39.062,-26.855,-331.543,0.000
1606137613.519,-473.633,-68.848,-37.598,-1000.000,0.000
1606137613.523,-152.344,-42.480,-24.414,-411.133,0.000
1606137613.527,313.965,-19.531,-7.324,793.457,0.000
1606137613.531,332.031,-12.207,-1.953,893.555,0.000
1606137613.535,-148.926,-31.738,-24.414,-220.215,0.000
1606137613.539,-468.262,-57.617,-44.434,-1000.000,0.000
1606137613.543,-214.844,-42.969,-27.344,-564.941,0.000
1606137613.546,271.484,-8.789,-4.883,646.973,0.000
1606137613.550,375.977,-2.441,-12.695,970.215,0.000
1606137613.554,-76.172,-25.879,-35.645,-88.867,0.000
1606137613.558,-455.078,-49.805,-52.246,-1000.000,0.000
1606137613.562,-254.883,-38.086,-36.621,-683.105,0.000
1606137613.566,250.488,-3.906,-9.766,505.371,0.000
1606137613.570,398.926,15.137,-13.672,-979.980,0.000
1606137613.574,-12.695,-15.137,-34.668,45.410,0.000
1606137613.578,-419.434,-54.688,-49.316,-1000.000,0.000
1606137613.582,-307.129,-58.594,-50.781,-786.133,0.000
1606137613.586,197.266,-24.902,-30.762,376.465,0.000
1606137613.589,409.668,-0.977,-14.648,-941.406,0.000
1606137613.593,43.945,-33.203,-23.438,223.145,0.000
1606137613.597,-400.391,-57.129,-38.086,-930.176,0.000
1606137613.601,-360.840,-45.410,-32.227,-869.141,0.000
1606137613.605,140.137,-25.879,-12.207,273.438,0.000
1606137613.609,416.016,16.602,-1.465,-922.363,0.000
1606137613.613,102.051,20.508,-11.230,399.902,0.000
1606137613.617,-370.605,-46.387,-38.086,-797.852,0.000
1606137613.621,-398.926,-61.523,-41.016,-943.848,0.000
1606137613.625,83.008,-36.621,-16.602,160.156,0.000
1606137613.629,409.180,-20.508,-0.977,-926.758,0.000
1606137613.632,166.992,-30.762,-13.672,551.758,0.000
1606137613.636,-315.430,-54.199,-37.109,-646.973,0.000
1606137613.640,-422.363,-55.176,-46.875,-1000.000,0.000
1606137613.644,25.879,-37.598,-18.555,12.207,0.000
1606137613.648,413.086,13.184,7.324,-953.125,0.000
1606137613.652,229.980,19.043,-15.625,651.367,0.000
1606137613.656,-273.438,-40.527,-46.387,-533.203,0.000
1606137613.660,-431.641,-49.316,-51.270,-1000.000,0.000
1606137613.664,-29.785,-29.297,-30.273,-157.715,0.000
1606137613.668,381.836,-11.230,-1.953,969.727,0.000
1606137613.671,269.043,-21.973,-7.324,750.000,0.000
1606137613.675,-234.375,-49.805,-36.621,-415.527,0.000
1606137613.679,-458.496,-56.641,-46.387,-1000.000,0.000
1606137613.683,-112.305,-41.016,-25.879,-338.379,0.000
1606137613.687,336.426,-14.648,0.000,854.980,0.000
1606137613.691,312.500,-12.695,-5.859,852.051,0.000
1606137613.695,-178.223,-40.039,-35.645,-289.551,0.000
1606137613.699,-461.426,-53.223,-32.715,-1000.000,0.000
1606137613.703,-166.016,-37.109,-20.508,-490.723,0.000
1606137613.707,303.711,-14.648,-14.648,720.703,0.000
1606137613.711,353.027,10.254,-9.766,928.711,0.000
1606137613.714,-118.652,-18.555,-34.668,-167.480,0.000
1606137613.718,-461.426,-62.012,-44.922,-1000.000,0.000
1606137613.722,-232.910,-52.246,-28.320,-622.559,0.000
1606137613.726,257.812,-20.996,-7.812,578.613,0.000
1606137613.730,369.141,-9.766,-5.859,991.699,0.000
1606137613.734,-68.848,-40.039,-28.809,-29.297,0.000
1606137613.738,-447.754,-56.152,-36.621,-1000.000,0.000
1606137613.742,-282.715,-39.551,-29.785,-726.074,0.000
1606137613.746,214.844,-15.137,-23.438,449.219,0.000
1606137613.750,387.695,5.859,-22.461,-962.402,0.000
1606137613.754,-1.465,-15.625,-28.320,127.441,0.000
1606137613.757,-424.805,-49.805,-43.945,-986.816,0.000
1606137613.761,-343.262,-51.270,-51.270,-826.172,0.000
1606137613.765,157.715,-28.320,-25.391,326.172,0.000
1606137613.769,397.461,-12.695,-7.812,-928.223,0.000
1606137613.773,55.664,-31.250,-16.602,308.594,0.000
1606137613.777,-401.367,-51.270,-33.691,-872.070,0.000
1606137613.781,-392.090,-53.223,-35.156,-907.227,0.000
1606137613.785,97.168,-28.809,-20.020,215.332,0.000
1606137613.789,398.438,-8.789,-12.695,-918.945,0.000
1606137613.793,119.629,-30.273,-21.484,475.098,0.000
1606137613.796,-355.469,-61.035,-41.016,-735.352,0.000
1606137613.800,-411.133,-57.617,-43.945,-979.004,0.000
1606137613.804,49.805,-36.133,-24.414,95.703,0.000
1606137613.808,404.297,-18.555,-8.789,-937.012,0.000
1606137613.812,187.500,-26.367,-17.090,601.074,0.000
1606137613.816,-326.172,-49.805,-42.480,-590.332,0.000
1606137613.820,-455.078,-58.594,-41.016,-1000.000,0.000
1606137613.824,-27.832,-47.852,-23.926,-78.125,0.000
1606137613.828,361.816,-29.785,-12.695,-991.211,0.000
1606137613.832,224.609,-34.668,-13.672,710.938,0.000
1606137613.836,-279.785,-63.477,-37.598,-461.426,0.000
1606137613.839,-481.445,-69.824,-43.457,-1000.000,0.000
1606137613.843,-95.215,-45.898,-29.297,-257.324,0.000
1606137613.847,345.215,-10.254,-16.113,913.086,0.000
1606137613.851,284.180,-7.812,-10.742,801.270,0.000
1606137613.855,-208.984,-48.340,-35.156,-355.469,0.000
1606137613.859,-469.238,-63.477,-57.617,-1000.000,0.000
1606137613.863,-151.855,-43.457,-42.969,-423.828,0.000
1606137613.867,315.918,-19.043,-19.043,789.062,0.000
1606137613.871,318.359,-16.602,-16.113,883.301,0.000
1606137613.875,-169.922,-39.062,-39.062,-242.676,0.000
1606137613.879,-480.957,-54.199,-44.434,-1000.000,0.000
1606137613.882,-217.773,-45.410,-33.203,-545.410,0.000
1606137613.886,268.066,-24.414,-15.625,664.062,0.000
1606137613.890,343.262,-2.930,-10.254,957.520,0.000
1606137613.894,-116.211,-25.391,-33.203,-107.910,0.000
1606137613.898,-468.262,-59.570,-42.969,-1000.000,0.000
1606137613.902,-266.113,-51.270,-32.715,-671.875,0.000
1606137613.906,225.098,-23.926,-19.531,514.648,0.000
1606137613.910,371.582,-10.742,-11.230,-972.656,0.000
1606137613.914,-48.340,-32.227,-25.391,62.988,0.000
1606137613.918,-464.355,-59.082,-44.434,-1000.000,0.000
1606137613.921,-342.285,-55.176,-36.133,-765.625,0.000
1606137613.925,175.293,-22.461,-10.742,401.367,0.000
1606137613.929,386.230,10.254,-5.859,-941.406,0.000
1606137613.933,16.113,-7.324,-14.648,236.328,0.000
1606137613.937,-418.457,-47.852,-43.457,-924.805,0.000
1606137613.941,-366.211,-49.805,-65.430,-866.699,0.000
1606137613.945,143.555,-21.484,-21.973,280.273,0.000
1606137613.949,413.086,-3.906,-4.883,-920.898,0.000
1606137613.953,98.633,-25.879,-31.250,384.277,0.000
1606137613.957,-346.680,-50.293,-46.387,-809.082,0.000
1606137613.961,-378.906,-42.480,-39.062,-956.543,0.000
1606137613.964,90.820,-16.602,-17.090,168.457,0.000
1606137613.968,391.113,-4.395,-7.812,-984.375,0.000
1606137613.972,125.000,-13.672,-23.926,425.293,0.000
1606137613.976,-320.801,-31.250,-41.016,-664.062,0.000
1606137613.980,-418.457,-37.598,-53.711,-1000.000,0.000
1606137613.984,33.203,-21.973,-25.391,-9.277,0.000
1606137613.988,401.367,13.184,-3.418,-961.914,0.000
1606137613.992,206.543,26.367,-25.879,639.648,0.000
1606137613.996,-294.434,-21.484,-46.875,-541.992,0.000
1606137614.000,-461.426,-59.082,-53.711,-1000.000,0.000
1606137614.004,-51.758,-44.922,-28.809,-168.457,0.000
1606137614.007,373.535,-12.207,-7.324,968.750,0.000
1606137614.011,262.207,-11.230,-26.367,748.047,0.000
1606137614.015,-246.094,-45.410,-50.293,-423.340,0.000
1606137614.019,-468.262,-63.477,-49.316,-1000.000,0.000
1606137614.023,-112.305,-42.969,-32.715,-313.477,0.000
1606137614.027,322.266,-15.137,-12.695,863.281,0.000
1606137614.031,281.738,-7.324,-14.648,843.262,0.000
1606137614.035,-207.031,-46.387,-41.992,-302.734,0.000
1606137614.039,-481.445,-63.477,-51.270,-1000.000,0.000
1606137614.043,-180.664,-41.504,-35.645,-476.562,0.000
1606137614.046,290.039,-24.414,-12.207,731.445,0.000
1606137614.050,329.102,-20.020,-15.625,920.410,0.000
1606137614.054,-145.020,-41.992,-30.273,-176.758,0.000
1606137614.058,-469.727,-60.059,-29.297,-1000.000,0.000
1606137614.062,-236.816,-44.434,-33.691,-609.863,0.000
1606137614.066,257.812,-18.066,-18.066,590.332,0.000
1606137614.070,374.023,2.441,-16.602,989.746,0.000
1606137614.074,-62.012,-21.973,-45.410,-35.645,0.000
1606137614.078,-435.059,-62.988,-49.316,-1000.000,0.000
1606137614.082,-278.320,-51.758,-35.156,-724.609,0.000
1606137614.086,225.586,-14.160,-12.695,453.125,0.000
1606137614.089,415.527,-1.953,3.418,-957.031,0.000
1606137614.093,12.207,-27.832,-6.836,127.441,0.000
1606137614.097,-418.945,-57.617,-35.156,-993.652,0.000
1606137614.101,-328.125,-57.617,-43.457,-814.941,0.000
1606137614.105,171.387,-27.344,-22.949,339.355,0.000
1606137614.109,416.992,-1.465,-8.301,-927.734,0.000
1606137614.113,82.031,-13.184,-19.531,312.988,0.000
1606137614.117,-374.023,-38.086,-40.039,-874.023,0.000
1606137614.121,-360.352,-43.457,-38.086,-899.414,0.000
1606137614.125,137.695,-23.438,-18.066,230.957,0.000
1606137614.129,431.152,3.418,-5.859,-920.898,0.000
1606137614.132,138.672,0.000,-13.672,461.914,0.000
1606137614.136,-340.820,-37.109,-22.949,-739.746,0.000
1606137614.140,-400.879,-46.387,-27.344,-981.445,0.000
1606137614.144,59.570,-23.926,-18.555,90.332,0.000
1606137614.148,401.855,-6.836,-8.301,-935.547,0.000
1606137614.152,189.941,-16.602,-20.508,599.121,0.000
1606137614.156,-301.758,-42.969,-40.527,-599.609,0.000
1606137614.160,-420.410,-39.551,-45.898,-1000.000,0.000
1606137614.164,15.137,-9.277,-27.832,-34.668,0.000
1606137614.168,393.066,14.160,-14.648,-978.027,0.000
1606137614.171,238.770,0.977,-20.020,695.312,0.000
1606137614.175,-264.160,-42.969,-32.227,-476.074,0.000
1606137614.179,-458.496,-54.688,-38.574,-1000.000,0.000
1606137614.183,-74.707,-38.574,-34.180,-236.328,0.000
1606137614.187,351.562,-12.207,-22.461,923.828,0.000
1606137614.191,274.414,9.277,-28.320,790.039,0.000
1606137614.195,-220.215,-21.973,-53.223,-373.047,0.000
1606137614.199,-472.168,-49.316,-62.988,-1000.000,0.000
1606137614.203,-143.555,-34.180,-43.457,-398.926,0.000
1606137614.207,312.500,-7.812,-28.320,798.340,0.000
1606137614.211,315.918,3.906,-22.461,877.441,0.000
1606137614.214,-173.340,-40.527,-39.062,-252.441,0.000
1606137614.218,-484.375,-68.848,-60.059,-1000.000,0.000
1606137614.222,-215.820,-47.852,-36.133,-546.875,0.000
1606137614.226,271.484,-23.438,-0.977,664.062,0.000
1606137614.230,346.191,-15.137,-6.836,951.660,0.000
1606137614.234,-120.117,-34.180,-35.645,-122.559,0.000
1606137614.238,-479.980,-56.641,-45.410,-1000.000,0.000
1606137614.242,-274.414,-52.734,-36.133,-666.992,0.000
1606137614.246,224.121,-23.438,-19.531,521.973,0.000
1606137614.250,370.117,-10.742,-9.766,-985.352,0.000
1606137614.254,-47.363,-34.668,-19.043,40.527,0.000
1606137614.257,-455.566,-56.152,-35.645,-1000.000,0.000
1606137614.261,-326.660,-53.223,-34.668,-768.066,0.000
1606137614.265,186.035,-33.203,-12.207,398.438,0.000
1606137614.269,386.230,0.488,-13.184,-945.312,0.000
1606137614.273,10.254,-2.441,-41.504,203.613,0.000
1606137614.277,-420.898,-53.223,-50.293,-942.383,0.000
1606137614.281,-363.281,-61.523,-38.086,-863.770,0.000
1606137614.285,136.230,-33.691,-21.484,275.879,0.000
1606137614.289,407.227,-20.020,-14.160,-920.410,0.000
1606137614.293,91.309,-39.551,-24.902,375.977,0.000
1606137614.296,-372.559,-58.594,-48.828,-821.777,0.000
1606137614.300,-385.742,-55.176,-54.199,-941.406,0.000
1606137614.304,97.656,-39.551,-28.320,162.109,0.000
1606137614.308,413.574,6.836,-20.508,-926.270,0.000
1606137614.312,159.180,11.719,-44.922,504.395,0.000
1606137614.316,-319.824,-38.574,-65.430,-692.383,0.000
1606137614.320,-405.273,-41.992,-55.176,-1000.000,0.000
1606137614.324,52.246,-18.555,-29.785,25.391,0.000
1606137614.328,425.781,6.348,-14.648,-953.613,0.000
1606137614.332,244.141,0.000,-15.625,640.137,0.000
1606137614.336,-269.531,-41.504,-42.480,-545.410,0.000
1606137614.339,-434.082,-54.199,-54.199,-1000.000,0.000
1606137614.343,-17.578,-29.297,-25.879,-128.906,0.000
1606137614.347,387.695,10.254,-3.418,980.469,0.000
1606137614.351,274.902,15.137,-12.695,756.348,0.000
1606137614.355,-229.980,-36.621,-37.109,-405.762,0.000
1606137614.359,-468.262,-60.547,-43.945,-1000.000,0.000
1606137614.363,-114.746,-42.480,-27.344,-300.293,0.000
1606137614.367,333.984,-10.254,-7.324,878.418,0.000
1606137614.371,297.363,-3.418,-10.742,837.891,0.000
1606137614.375,-201.660,-43.945,-34.180,-304.199,0.000
1606137614.379,-482.910,-57.617,-39.062,-1000.000,0.000
1606137614.382,-175.293,-32.227,-25.879,-458.984,0.000
1606137614.386,290.039,-12.695,-10.742,751.953,0.000
1606137614.390,320.801,-13.672,-7.812,905.762,0.000
1606137614.394,-153.320,-39.062,-27.832,-204.590,0.000
1606137614.398,-486.328,-62.500,-41.016,-1000.000,0.000
1606137614.402,-242.188,-51.270,-32.715,-616.699,0.000
1606137614.406,252.930,-19.043,-20.996,585.938,0.000
1606137614.410,360.352,-6.348,-22.461,973.633,0.000
1606137614.414,-86.426,-36.621,-35.645,-77.148,0.000
1606137614.418,-466.309,-61.523,-53.711,-1000.000,0.000
1606137614.421,-291.504,-53.223,-52.734,-727.051,0.000
1606137614.425,216.309,-20.996,-15.625,447.754,0.000
1606137614.429,393.066,-0.977,-6.348,-967.285,0.000
1606137614.433,-5.859,-32.227,-33.203,93.750,0.000
1606137614.437,-419.922,-61.035,-48.340,-1000.000,0.000
1606137614.441,-316.895,-46.875,-42.969,-813.477,0.000
1606137614.445,180.664,-22.461,-32.715,343.750,0.000
1606137614.449,406.738,8.789,-27.832,-934.570,0.000
1606137614.453,62.012,7.324,-40.039,258.789,0.000
1606137614.457,-380.859,-40.039,-54.688,-901.855,0.000
1606137614.461,-366.699,-52.734,-47.852,-902.344,0.000
1606137614.464,130.859,-28.809,-16.602,219.238,0.000
1606137614.468,431.641,-7.324,-5.371,-923.340,0.000
1606137614.472,129.883,-25.391,-30.273,434.082,0.000
1606137614.476,-352.051,-55.176,-46.875,-765.137,0.000
1606137614.480,-402.344,-53.711,-43.945,-964.355,0.000
1606137614.484,62.988,-33.203,-16.113,120.605,0.000
1606137614.488,398.926,-7.324,-2.930,-933.594,0.000
1606137614.492,176.758,-5.371,-16.602,586.914,0.000
1606137614.496,-313.965,-45.410,-43.945,-606.445,0.000
1606137614.500,-440.918,-60.547,-49.805,-1000.000,0.000
1606137614.504,1.953,-41.504,-15.137,-37.598,0.000
1606137614.507,391.113,-8.301,1.465,-975.586,0.000
1606137614.511,225.586,-8.789,-15.137,693.359,0.000
1606137614.515,-274.414,-45.410,-33.203,-481.445,0.000
1606137614.519,-454.102,-51.758,-29.297,-1000.000,0.000
1606137614.523,-59.082,-33.691,-14.648,-193.848,0.000
1606137614.527,367.188,-13.184,0.977,943.359,0.000
1606137614.531,283.691,-12.695,3.906,787.598,0.000
1606137614.535,-215.332,-40.039,-27.344,-368.164,0.000
1606137614.539,-461.914,-51.758,-46.875,-1000.000,0.000
1606137614.543,-124.512,-38.086,-24.902,-369.629,0.000
1606137614.546,324.219,-28.320,-9.277,821.289,0.000
1606137614.550,321.289,-2.441,-9.766,871.094,0.000
1606137614.554,-160.156,-12.207,-27.344,-256.836,0.000
1606137614.558,-467.285,-52.246,-48.340,-1000.000,0.000
1606137614.562,-190.918,-42.969,-37.598,-534.180,0.000
1606137614.566,288.086,-19.531,-12.695,676.270,0.000
1606137614.570,352.539,-14.160,-6.836,945.312,0.000
1606137614.574,-109.375,-31.250,-32.227,-132.812,0.000
1606137614.578,-462.402,-43.457,-57.617,-1000.000,0.000
1606137614.582,-251.953,-37.109,-41.992,-656.738,0.000
1606137614.586,252.441,-13.184,-9.766,539.551,0.000
1606137614.589,389.648,3.418,-9.766,-990.723,0.000
1606137614.593,-46.387,-24.414,-26.855,14.160,0.000
1606137614.597,-446.289,-54.688,-36.133,-1000.000,0.000
1606137614.601,-312.500,-45.898,-39.551,-763.672,0.000
1606137614.605,189.453,-27.832,-26.367,404.785,0.000
1606137614.609,390.625,-21.973,-14.648,-950.684,0.000
1606137614.613,9.766,-36.133,-29.785,181.152,0.000
1606137614.617,-424.316,-51.758,-43.945,-955.566,0.000
1606137614.621,-354.492,-47.363,-36.621,-846.191,0.000
1606137614.625,145.020,-19.531,-18.066,299.805,0.000
1606137614.629,401.855,-2.930,-10.742,-921.387,0.000
1606137614.632,89.355,-19.043,-18.555,378.418,0.000
1606137614.636,-370.605,-40.039,-28.320,-821.777,0.000
1606137614.640,-383.301,-41.992,-34.180,-930.176,0.000
1606137614.644,102.539,-29.297,-22.949,180.176,0.000
1606137614.648,415.039,2.441,-9.277,-924.316,0.000
1606137614.652,150.879,8.789,-18.066,506.836,0.000
1606137614.656,-341.309,-41.992,-39.551,-696.777,0.000
1606137614.660,-424.316,-56.641,-47.852,-1000.000,0.000
1606137614.664,37.598,-32.715,-25.879,40.527,0.000
1606137614.668,401.855,-11.230,-10.742,-948.730,0.000
1606137614.671,215.332,-12.695,-17.578,635.742,0.000
1606137614.675,-275.391,-36.621,-27.344,-551.758,0.000
1606137614.679,-435.547,-46.875,-39.062,-1000.000,0.000
1606137614.683,-22.949,-29.785,-29.297,-99.121,0.000
1606137614.687,386.719,-11.719,-11.230,995.605,0.000
1606137614.691,258.789,-8.789,-17.578,735.352,0.000
1606137614.695,-248.047,-36.621,-34.668,-429.199,0.000
1606137614.699,-462.402,-59.570,-39.551,-1000.000,0.000
1606137614.703,-91.797,-36.621,-24.414,-276.367,0.000
1606137614.707,354.980,-10.254,-7.812,891.113,0.000
1606137614.711,310.547,-21.484,-7.812,823.730,0.000
1606137614.714,-183.105,-42.480,-25.879,-324.707,0.000
1606137614.718,-455.566,-48.340,-41.992,-1000.000,0.000
1606137614.722,-147.461,-36.133,-30.273,-449.707,0.000
1606137614.726,328.125,-11.230,-4.395,766.602,0.000
1606137614.730,341.309,5.859,-17.578,899.414,0.000
1606137614.734,-151.855,-17.090,-41.016,-213.867,0.000
1606137614.738,-470.703,-53.711,-51.270,-1000.000,0.000
1606137614.742,-216.797,-38.574,-33.691,-582.520,0.000
1606137614.746,272.949,-19.531,-9.766,620.605,0.000
1606137614.750,370.605,-19.043,-7.324,978.516,0.000
1606137614.754,-90.820,-41.016,-25.879,-63.477,0.000
1606137614.757,-463.867,-60.547,-46.387,-1000.000,0.000
1606137614.761,-280.273,-45.898,-37.598,-696.289,0.000
1606137614.765,222.168,-14.648,-12.695,483.887,0.000
1606137614.769,397.949,2.441,-5.371,-963.867,0.000
1606137614.773,-10.742,-25.879,-24.902,105.469,0.000
1606137614.777,-431.152,-51.270,-41.992,-1000.000,0.000
1606137614.781,-326.172,-40.039,-42.480,-800.781,0.000
1606137614.785,181.641,-16.602,-15.625,359.863,0.000
1606137614.789,415.039,7.324,-3.418,-931.152,0.000
1606137614.793,56.152,-8.301,-34.180,274.902,0.000
1606137614.796,-395.020,-45.898,-45.410,-899.902,0.000
1606137614.800,-367.676,-53.223,-40.039,-888.184,0.000
1606137614.804,125.000,-26.855,-30.273,243.652,0.000
1606137614.808,414.062,-7.324,-11.719,-920.410,0.000
1606137614.812,122.070,-18.555,-17.090,427.246,0.000
1606137614.816,-358.887,-42.480,-34.668,-777.832,0.000
1606137614.820,-406.250,-44.922,-39.551,-961.426,0.000
1606137614.824,74.219,-25.391,-19.531,127.441,0.000
1606137614.828,414.062,1.465,0.977,-930.664,0.000
1606137614.832,175.293,7.812,-20.996,567.871,0.000
1606137614.836,-327.148,-40.527,-45.898,-629.883,0.000
1606137614.839,-441.895,-63.965,-42.480,-1000.000,0.000
1606137614.843,1.953,-33.203,-22.461,-20.996,0.000
1606137614.847,390.137,-9.277,-9.766,-970.215,0.000
1606137614.851,225.586,-14.648,-12.695,681.152,0.000
1606137614.855,-280.762,-42.480,-34.180,-494.141,0.000
1606137614.859,-462.402,-55.176,-49.805,-1000.000,0.000
1606137614.863,-68.359,-35.156,-37.109,-189.453,0.000
1606137614.867,366.211,-7.324,-16.602,953.613,0.000
1606137614.871,279.297,1.465,-19.043,775.879,0.000
1606137614.875,-225.586,-38.086,-36.621,-384.277,0.000
1606137614.879,-470.703,-60.059,-44.922,-1000.000,0.000
1606137614.882,-134.766,-46.387,-38.574,-368.652,0.000
1606137614.886,339.844,-20.996,-4.395,832.520,0.000
1606137614.890,335.938,-10.254,-4.883,862.305,0.000
1606137614.894,-169.922,-41.016,-36.621,-273.438,0.000
1606137614.898,-477.539,-62.012,-54.199,-1000.000,0.000
1606137614.902,-194.824,-48.340,-45.898,-528.320,0.000
1606137614.906,289.551,-21.973,-20.996,687.988,0.000
1606137614.910,352.539,-16.113,-19.043,937.988,0.000
1606137614.914,-111.328,-45.898,-35.156,-150.391,0.000
1606137614.918,-463.867,-64.941,-51.270,-1000.000,0.000
1606137614.921,-245.605,-47.852,-51.270,-657.715,0.000
1606137614.925,256.836,-23.926,-20.996,537.598,0.000
1606137614.929,387.695,6.348,-9.277,999.023,0.000
1606137614.933,-40.527,-4.395,-33.691,-11.719,0.000
1606137614.937,-439.453,-53.223,-58.105,-1000.000,0.000
1606137614.941,-300.781,-57.617,-58.594,-761.230,0.000
1606137614.945,205.566,-28.320,-33.691,408.203,0.000
1606137614.949,402.344,-13.184,-18.066,-948.730,0.000
1606137614.953,13.184,-35.645,-27.832,172.852,0.000
1606137614.957,-427.734,-59.082,-50.293,-963.379,0.000
1606137614.961,-362.305,-56.641,-50.293,-844.727,0.000
1606137614.964,139.648,-38.574,-19.043,303.711,0.000
1606137614.968,401.367,-1.465,-3.906,-925.293,0.000
1606137614.972,66.406,-17.578,-29.785,336.914,0.000
1606137614.976,-400.391,-59.082,-37.598,-851.074,0.000
1606137614.980,-400.879,-54.688,-29.297,-919.922,0.000
1606137614.984,94.727,-30.762,-13.672,193.848,0.000
1606137614.988,406.250,-12.207,-1.465,-922.852,0.000
1606137614.992,132.324,-25.879,-20.996,494.141,0.000
1606137614.996,-345.703,-49.805,-43.945,-708.008,0.000
1606137615.000,-417.480,-49.316,-38.574,-997.070,0.000
1606137615.004,45.898,-22.461,-13.184,60.059,0.000
1606137615.007,406.738,0.000,-5.371,-942.383,0.000
1606137615.011,206.543,0.000,-24.902,620.605,0.000
1606137615.015,-285.156,-37.109,-46.875,-568.359,0.000
1606137615.019,-424.805,-55.176,-48.828,-1000.000,0.000
1606137615.023,-11.230,-29.297,-24.414,-97.168,0.000
1606137615.027,386.230,-9.277,-7.812,998.047,0.000
1606137615.031,266.113,-7.812,-6.348,726.562,0.000
1606137615.035,-238.281,-32.227,-27.832,-440.430,0.000
1606137615.039,-455.566,-50.293,-48.828,-1000.000,0.000
1606137615.043,-88.867,-34.180,-36.621,-289.062,0.000
1606137615.046,349.121,-10.254,-21.484,890.137,0.000
1606137615.050,289.551,-12.207,-23.438,814.941,0.000
1606137615.054,-213.379,-39.551,-51.270,-338.867,0.000
1606137615.058,-479.980,-58.594,-59.082,-1000.000,0.000
1606137615.062,-162.598,-46.875,-35.645,-451.660,0.000
1606137615.066,309.082,-18.066,-11.719,763.184,0.000
1606137615.070,319.824,-0.977,-12.207,895.996,0.000
1606137615.074,-165.039,-30.273,-35.156,-221.191,0.000
1606137615.078,-476.074,-55.176,-38.086,-1000.000,0.000
1606137615.082,-223.633,-40.527,-35.156,-585.938,0.000
1606137615.086,272.461,-15.137,-20.508,621.094,0.000
1606137615.089,370.605,-6.348,-14.648,973.145,0.000
1606137615.093,-93.750,-33.203,-34.180,-77.637,0.000
1606137615.097,-469.238,-54.688,-47.363,-1000.000,0.000
1606137615.101,-279.785,-37.598,-31.250,-687.500,0.000
1606137615.105,221.680,-20.020,-5.371,495.605,0.000
1606137615.109,379.883,6.836,-4.395,-974.121,0.000
1606137615.113,-30.762,11.230,-21.973,80.566,0.000
1606137615.117,-437.988,-41.992,-36.621,-1000.000,0.000
1606137615.121,-316.406,-51.758,-38.086,-788.574,0.000
1606137615.125,189.941,-21.973,-20.020,373.535,0.000
1606137615.129,408.203,-13.184,-9.277,-938.477,0.000
1606137615.132,49.805,-35.645,-30.762,251.465,0.000
1606137615.136,-399.414,-64.453,-50.781,-911.621,0.000
1606137615.140,-355.957,-49.316,-36.621,-879.883,0.000
1606137615.144,147.461,-20.020,-12.695,254.395,0.000
1606137615.148,420.898,9.277,-11.719,-921.387,0.000
1606137615.152,119.629,10.254,-23.926,415.039,0.000
1606137615.156,-342.773,-38.086,-37.109,-787.109,0.000
1606137615.160,-379.395,-46.875,-41.016,-953.613,0.000
1606137615.164,94.238,-23.926,-20.508,139.648,0.000
1606137615.168,429.199,-5.371,-5.371,-929.688,0.000
1606137615.171,189.453,-21.973,-10.254,563.477,0.000
1606137615.175,-308.105,-56.641,-23.438,-637.207,0.000
1606137615.179,-422.363,-55.176,-38.574,-1000.000,0.000
1606137615.183,24.414,-23.926,-22.461,0.977,0.000
1606137615.187,402.832,-4.395,1.953,-964.844,0.000
