timestamps,TP9,AF7,AF8,TP10,Right AUX
1606143091.966,0.000,0.000,0.000,-0.488,0.000
1606143091.970,0.000,0.000,0.000,0.488,0.000
1606143091.974,-1.465,-0.977,-0.977,-3.418,0.000
1606143091.978,2.441,1.953,1.465,3.418,0.000
1606143091.982,-11.719,-10.742,-9.766,-6.348,0.000
1606143091.986,-36.133,-27.832,-24.902,-80.078,0.000
1606143091.990,-16.602,-21.973,-21.973,-50.293,0.000
1606143091.994,23.926,-20.996,-16.602,113.770,0.000
1606143091.998,36.621,-23.926,-17.578,177.246,0.000
1606143092.001,3.906,-19.531,-25.391,63.477,0.000
1606143092.005,-35.645,-23.926,-24.902,-53.223,0.000
1606143092.009,-21.973,-25.391,-20.020,-28.320,0.000
1606143092.013,22.949,-17.090,-20.508,108.887,0.000
1606143092.017,41.504,-18.066,-20.020,176.270,0.000
1606143092.021,29.297,-21.973,-17.578,91.797,0.000
1606143092.025,-3.418,-21.484,-16.113,-24.414,0.000
1606143092.029,-10.254,-21.973,-19.531,-32.715,0.000
1606143092.033,27.344,-19.531,-17.578,88.867,0.000
1606143092.037,47.852,-21.973,-14.648,174.805,0.000
1606143092.041,16.602,-30.273,-15.137,95.215,0.000
1606143092.044,-19.531,-37.109,-15.625,-47.852,0.000
1606143092.048,-25.391,-36.621,-18.066,-71.289,0.000
1606143092.052,-0.488,-36.133,-17.090,44.922,0.000
1606143092.056,19.043,-34.668,-17.090,129.883,0.000
1606143092.060,-1.465,-36.133,-23.926,81.055,0.000
1606143092.064,-33.691,-41.992,-26.367,-38.574,0.000
1606143092.068,-34.668,-37.109,-26.855,-65.918,0.000
1606143092.072,-12.695,-33.203,-29.785,15.625,0.000
1606143092.076,3.418,-38.574,-29.785,87.402,0.000
1606143092.080,-17.090,-33.691,-26.855,55.664,0.000
1606143092.083,-52.246,4.883,-29.785,-46.875,0.000
1606143092.087,-59.082,10.742,-32.227,-97.168,0.000
1606143092.091,-44.434,-35.645,-27.344,-42.969,0.000
1606143092.095,-18.555,-53.711,-26.855,61.035,0.000
1606143092.099,-19.043,-47.852,-28.809,51.758,0.000
1606143092.103,-50.293,-48.340,-26.367,-81.543,0.000
1606143092.107,-62.988,-50.293,-22.949,-145.996,0.000
1606143092.111,-51.758,-51.758,-22.949,-78.613,0.000
1606143092.115,-17.578,-43.457,-20.020,45.898,0.000
1606143092.119,-16.602,-41.992,-19.531,62.988,0.000
1606143092.123,-57.129,-40.039,-24.902,-59.570,0.000
1606143092.126,-72.754,-43.457,-23.438,-124.023,0.000
1606143092.130,-55.176,-9.766,-24.902,-60.059,0.000
1606143092.134,-25.391,6.836,-29.785,51.270,0.000
1606143092.138,-16.602,-32.227,-21.973,76.660,0.000
1606143092.142,-39.551,-37.109,-19.043,-26.367,0.000
1606143092.146,-62.988,-37.598,-25.391,-118.652,0.000
1606143092.150,-52.246,-38.574,-25.879,-80.078,0.000
1606143092.154,-9.277,-37.109,-24.902,60.547,0.000
1606143092.158,0.977,-35.156,-26.367,107.910,0.000
1606143092.162,-28.809,-35.645,-27.344,0.000,0.000
1606143092.166,-49.805,-33.691,-27.344,-119.141,0.000
1606143092.169,-38.574,-32.227,-24.902,-106.934,0.000
1606143092.173,-8.301,-26.855,-23.926,38.086,0.000
1606143092.177,8.789,-30.762,-25.879,109.375,0.000
1606143092.181,-25.391,-18.066,-24.902,16.113,0.000
1606143092.185,-61.523,-2.930,-25.879,-124.023,0.000
1606143092.189,-55.664,-27.344,-23.438,-136.719,0.000
1606143092.193,-20.020,-32.715,-14.648,10.742,0.000
1606143092.197,8.789,-27.344,-10.254,99.609,0.000
1606143092.201,-15.625,-33.203,-7.812,26.855,0.000
1606143092.205,-63.477,-38.086,-12.207,-106.934,0.000
1606143092.208,-61.035,-38.086,-18.555,-128.906,0.000
1606143092.212,-20.508,-34.180,-16.113,6.836,0.000
1606143092.216,4.883,-30.273,-12.695,96.680,0.000
1606143092.220,-13.672,-31.250,-12.207,35.156,0.000
1606143092.224,-53.223,-37.109,-15.625,-99.121,0.000
1606143092.228,-62.500,-42.969,-16.113,-148.926,0.000
1606143092.232,-23.926,-12.695,-16.113,-42.969,0.000
1606143092.236,4.883,-12.695,-16.113,71.289,0.000
1606143092.240,-17.578,-41.016,-17.578,47.363,0.000
1606143092.244,-54.199,-42.969,-26.367,-89.355,0.000
1606143092.248,-53.711,-41.016,-34.180,-145.020,0.000
1606143092.251,-21.973,-40.039,-32.715,-42.480,0.000
1606143092.255,-4.395,-39.551,-27.832,91.797,0.000
1606143092.259,-9.766,-41.016,-26.367,79.590,0.000
1606143092.263,-43.457,-44.434,-26.855,-72.266,0.000
1606143092.267,-61.035,-40.039,-25.391,-137.695,0.000
1606143092.271,-34.668,-38.086,-22.461,-47.363,0.000
1606143092.275,-1.465,-37.598,-17.090,84.961,0.000
1606143092.279,-13.184,-37.598,-18.066,82.520,0.000
1606143092.283,-52.734,-26.855,-25.879,-68.848,0.000
1606143092.287,-71.777,-21.484,-28.809,-140.137,0.000
1606143092.291,-55.176,-40.039,-35.645,-81.543,0.000
1606143092.294,-20.020,-39.062,-36.621,43.945,0.000
1606143092.298,-16.602,-34.180,-35.156,78.613,0.000
1606143092.302,-42.480,-31.250,-32.715,-38.574,0.000
1606143092.306,-60.059,-33.203,-31.738,-139.160,0.000
1606143092.310,-41.992,-36.133,-33.203,-98.145,0.000
1606143092.314,-12.695,-31.250,-33.203,45.898,0.000
1606143092.318,-9.766,-30.273,-33.203,84.473,0.000
1606143092.322,-31.250,-28.320,-34.668,-30.762,0.000
1606143092.326,-48.828,-34.668,-34.668,-121.582,0.000
1606143092.330,-31.738,-9.766,-28.320,-83.496,0.000
1606143092.333,4.395,20.996,-23.438,48.828,0.000
1606143092.337,16.113,-8.789,-23.438,83.984,0.000
1606143092.341,-9.277,-22.949,-25.391,-15.137,0.000
1606143092.345,-32.715,-27.832,-27.832,-118.164,0.000
1606143092.349,-23.438,-31.250,-30.762,-108.887,0.000
1606143092.353,9.766,-26.367,-29.297,16.602,0.000
1606143092.357,23.438,-25.391,-23.926,71.777,0.000
1606143092.361,0.000,-29.297,-22.461,0.000,0.000
1606143092.365,-30.273,-33.691,-23.926,-101.074,0.000
1606143092.369,-32.227,-37.598,-21.484,-103.516,0.000
1606143092.373,-4.395,-33.691,-17.578,11.719,0.000
1606143092.376,13.672,-38.086,-18.066,79.590,0.000
1606143092.380,-8.301,12.695,-21.484,18.555,0.000
1606143092.384,-39.551,67.871,-23.438,-104.980,0.000
1606143092.388,-49.316,1.953,-24.902,-138.184,0.000
1606143092.392,-22.949,-33.691,-23.438,-38.574,0.000
1606143092.396,5.859,-23.438,-23.926,56.152,0.000
1606143092.400,-10.742,-25.391,-27.344,22.461,0.000
1606143092.404,-42.480,-27.344,-32.227,-98.145,0.000
1606143092.408,-40.039,-26.855,-33.203,-123.047,0.000
1606143092.412,-16.602,-20.996,-32.715,-17.090,0.000
1606143092.416,-2.930,-30.762,-32.227,72.754,0.000
1606143092.419,-10.254,-17.090,-29.297,45.898,0.000
1606143092.423,-48.828,-3.418,-32.715,-83.496,0.000
1606143092.427,-66.406,-31.738,-28.809,-126.953,0.000
1606143092.431,-46.387,-39.062,-21.484,-36.133,0.000
1606143092.435,-20.020,-43.945,-19.043,61.035,0.000
1606143092.439,-28.320,-42.969,-17.578,37.598,0.000
1606143092.443,-66.895,-36.621,-21.973,-99.609,0.000
1606143092.447,-80.566,-41.992,-25.879,-162.109,0.000
1606143092.451,-63.477,-45.410,-30.762,-89.844,0.000
1606143092.455,-36.133,-43.457,-31.250,33.691,0.000
1606143092.458,-29.785,-38.086,-25.391,57.129,0.000
1606143092.462,-59.570,-23.438,-29.297,-64.453,0.000
1606143092.466,-86.426,-26.367,-34.180,-156.250,0.000
1606143092.470,-72.266,-40.527,-34.180,-102.539,0.000
1606143092.474,-25.391,-36.133,-33.691,37.598,0.000
1606143092.478,-6.836,-31.250,-25.391,83.496,0.000
1606143092.482,-36.133,-31.250,-24.902,-37.109,0.000
1606143092.486,-61.523,-36.133,-30.762,-147.461,0.000
1606143092.490,-46.875,-37.109,-28.809,-96.680,0.000
1606143092.494,-11.719,-35.645,-26.855,56.641,0.000
1606143092.498,-4.395,-37.598,-28.809,104.004,0.000
1606143092.501,-31.738,-34.180,-34.180,8.301,0.000
1606143092.505,-51.270,-34.180,-30.273,-101.562,0.000
1606143092.509,-45.410,-35.156,-27.344,-93.750,0.000
1606143092.513,-16.602,-33.691,-29.785,30.762,0.000
1606143092.517,7.812,-36.621,-31.738,78.613,0.000
1606143092.521,-19.531,-16.602,-30.273,0.977,0.000
1606143092.525,-56.152,-13.184,-27.832,-118.652,0.000
1606143092.529,-35.645,-29.297,-28.320,-119.629,0.000
1606143092.533,-8.789,-28.809,-27.344,21.484,0.000
1606143092.537,0.977,-24.414,-23.926,102.539,0.000
1606143092.541,6.836,-17.578,-24.902,32.227,0.000
1606143092.544,-18.555,-21.973,-36.621,-93.750,0.000
1606143092.548,-45.410,-26.855,-32.715,-125.488,0.000
1606143092.552,-27.832,-18.066,-7.812,-10.742,0.000
1606143092.556,-23.438,-16.113,1.465,66.895,0.000
1606143092.560,-77.148,0.000,-17.090,-27.832,0.000
1606143092.564,-136.230,31.738,-15.625,-183.594,0.000
1606143092.568,-153.809,0.488,-4.395,-239.746,0.000
1606143092.572,-148.926,-17.090,-12.207,-163.574,0.000
1606143092.576,-141.602,-12.207,-11.230,-70.801,0.000
1606143092.580,-175.293,-17.090,1.465,-122.559,0.000
1606143092.583,-239.258,-22.949,5.371,-297.852,0.000
1606143092.587,-257.812,-22.461,2.930,-365.723,0.000
1606143092.591,-244.629,-14.160,4.883,-279.297,0.000
1606143092.595,-239.746,-24.902,5.371,-173.340,0.000
1606143092.599,-257.812,-17.090,5.371,-187.012,0.000
1606143092.603,-306.152,4.395,11.230,-331.543,0.000
1606143092.607,-343.750,-23.438,7.812,-419.434,0.000
1606143092.611,-329.590,-42.480,4.395,-346.191,0.000
1606143092.615,-282.715,-32.715,13.672,-191.406,0.000
1606143092.619,-276.855,-23.926,9.277,-171.875,0.000
1606143092.623,-332.520,-31.738,10.254,-333.984,0.000
1606143092.626,-360.840,-46.387,20.996,-429.688,0.000
1606143092.630,-326.172,-41.504,18.555,-353.027,0.000
1606143092.634,-284.180,-39.551,13.672,-206.543,0.000
1606143092.638,-271.973,-40.039,6.836,-166.992,0.000
1606143092.642,-291.504,-38.086,-2.441,-275.391,0.000
1606143092.646,-291.016,-45.898,-13.672,-362.793,0.000
1606143092.650,-260.742,-49.805,-40.527,-312.012,0.000
1606143092.654,-219.238,-55.664,-35.156,-148.438,0.000
1606143092.658,-192.871,-61.035,9.766,-73.730,0.000
1606143092.662,-209.473,-63.477,17.578,-177.246,0.000
1606143092.666,-226.074,-61.523,7.324,-273.926,0.000
1606143092.669,-194.824,-64.941,-0.488,-226.074,0.000
1606143092.673,-129.883,-67.871,-8.301,-54.199,0.000
1606143092.677,-89.355,-63.477,-8.301,42.969,0.000
1606143092.681,-103.027,-58.594,-13.184,-47.852,0.000
1606143092.685,-128.906,-65.430,-17.578,-180.664,0.000
1606143092.689,-109.863,-73.242,-23.438,-164.551,0.000
1606143092.693,-46.875,-62.500,-28.320,16.113,0.000
1606143092.697,-0.977,-66.895,-25.879,130.859,0.000
1606143092.701,-16.602,-28.809,-28.320,54.688,0.000
1606143092.705,-45.410,-10.254,-29.297,-99.121,0.000
1606143092.708,-28.809,-61.035,-27.344,-117.188,0.000
1606143092.712,20.020,-64.941,-26.855,43.457,0.000
1606143092.716,54.688,-64.453,-30.273,167.480,0.000
1606143092.720,40.039,-59.082,-37.598,106.934,0.000
1606143092.724,3.418,-53.223,-39.062,-61.523,0.000
1606143092.728,-8.789,-53.711,-31.738,-110.352,0.000
1606143092.732,30.273,-46.387,-30.273,27.832,0.000
1606143092.736,83.984,-45.898,-32.227,174.805,0.000
1606143092.740,70.312,-29.297,-33.203,138.672,0.000
1606143092.744,15.625,10.742,-45.410,-47.852,0.000
1606143092.748,0.000,-19.531,-51.758,-120.605,0.000
1606143092.751,46.387,-52.246,-41.016,8.301,0.000
1606143092.755,103.516,-44.434,-35.645,163.086,0.000
1606143092.759,73.730,-43.457,-36.621,146.484,0.000
1606143092.763,7.324,-47.363,-31.250,-32.227,0.000
1606143092.767,-18.066,-54.199,-31.250,-132.324,0.000
1606143092.771,8.789,-54.199,-36.621,-24.902,0.000
1606143092.775,58.105,-52.246,-34.668,146.484,0.000
1606143092.779,64.453,-46.387,-32.227,161.133,0.000
1606143092.783,12.207,-44.434,-39.062,-4.395,0.000
1606143092.787,-7.812,-50.293,-46.875,-118.652,0.000
1606143092.791,14.648,-49.316,-47.852,-46.387,0.000
1606143092.794,48.828,-48.828,-44.922,127.930,0.000
1606143092.798,51.758,-45.410,-46.387,160.156,0.000
1606143092.802,2.930,-18.555,-48.340,-1.953,0.000
1606143092.806,-34.180,-35.645,-48.340,-137.695,0.000
1606143092.810,-20.020,-59.570,-46.387,-89.844,0.000
1606143092.814,36.133,-50.781,-38.574,103.516,0.000
1606143092.818,54.199,-47.852,-35.156,174.805,0.000
1606143092.822,4.883,-47.852,-35.645,22.461,0.000
1606143092.826,-33.203,-44.434,-36.621,-132.324,0.000
1606143092.830,-18.555,-42.969,-37.109,-102.539,0.000
1606143092.833,34.668,-38.574,-31.250,101.562,0.000
1606143092.837,62.012,-35.156,-28.320,188.965,0.000
1606143092.841,17.578,-34.668,-29.297,36.621,0.000
1606143092.845,-30.273,-31.738,-27.344,-133.789,0.000
1606143092.849,-19.531,-38.086,-27.344,-128.906,0.000
1606143092.853,32.227,-38.574,-31.250,48.828,0.000
1606143092.857,64.941,-31.738,-32.227,161.621,0.000
1606143092.861,41.992,-25.879,-29.297,66.895,0.000
1606143092.865,-19.531,-34.668,-32.715,-118.652,0.000
1606143092.869,-32.715,-39.551,-32.227,-149.414,0.000
1606143092.873,31.250,-33.691,-24.902,39.062,0.000
1606143092.876,81.055,-34.668,-21.973,180.664,0.000
1606143092.880,51.758,-22.461,-27.344,111.328,0.000
1606143092.884,-16.113,-19.043,-36.133,-97.656,0.000
1606143092.888,-30.273,-32.227,-32.227,-165.527,0.000
1606143092.892,18.066,-33.691,-31.250,11.719,0.000
1606143092.896,70.312,-32.227,-32.715,173.340,0.000
1606143092.900,66.895,-25.879,-17.090,139.648,0.000
1606143092.904,-10.254,-24.414,-23.926,-60.547,0.000
1606143092.908,-54.688,-33.691,-46.875,-180.664,0.000
1606143092.912,-20.996,-29.297,-47.363,-62.012,0.000
1606143092.916,27.344,-26.855,-42.480,121.094,0.000
1606143092.919,18.555,-31.738,-36.621,112.793,0.000
1606143092.923,-46.387,-37.598,-37.598,-92.285,0.000
1606143092.927,-83.008,-45.410,-38.574,-190.430,0.000
1606143092.931,-48.828,-46.387,-44.922,-77.637,0.000
1606143092.935,16.602,-42.969,-44.434,89.355,0.000
1606143092.939,22.949,-33.203,-41.992,99.121,0.000
1606143092.943,-50.781,-17.578,-46.875,-94.727,0.000
1606143092.947,-82.520,-28.320,-41.016,-214.844,0.000
1606143092.951,-49.316,-43.945,-36.133,-104.980,0.000
1606143092.955,9.766,-39.062,-34.180,93.750,0.000
1606143092.958,16.113,-35.156,-35.156,129.883,0.000
1606143092.962,-26.855,-35.645,-40.527,-47.852,0.000
1606143092.966,-61.523,-36.133,-38.574,-184.082,0.000
1606143092.970,-48.828,-34.180,-34.668,-112.793,0.000
1606143092.974,16.602,-35.645,-32.715,91.309,0.000
1606143092.978,32.715,-32.227,-33.691,154.297,0.000
1606143092.982,-23.438,-12.207,-39.551,-20.508,0.000
1606143092.986,-77.148,-25.391,-43.457,-187.500,0.000
1606143092.990,-59.570,-40.039,-39.551,-145.508,0.000
1606143092.994,4.395,-34.668,-36.133,61.035,0.000
1606143092.998,26.367,-36.133,-34.668,147.461,0.000
1606143093.001,-21.973,-35.156,-34.180,-2.930,0.000
1606143093.005,-69.336,-37.598,-35.156,-178.711,0.000
1606143093.009,-57.129,-36.133,-33.691,-155.762,0.000
1606143093.013,6.348,-25.879,-34.180,51.758,0.000
1606143093.017,43.457,-33.203,-32.715,169.434,0.000
1606143093.021,-6.348,18.066,-34.668,70.801,0.000
1606143093.025,-60.059,56.152,-39.062,-125.000,0.000
1606143093.029,-51.270,-15.137,-37.109,-161.133,0.000
1606143093.033,-5.859,-33.203,-32.227,40.527,0.000
1606143093.037,35.645,-23.438,-24.414,192.383,0.000
1606143093.041,13.184,-24.414,-28.320,102.539,0.000
1606143093.044,-49.805,-27.832,-34.668,-106.934,0.000
1606143093.048,-58.594,-33.203,-29.297,-143.066,0.000
1606143093.052,1.953,-25.879,-16.113,55.176,0.000
1606143093.056,51.758,-24.414,-18.066,207.031,0.000
1606143093.060,28.320,-25.879,-29.785,127.441,0.000
1606143093.064,-39.062,-29.297,-32.715,-72.754,0.000
1606143093.068,-59.082,-37.109,-26.367,-140.625,0.000
1606143093.072,-13.672,-33.203,-23.438,20.508,0.000
1606143093.076,43.945,-40.039,-20.996,209.473,0.000
1606143093.080,40.039,-2.441,-21.973,180.176,0.000
1606143093.083,-22.949,35.156,-24.414,-29.297,0.000
1606143093.087,-47.852,-23.438,-19.531,-109.375,0.000
1606143093.091,-9.277,-43.945,-17.090,36.133,0.000
1606143093.095,43.945,-39.062,-14.648,226.562,0.000
1606143093.099,50.293,-35.156,-16.113,243.164,0.000
1606143093.103,-18.555,-39.062,-23.926,32.715,0.000
1606143093.107,-59.082,-48.340,-24.414,-83.008,0.000
1606143093.111,-13.184,-37.109,-18.066,45.898,0.000
1606143093.115,55.176,-31.250,-16.602,247.559,0.000
1606143093.119,59.570,-38.086,-16.113,271.484,0.000
1606143093.123,-6.348,25.879,-28.320,45.410,0.000
1606143093.126,-57.617,31.738,-34.180,-126.465,0.000
1606143093.130,-37.109,-37.109,-28.809,-46.387,0.000
1606143093.134,22.949,-36.621,-29.297,158.691,0.000
1606143093.138,28.809,-33.691,-28.320,208.008,0.000
1606143093.142,-28.809,-36.133,-29.785,16.113,0.000
1606143093.146,-76.660,-36.133,-29.297,-151.855,0.000
1606143093.150,-57.129,-32.227,-26.855,-85.449,0.000
1606143093.154,14.160,-25.879,-24.414,124.023,0.000
1606143093.158,38.574,-25.391,-23.438,202.637,0.000
1606143093.162,-2.930,23.926,-32.715,35.645,0.000
1606143093.166,-57.129,19.531,-33.691,-161.621,0.000
1606143093.169,-68.848,-37.109,-31.738,-140.137,0.000
1606143093.173,6.348,-34.180,-23.926,76.172,0.000
1606143093.177,50.293,-25.391,-14.160,187.988,0.000
1606143093.181,0.000,-21.973,-21.484,39.062,0.000
1606143093.185,-57.617,-30.762,-27.344,-169.434,0.000
1606143093.189,-50.781,-35.645,-26.367,-169.434,0.000
1606143093.193,17.578,-26.367,-25.879,68.359,0.000
1606143093.197,59.082,-21.484,-25.391,207.031,0.000
1606143093.201,28.809,-20.508,-26.855,86.914,0.000
1606143093.205,-35.156,-20.508,-30.273,-116.211,0.000
1606143093.208,-42.480,-24.414,-36.133,-148.926,0.000
1606143093.212,26.367,-16.602,-38.574,45.410,0.000
1606143093.216,74.219,-22.461,-33.691,200.195,0.000
1606143093.220,47.363,2.441,-29.297,126.465,0.000
1606143093.224,-19.043,45.898,-34.180,-80.566,0.000
1606143093.228,-37.109,0.488,-36.621,-149.902,0.000
1606143093.232,12.695,-28.809,-33.691,14.160,0.000
1606143093.236,57.129,-22.461,-33.203,173.828,0.000
1606143093.240,36.133,-20.020,-30.273,105.469,0.000
1606143093.244,-32.227,-25.391,-27.344,-111.816,0.000
1606143093.248,-63.477,-38.574,-29.785,-209.961,0.000
1606143093.251,-29.297,-33.691,-31.250,-76.172,0.000
1606143093.255,11.719,-45.898,-28.320,87.402,0.000
1606143093.259,-5.371,-16.602,-26.367,41.992,0.000
1606143093.263,-57.129,5.859,-32.715,-183.594,0.000
1606143093.267,-104.492,-48.828,-32.715,-308.594,0.000
1606143093.271,-84.961,-50.781,-32.227,-178.711,0.000
1606143093.275,-21.973,-50.781,-35.645,28.809,0.000
1606143093.279,-15.625,-37.109,-29.785,44.434,0.000
1606143093.283,-74.219,-9.766,-33.203,-156.250,0.000
1606143093.287,-107.910,-44.434,-28.320,-273.438,0.000
1606143093.291,-78.125,-55.664,-18.066,-170.898,0.000
1606143093.294,-20.508,-50.781,-23.926,28.809,0.000
1606143093.298,-2.441,-60.059,-27.344,87.402,0.000
1606143093.302,-48.828,29.297,-25.391,-85.449,0.000
1606143093.306,-92.773,35.156,-28.809,-245.117,0.000
1606143093.310,-75.195,-56.152,-29.785,-179.199,0.000
1606143093.314,-2.930,-48.828,-29.297,41.992,0.000
1606143093.318,16.113,-43.945,-28.320,115.234,0.000
1606143093.322,-45.410,-44.434,-33.691,-58.105,0.000
1606143093.326,-95.703,-52.734,-41.504,-246.094,0.000
1606143093.330,-76.172,-55.664,-40.527,-208.984,0.000
1606143093.333,-10.254,-46.875,-30.273,27.832,0.000
1606143093.337,13.184,-46.387,-30.273,114.746,0.000
1606143093.341,-36.621,-51.758,-37.109,-49.316,0.000
1606143093.345,-94.727,-49.316,-34.668,-222.168,0.000
1606143093.349,-97.168,-48.340,-36.133,-210.938,0.000
1606143093.353,-28.809,-45.410,-35.156,-26.855,0.000
1606143093.357,14.160,-39.551,-29.785,94.727,0.000
1606143093.361,-34.180,-25.879,-33.691,-32.715,0.000
1606143093.365,-81.543,-21.484,-39.062,-243.164,0.000
1606143093.369,-84.961,-38.086,-35.156,-258.789,0.000
1606143093.373,-34.668,-35.156,-30.273,-69.824,0.000
1606143093.376,5.859,-32.227,-29.297,70.312,0.000
1606143093.380,-20.508,-31.738,-25.391,-13.184,0.000
1606143093.384,-82.031,-35.645,-22.461,-219.727,0.000
1606143093.388,-95.703,-37.598,-20.508,-266.113,0.000
1606143093.392,-41.016,-29.297,-15.137,-70.801,0.000
1606143093.396,5.859,-35.645,-15.137,93.262,0.000
1606143093.400,-12.207,-16.602,-16.113,27.344,0.000
1606143093.404,-92.285,15.137,-21.973,-204.102,0.000
1606143093.408,-128.906,-23.438,-29.297,-294.922,0.000
1606143093.412,-75.195,-45.410,-28.809,-124.023,0.000
1606143093.416,-18.555,-37.598,-25.391,43.457,0.000
1606143093.419,-31.738,-41.992,-28.809,8.789,0.000
1606143093.423,-90.820,-46.387,-32.227,-196.289,0.000
1606143093.427,-117.676,-50.781,-29.785,-301.758,0.000
1606143093.431,-80.078,-44.434,-27.344,-160.645,0.000
1606143093.435,-13.184,-49.316,-21.973,43.457,0.000
1606143093.439,-10.742,-22.949,-21.484,52.246,0.000
1606143093.443,-69.824,13.672,-26.855,-155.762,0.000
1606143093.447,-100.586,-29.297,-33.691,-298.828,0.000
1606143093.451,-64.453,-44.922,-28.320,-188.965,0.000
1606143093.455,-8.301,-36.133,-26.855,10.742,0.000
1606143093.458,10.742,-33.203,-35.156,46.387,0.000
1606143093.462,-58.105,-27.832,-37.598,-141.602,0.000
1606143093.466,-117.188,-40.527,-37.109,-289.551,0.000
1606143093.470,-79.102,-44.922,-33.203,-203.125,0.000
1606143093.474,-12.207,-39.551,-30.762,17.090,0.000
1606143093.478,-3.418,-36.133,-28.809,73.242,0.000
1606143093.482,-50.781,-35.645,-29.785,-108.887,0.000
1606143093.486,-90.332,-38.086,-34.180,-268.555,0.000
1606143093.490,-79.590,-37.109,-32.715,-206.543,0.000
1606143093.494,-19.043,-31.738,-36.621,1.465,0.000
1606143093.498,13.184,-42.969,-33.203,79.590,0.000
1606143093.501,-25.391,28.320,-26.367,-62.500,0.000
1606143093.505,-79.590,70.312,-29.785,-234.863,0.000
1606143093.509,-67.871,-12.207,-34.180,-209.961,0.000
1606143093.513,-7.324,-28.320,-33.691,-4.883,0.000
1606143093.517,23.438,-22.461,-30.762,104.980,0.000
1606143093.521,-9.766,-23.926,-33.203,-6.348,0.000
1606143093.525,-64.941,-25.879,-31.250,-194.824,0.000
1606143093.529,-69.336,-34.668,-28.320,-204.102,0.000
1606143093.533,-8.789,-25.879,-24.902,12.207,0.000
1606143093.537,32.227,-32.715,-23.926,142.090,0.000
1606143093.541,-6.348,1.465,-28.320,25.391,0.000
1606143093.544,-57.129,27.344,-27.832,-187.012,0.000
1606143093.548,-73.242,-31.738,-24.902,-241.211,0.000
1606143093.552,-27.832,-40.039,-24.902,-49.316,0.000
1606143093.556,14.160,-34.668,-25.391,114.258,0.000
1606143093.560,-12.695,-32.715,-30.273,37.598,0.000
1606143093.564,-70.801,-35.645,-28.809,-181.641,0.000
1606143093.568,-83.984,-44.434,-22.949,-242.188,0.000
1606143093.572,-28.320,-35.645,-24.414,-71.777,0.000
1606143093.576,17.090,-46.387,-23.926,83.984,0.000
1606143093.580,-3.906,-19.043,-21.973,42.480,0.000
1606143093.583,-75.195,21.973,-25.391,-160.156,0.000
1606143093.587,-98.633,-29.297,-19.531,-260.254,0.000
1606143093.591,-56.152,-48.828,-16.113,-115.234,0.000
1606143093.595,-8.301,-54.688,-16.113,71.289,0.000
1606143093.599,-4.395,-31.738,-15.137,59.570,0.000
1606143093.603,-71.777,1.953,-22.949,-150.879,0.000
1606143093.607,-112.305,-40.527,-25.879,-278.320,0.000
1606143093.611,-68.848,-54.688,-28.320,-153.809,0.000
1606143093.615,-2.441,-41.016,-30.273,67.383,0.000
1606143093.619,-3.906,-37.598,-28.809,104.004,0.000
1606143093.623,-60.547,-37.109,-35.156,-112.793,0.000
1606143093.626,-97.168,-41.016,-41.016,-263.672,0.000
1606143093.630,-70.801,-34.668,-37.109,-153.320,0.000
1606143093.634,-11.719,-38.574,-36.133,55.664,0.000
1606143093.638,5.371,-42.969,-31.250,108.398,0.000
1606143093.642,-47.852,5.371,-31.250,-79.590,0.000
1606143093.646,-88.867,-8.789,-39.551,-244.629,0.000
1606143093.650,-60.547,-50.293,-33.691,-167.969,0.000
1606143093.654,6.348,-41.016,-24.414,65.430,0.000
1606143093.658,26.367,-40.527,-27.344,145.996,0.000
1606143093.662,-23.438,-30.762,-30.273,-15.625,0.000
1606143093.666,-73.242,-29.785,-32.227,-192.383,0.000
1606143093.669,-56.641,-33.691,-29.297,-166.016,0.000
1606143093.673,8.301,-25.879,-25.879,58.594,0.000
1606143093.677,46.875,-39.551,-26.855,167.969,0.000
1606143093.681,-2.441,3.906,-27.344,15.625,0.000
1606143093.685,-68.848,44.922,-31.738,-181.641,0.000
1606143093.689,-60.547,-22.949,-33.203,-182.617,0.000
1606143093.693,-1.465,-44.922,-29.297,40.039,0.000
1606143093.697,37.598,-37.109,-22.949,174.805,0.000
1606143093.701,-0.977,-45.410,-22.461,39.551,0.000
1606143093.705,-64.941,-43.457,-27.832,-177.734,0.000
1606143093.708,-67.871,-38.574,-26.367,-205.078,0.000
1606143093.712,-12.207,-34.180,-20.996,-2.441,0.000
1606143093.716,32.715,-31.250,-20.996,147.461,0.000
1606143093.720,5.371,-7.324,-20.996,65.918,0.000
1606143093.724,-67.383,-11.719,-20.508,-146.484,0.000
1606143093.728,-87.891,-45.898,-22.461,-222.656,0.000
1606143093.732,-36.133,-44.434,-22.461,-32.715,0.000
1606143093.736,15.137,-48.828,-15.625,151.367,0.000
1606143093.740,8.789,-27.832,-8.789,94.238,0.000
1606143093.744,-58.594,-20.996,-16.602,-138.672,0.000
1606143093.748,-93.262,-44.922,-23.438,-238.770,0.000
1606143093.751,-45.410,-40.039,-21.484,-74.707,0.000
1606143093.755,12.207,-33.691,-20.508,122.070,0.000
1606143093.759,3.418,-30.762,-24.902,91.309,0.000
1606143093.763,-65.918,-37.598,-25.879,-142.578,0.000
1606143093.767,-100.586,-45.898,-29.297,-256.836,0.000
1606143093.771,-53.711,-42.969,-26.855,-101.562,0.000
1606143093.775,7.324,-46.387,-22.461,103.027,0.000
1606143093.779,7.324,-37.109,-23.926,101.562,0.000
1606143093.783,-52.734,19.531,-30.273,-106.934,0.000
1606143093.787,-88.379,11.719,-31.250,-235.352,0.000
1606143093.791,-55.176,-40.527,-30.273,-120.117,0.000
1606143093.794,10.254,-45.410,-25.391,104.980,0.000
1606143093.798,20.020,-41.504,-20.508,161.621,0.000
1606143093.802,-38.086,-36.621,-22.461,-32.715,0.000
1606143093.806,-83.008,-46.875,-23.438,-207.031,0.000
1606143093.810,-70.312,-50.781,-29.785,-132.324,0.000
1606143093.814,-12.207,-46.875,-26.855,91.309,0.000
1606143093.818,8.789,-46.875,-18.555,159.180,0.000
1606143093.822,-44.434,-6.836,-21.484,-26.367,0.000
1606143093.826,-90.820,-12.207,-27.344,-205.078,0.000
1606143093.830,-72.266,-52.246,-21.973,-153.320,0.000
1606143093.833,-7.812,-38.086,-18.555,71.777,0.000
1606143093.837,19.043,-31.738,-15.137,166.992,0.000
1606143093.841,-34.180,-35.156,-13.184,7.812,0.000
1606143093.845,-91.797,-38.574,-21.973,-186.035,0.000
1606143093.849,-85.449,-43.457,-21.484,-173.340,0.000
1606143093.853,-18.555,-38.574,-18.555,40.527,0.000
1606143093.857,28.809,-26.855,-17.578,156.250,0.000
1606143093.861,-12.207,-23.926,-19.531,16.602,0.000
1606143093.865,-75.195,-28.809,-23.438,-184.082,0.000
1606143093.869,-74.707,-31.250,-26.855,-200.195,0.000
1606143093.873,-17.578,-28.320,-23.926,-2.441,0.000
1606143093.876,21.973,-38.086,-24.902,128.418,0.000
1606143093.880,-12.695,-6.836,-32.227,28.809,0.000
1606143093.884,-81.543,22.461,-34.668,-180.664,0.000
1606143093.888,-88.379,-27.344,-30.762,-222.168,0.000
1606143093.892,-25.879,-41.992,-24.414,-29.297,0.000
1606143093.896,25.879,-32.715,-20.020,140.137,0.000
1606143093.900,0.977,-30.762,-21.973,74.219,0.000
1606143093.904,-71.289,-40.039,-28.320,-159.668,0.000
1606143093.908,-91.309,-53.223,-31.250,-228.516,0.000
1606143093.912,-30.762,-40.039,-20.508,-31.250,0.000
1606143093.916,23.438,-47.852,-12.695,146.973,0.000
1606143093.919,15.137,-21.484,-17.090,105.957,0.000
1606143093.923,-45.410,26.855,-17.578,-112.793,0.000
1606143093.927,-81.055,-30.273,-20.508,-214.844,0.000
1606143093.931,-40.039,-54.199,-24.902,-58.105,0.000
1606143093.935,13.672,-48.340,-25.879,131.348,0.000
1606143093.939,12.207,-41.992,-20.020,128.906,0.000
1606143093.943,-53.223,-32.715,-19.531,-86.914,0.000
1606143093.947,-83.496,-39.062,-23.438,-217.285,0.000
1606143093.951,-39.062,-34.180,-25.879,-79.590,0.000
1606143093.955,34.180,-25.879,-21.973,140.137,0.000
1606143093.958,43.945,-31.250,-19.043,168.457,0.000
1606143093.962,-37.598,53.223,-28.809,-48.340,0.000
1606143093.966,-83.496,62.012,-30.762,-205.566,0.000
1606143093.970,-51.270,-33.691,-25.391,-115.723,0.000
1606143093.974,18.066,-42.480,-18.066,111.816,0.000
1606143093.978,36.133,-39.551,-18.066,176.270,0.000
1606143093.982,-19.531,-32.227,-20.020,-19.531,0.000
1606143093.986,-72.754,-39.551,-18.555,-184.082,0.000
1606143093.990,-53.223,-40.039,-23.438,-111.328,0.000
1606143093.994,15.137,-32.715,-20.508,105.957,0.000
1606143093.998,29.785,-36.621,-16.113,191.406,0.000
1606143094.001,-25.391,-21.973,-23.926,19.043,0.000
1606143094.005,-76.660,-24.902,-28.809,-177.246,0.000
1606143094.009,-60.059,-41.992,-18.066,-144.531,0.000
1606143094.013,9.277,-38.086,-17.090,79.102,0.000
1606143094.017,35.645,-45.410,-21.484,180.664,0.000
1606143094.021,-2.441,11.719,-21.484,34.180,0.000
1606143094.025,-54.199,17.090,-26.855,-174.316,0.000
1606143094.029,-70.312,-46.387,-25.879,-185.059,0.000
1606143094.033,-5.371,-40.527,-25.391,36.621,0.000
1606143094.037,38.574,-33.691,-24.902,180.176,0.000
1606143094.041,-5.371,-31.738,-19.531,55.664,0.000
1606143094.044,-81.543,-39.551,-21.484,-175.293,0.000
1606143094.048,-93.750,-44.922,-30.762,-205.566,0.000
1606143094.052,-22.461,-36.133,-23.926,18.066,0.000
1606143094.056,26.855,-51.270,-15.625,173.828,0.000
1606143094.060,-7.324,-11.719,-21.484,64.453,0.000
1606143094.064,-77.637,78.613,-28.809,-166.016,0.000
1606143094.068,-95.703,8.789,-31.250,-230.469,0.000
1606143094.072,-36.133,-60.059,-25.879,-33.691,0.000
1606143094.076,15.625,-47.852,-16.113,151.367,0.000
1606143094.080,-1.465,-45.410,-17.578,89.844,0.000
1606143094.083,-62.988,-45.898,-24.414,-133.789,0.000
1606143094.087,-83.496,-43.945,-22.461,-214.844,0.000
1606143094.091,-35.156,-36.133,-19.531,-40.527,0.000
1606143094.095,22.949,-44.922,-18.555,149.902,0.000
1606143094.099,22.949,-24.902,-15.625,135.254,0.000
1606143094.103,-43.457,19.531,-24.902,-90.332,0.000
1606143094.107,-79.102,-20.020,-30.273,-214.355,0.000
1606143094.111,-31.738,-49.805,-27.344,-70.312,0.000
1606143094.115,32.227,-46.387,-25.879,151.855,0.000
1606143094.119,27.344,-42.969,-24.414,161.621,0.000
1606143094.123,-40.039,-35.645,-20.508,-73.730,0.000
1606143094.126,-74.219,-37.598,-16.602,-215.332,0.000
1606143094.130,-34.180,-33.203,-25.391,-91.797,0.000
1606143094.134,31.738,-32.227,-33.691,132.812,0.000
1606143094.138,36.133,-28.809,-32.227,168.945,0.000
1606143094.142,-20.508,-16.113,-31.738,-31.738,0.000
1606143094.146,-62.500,-31.738,-30.762,-181.641,0.000
1606143094.150,-42.480,-42.969,-29.785,-104.492,0.000
1606143094.154,27.344,-32.715,-25.879,121.582,0.000
1606143094.158,45.898,-49.805,-24.902,194.824,0.000
1606143094.162,-15.625,33.203,-27.832,4.395,0.000
1606143094.166,-72.266,69.824,-27.344,-178.223,0.000
1606143094.169,-55.176,-31.738,-27.344,-131.348,0.000
1606143094.173,18.555,-43.945,-29.297,99.121,0.000
1606143094.177,51.758,-36.621,-16.113,207.520,0.000
1606143094.181,-0.488,-34.668,-8.789,47.852,0.000
1606143094.185,-64.941,-38.574,-22.461,-165.039,0.000
1606143094.189,-58.594,-39.551,-25.879,-154.785,0.000
1606143094.193,13.672,-28.809,-22.461,91.309,0.000
1606143094.197,49.805,-40.039,-20.020,211.426,0.000
1606143094.201,0.977,7.324,-25.391,52.246,0.000
1606143094.205,-61.035,31.250,-34.180,-169.434,0.000
1606143094.208,-56.152,-34.668,-34.180,-184.570,0.000
1606143094.212,14.160,-41.016,-28.320,44.434,0.000
1606143094.216,54.199,-40.039,-26.855,199.707,0.000
1606143094.220,12.207,-44.922,-27.832,85.449,0.000
1606143094.224,-58.594,-43.457,-32.227,-144.043,0.000
1606143094.228,-78.613,-47.363,-37.109,-197.266,0.000
1606143094.232,-11.719,-42.480,-35.156,10.254,0.000
1606143094.236,38.574,-54.199,-38.574,187.012,0.000
1606143094.240,5.371,-20.020,-44.434,107.910,0.000
1606143094.244,-63.965,80.566,-44.434,-135.742,0.000
1606143094.248,-83.496,23.926,-37.109,-235.352,0.000
1606143094.251,-29.297,-49.805,-33.203,-48.340,0.000
1606143094.255,21.973,-38.086,-32.227,166.504,0.000
1606143094.259,3.906,-40.527,-33.691,125.000,0.000
1606143094.263,-64.941,-45.410,-38.574,-133.301,0.000
1606143094.267,-91.797,-49.316,-41.016,-239.746,0.000
1606143094.271,-40.039,-42.969,-37.598,-52.734,0.000
1606143094.275,22.461,-33.691,-34.180,152.832,0.000
1606143094.279,19.043,-27.344,-36.621,129.883,0.000
1606143094.283,-50.781,-29.785,-33.203,-94.727,0.000
1606143094.287,-68.848,-35.645,-29.297,-220.703,0.000
1606143094.291,-22.949,-32.227,-27.832,-94.727,0.000
1606143094.294,30.762,-33.691,-25.879,136.719,0.000
1606143094.298,47.852,-27.832,-27.344,179.199,0.000
1606143094.302,-14.160,29.785,-32.715,-46.387,0.000
1606143094.306,-58.594,19.043,-32.715,-207.520,0.000
1606143094.310,-22.949,-21.484,-27.344,-97.656,0.000
1606143094.314,41.504,-19.531,-25.879,139.648,0.000
1606143094.318,65.430,-14.648,-21.484,213.379,0.000
1606143094.322,10.742,-8.301,-29.785,0.488,0.000
1606143094.326,-46.387,-18.555,-33.203,-188.477,0.000
1606143094.330,-14.648,-19.043,-24.902,-103.516,0.000
1606143094.333,73.730,-2.441,-21.484,155.762,0.000
1606143094.337,104.492,-19.043,-18.555,257.812,0.000
1606143094.341,38.086,32.715,-20.020,59.082,0.000
1606143094.345,-37.598,77.148,-24.902,-165.039,0.000
1606143094.349,-26.367,-8.301,-27.832,-125.977,0.000
1606143094.353,51.270,-29.297,-19.531,125.977,0.000
1606143094.357,80.078,-20.508,-18.066,251.953,0.000
1606143094.361,26.855,-20.996,-22.949,85.449,0.000
1606143094.365,-43.945,-22.949,-30.273,-146.484,0.000
1606143094.369,-43.945,-30.762,-25.879,-145.020,0.000
1606143094.373,21.484,-31.250,-25.391,89.844,0.000
1606143094.376,58.594,-44.922,-35.156,232.910,0.000
1606143094.380,16.113,16.602,-32.715,96.191,0.000
1606143094.384,-53.223,49.805,-34.668,-160.645,0.000
1606143094.388,-74.219,-30.273,-32.227,-204.590,0.000
1606143094.392,-13.672,-42.480,-23.438,30.273,0.000
1606143094.396,41.504,-37.598,-24.902,208.984,0.000
1606143094.400,11.719,-34.668,-27.344,112.793,0.000
1606143094.404,-57.129,-40.039,-24.902,-130.859,0.000
1606143094.408,-81.055,-47.852,-26.855,-198.242,0.000
1606143094.412,-14.160,-43.945,-26.855,29.785,0.000
1606143094.416,46.875,-47.363,-29.297,244.629,0.000
1606143094.419,22.949,-42.480,-31.250,182.129,0.000
1606143094.423,-54.688,-40.039,-29.785,-67.383,0.000
1606143094.427,-81.055,-45.410,-34.180,-163.574,0.000
1606143094.431,-20.996,-41.992,-30.273,31.250,0.000
1606143094.435,39.551,-48.340,-27.832,247.559,0.000
1606143094.439,21.484,-42.969,-30.762,215.332,0.000
1606143094.443,-61.035,47.363,-37.598,-44.922,0.000
1606143094.447,-104.004,33.203,-40.527,-191.406,0.000
1606143094.451,-54.688,-55.176,-34.180,-38.574,0.000
1606143094.455,11.230,-51.758,-31.250,190.918,0.000
1606143094.458,8.789,-45.410,-38.574,188.477,0.000
1606143094.462,-66.406,-45.898,-37.109,-81.055,0.000
1606143094.466,-112.305,-54.199,-33.691,-253.418,0.000
1606143094.470,-69.824,-51.758,-37.109,-114.258,0.000
1606143094.474,15.625,-43.457,-33.203,159.180,0.000
1606143094.478,26.367,-49.316,-35.156,191.895,0.000
1606143094.482,-49.316,4.883,-38.574,-70.312,0.000
1606143094.486,-110.352,2.441,-41.016,-266.113,0.000
1606143094.490,-78.125,-44.434,-36.133,-162.598,0.000
1606143094.494,12.207,-32.715,-33.691,113.770,0.000
1606143094.498,35.645,-32.715,-37.109,187.500,0.000
1606143094.501,-25.879,-32.227,-31.250,-33.691,0.000
1606143094.505,-74.707,-32.715,-29.785,-237.305,0.000
1606143094.509,-49.316,-28.320,-30.273,-179.199,0.000
1606143094.513,17.090,-19.043,-29.785,73.242,0.000
1606143094.517,45.898,-32.715,-30.273,172.363,0.000
1606143094.521,-2.441,28.320,-27.832,-2.930,0.000
1606143094.525,-81.055,76.660,-33.203,-238.770,0.000
1606143094.529,-83.008,-10.254,-30.273,-237.305,0.000
1606143094.533,-7.812,-37.598,-30.762,15.137,0.000
1606143094.537,27.344,-33.691,-29.785,162.598,0.000
1606143094.541,-24.414,-41.016,-21.484,8.301,0.000
1606143094.544,-107.910,-44.922,-34.668,-258.301,0.000
1606143094.548,-119.629,-45.898,-30.273,-278.809,0.000
1606143094.552,-45.898,-46.387,-14.648,-33.203,0.000
1606143094.556,0.488,-48.828,-13.184,117.676,0.000
1606143094.560,-35.156,-46.387,-8.789,-5.859,0.000
1606143094.564,-98.633,-48.340,-12.207,-229.980,0.000
1606143094.568,-104.492,-52.246,-17.090,-253.418,0.000
1606143094.572,-48.828,-52.734,-16.602,-43.945,0.000
1606143094.576,-3.906,-52.246,-13.184,117.676,0.000
1606143094.580,-20.508,-46.387,-9.766,38.574,0.000
1606143094.583,-85.449,-46.875,-15.625,-190.918,0.000
1606143094.587,-106.934,-58.594,-20.996,-260.742,0.000
1606143094.591,-58.105,-59.082,-18.555,-75.684,0.000
1606143094.595,-10.254,-58.105,-17.090,112.793,0.000
1606143094.599,-23.926,-44.434,-21.484,63.965,0.000
1606143094.603,-88.379,-32.227,-28.320,-180.664,0.000
1606143094.607,-113.281,-48.828,-27.344,-293.457,0.000
1606143094.611,-64.453,-47.363,-32.227,-136.719,0.000
1606143094.615,0.488,-39.062,-36.621,74.707,0.000
1606143094.619,-3.418,-38.086,-35.156,55.176,0.000
1606143094.623,-69.824,-15.625,-39.062,-182.129,0.000
1606143094.626,-99.121,-15.625,-37.109,-301.270,0.000
1606143094.630,-54.688,-34.180,-32.715,-171.875,0.000
1606143094.634,11.719,-32.715,-28.809,40.039,0.000
1606143094.638,20.020,-27.832,-28.320,66.406,0.000
1606143094.642,-44.434,-28.320,-34.668,-158.691,0.000
1606143094.646,-79.102,-30.273,-31.250,-302.734,0.000
1606143094.650,-38.574,-24.902,-27.344,-187.988,0.000
1606143094.654,28.320,-20.508,-26.367,41.504,0.000
1606143094.658,41.504,-22.461,-22.461,107.910,0.000
1606143094.662,-16.113,1.953,-24.414,-93.750,0.000
1606143094.666,-62.988,2.441,-18.555,-270.508,0.000
1606143094.669,-47.363,-27.832,-18.555,-197.754,0.000
1606143094.673,11.719,-21.484,-23.438,32.227,0.000
1606143094.677,40.039,-10.742,-13.672,117.676,0.000
1606143094.681,-11.719,-13.672,-14.160,-62.988,0.000
1606143094.685,-65.430,-17.090,-24.414,-246.582,0.000
1606143094.689,-49.316,-16.113,-24.414,-197.266,0.000
1606143094.693,23.438,-13.184,-19.043,36.133,0.000
1606143094.697,57.617,-7.812,-17.578,142.090,0.000
1606143094.701,11.230,-7.324,-16.113,-3.418,0.000
1606143094.705,-39.062,-12.207,-13.184,-196.777,0.000
1606143094.708,-37.109,-16.602,-19.043,-188.965,0.000
1606143094.712,11.719,-13.672,-20.508,22.461,0.000
1606143094.716,34.180,-24.414,-18.555,130.859,0.000
1606143094.720,-8.789,-10.742,-22.949,-2.441,0.000
1606143094.724,-69.336,26.855,-21.973,-205.078,0.000
1606143094.728,-79.590,-10.254,-21.484,-233.887,0.000
1606143094.732,-33.691,-43.945,-20.508,-40.039,0.000
1606143094.736,-4.883,-42.969,-19.531,100.098,0.000
1606143094.740,-32.227,-46.387,-21.484,6.836,0.000
1606143094.744,-89.355,-47.363,-20.996,-192.383,0.000
1606143094.748,-114.258,-52.246,-23.438,-247.559,0.000
1606143094.751,-68.359,-52.734,-22.461,-70.312,0.000
1606143094.755,-20.508,-54.688,-17.090,90.820,0.000
1606143094.759,-39.062,-49.316,-26.367,17.578,0.000
1606143094.763,-94.727,-27.832,-25.879,-180.664,0.000
1606143094.767,-107.910,-43.945,-19.531,-236.816,0.000
1606143094.771,-68.359,-55.176,-33.203,-82.031,0.000
1606143094.775,-20.996,-52.734,-34.180,76.172,0.000
1606143094.779,-30.762,-55.176,-21.973,42.969,0.000
1606143094.783,-91.797,-54.688,-28.809,-156.250,0.000
1606143094.787,-99.609,-54.199,-37.598,-232.422,0.000
1606143094.791,-54.688,-48.340,-36.133,-93.262,0.000
1606143094.794,-10.254,-47.363,-31.250,77.637,0.000
1606143094.798,-7.324,-47.363,-35.645,83.496,0.000
1606143094.802,-50.781,-12.207,-43.945,-91.797,0.000
1606143094.806,-71.777,-8.789,-37.109,-187.988,0.000
1606143094.810,-43.945,-39.062,-31.738,-83.496,0.000
1606143094.814,-0.488,-40.039,-36.621,82.031,0.000
1606143094.818,7.812,-39.551,-34.668,112.793,0.000
1606143094.822,-41.504,-40.039,-29.297,-60.059,0.000
1606143094.826,-74.219,-40.039,-24.414,-182.617,0.000
1606143094.830,-50.293,-43.457,-33.691,-98.633,0.000
1606143094.833,0.488,-45.898,-37.598,87.891,0.000
1606143094.837,22.949,-40.527,-31.250,146.484,0.000
1606143094.841,-18.555,-39.551,-31.250,-14.648,0.000
1606143094.845,-54.688,-39.551,-28.320,-157.715,0.000
1606143094.849,-30.762,-33.203,-23.926,-94.238,0.000
1606143094.853,20.996,-29.297,-18.066,96.680,0.000
1606143094.857,37.109,-32.715,-15.625,161.621,0.000
1606143094.861,-7.812,-8.789,-22.949,21.484,0.000
1606143094.865,-58.594,-4.395,-23.926,-143.555,0.000
1606143094.869,-62.500,-42.480,-20.020,-130.859,0.000
1606143094.873,-8.789,-43.457,-24.414,66.895,0.000
1606143094.876,16.113,-39.551,-32.227,157.227,0.000
1606143094.880,-26.367,-42.969,-29.297,30.762,0.000
1606143094.884,-69.336,-39.551,-23.438,-137.695,0.000
1606143094.888,-67.871,-41.992,-27.344,-153.809,0.000
1606143094.892,-20.020,-38.574,-21.973,30.762,0.000
1606143094.896,3.906,-40.527,-19.531,160.645,0.000
1606143094.900,-25.879,-41.504,-21.973,50.293,0.000
1606143094.904,-81.543,-27.344,-20.020,-154.785,0.000
1606143094.908,-99.121,-41.016,-21.973,-191.406,0.000
1606143094.912,-47.363,-47.852,-24.902,-19.531,0.000
1606143094.916,0.000,-39.551,-13.672,121.094,0.000
1606143094.919,-16.113,-41.504,-8.301,59.082,0.000
1606143094.923,-68.848,-41.504,-17.090,-142.090,0.000
1606143094.927,-85.449,-42.480,-27.832,-207.520,0.000
1606143094.931,-40.527,-40.527,-36.133,-50.781,0.000
1606143094.935,0.000,-30.762,-35.156,101.074,0.000
1606143094.939,-21.484,-30.762,-38.574,57.129,0.000
1606143094.943,-67.871,-31.250,-37.598,-132.812,0.000
1606143094.947,-85.449,-31.250,-36.133,-215.820,0.000
1606143094.951,-53.711,-35.156,-32.715,-75.684,0.000
1606143094.955,-3.418,-25.391,-27.832,103.516,0.000
1606143094.958,-2.930,-20.996,-32.227,97.168,0.000
1606143094.962,-59.082,-30.273,-39.551,-99.121,0.000
1606143094.966,-79.102,-29.785,-38.574,-195.801,0.000
1606143094.970,-40.039,-26.855,-40.039,-68.359,0.000
1606143094.974,11.719,-17.090,-40.527,118.652,0.000
1606143094.978,20.508,-15.625,-35.645,147.461,0.000
1606143094.982,-31.250,-24.414,-39.062,-32.715,0.000
1606143094.986,-67.383,-22.461,-36.133,-156.738,0.000
1606143094.990,-30.273,-16.113,-33.203,-55.664,0.000
1606143094.994,32.227,-11.230,-35.156,132.812,0.000
1606143094.998,43.457,-11.719,-30.273,162.598,0.000
1606143095.001,2.930,-1.953,-33.203,-4.395,0.000
1606143095.005,-35.645,4.395,-35.156,-139.648,0.000
1606143095.009,-21.973,-11.719,-32.715,-87.402,0.000
1606143095.013,31.738,-15.137,-32.227,105.957,0.000
1606143095.017,43.457,-15.625,-28.809,177.734,0.000
1606143095.021,-1.465,-16.113,-29.297,26.367,0.000
1606143095.025,-40.039,-15.625,-30.762,-130.859,0.000
1606143095.029,-26.855,-15.625,-28.809,-101.562,0.000
1606143095.033,21.973,-9.766,-32.715,84.473,0.000
1606143095.037,44.922,-8.301,-25.391,171.387,0.000
1606143095.041,1.465,4.395,-23.438,35.645,0.000
1606143095.044,-47.852,4.883,-27.832,-143.555,0.000
1606143095.048,-50.293,-23.926,-23.438,-146.484,0.000
1606143095.052,-12.207,-25.879,-21.973,39.062,0.000
1606143095.056,16.602,-26.855,-18.066,142.090,0.000
1606143095.060,-10.742,-29.297,-20.020,30.762,0.000
1606143095.064,-60.547,-33.203,-24.414,-150.391,0.000
1606143095.068,-73.242,-41.992,-25.879,-177.734,0.000
1606143095.072,-31.738,-39.551,-22.461,-0.488,0.000
1606143095.076,6.348,-37.598,-17.578,132.324,0.000
1606143095.080,-19.531,-27.832,-18.555,54.688,0.000
1606143095.083,-77.637,-15.625,-24.414,-133.301,0.000
1606143095.087,-86.426,-38.574,-25.391,-187.988,0.000
1606143095.091,-49.805,-50.293,-16.602,-31.250,0.000
1606143095.095,-23.438,-50.781,-11.230,117.188,0.000
1606143095.099,-31.250,-43.945,-18.066,70.801,0.000
1606143095.103,-84.473,-32.227,-32.715,-125.977,0.000
1606143095.107,-109.375,-45.898,-36.621,-199.707,0.000
1606143095.111,-57.129,-46.875,-23.926,-47.852,0.000
1606143095.115,-6.348,-41.992,-22.949,113.770,0.000
1606143095.119,-23.438,-49.316,-35.156,84.473,0.000
1606143095.123,-67.383,-46.875,-35.645,-107.910,0.000
1606143095.126,-89.844,-46.387,-35.156,-202.637,0.000
1606143095.130,-58.594,-44.434,-26.855,-74.707,0.000
1606143095.134,-9.277,-41.016,-21.973,95.703,0.000
1606143095.138,-8.789,-44.434,-27.832,93.262,0.000
1606143095.142,-48.340,-12.695,-32.227,-83.496,0.000
1606143095.146,-71.777,-10.254,-33.691,-179.688,0.000
1606143095.150,-38.086,-34.668,-30.273,-81.543,0.000
1606143095.154,20.508,-27.832,-24.414,103.516,0.000
1606143095.158,28.809,-26.855,-23.926,132.324,0.000
1606143095.162,-25.391,-28.320,-32.227,-50.781,0.000
1606143095.166,-62.988,-29.297,-38.086,-177.246,0.000
1606143095.169,-33.691,-28.809,-32.715,-102.539,0.000
1606143095.173,38.086,-17.090,-23.926,96.680,0.000
1606143095.177,59.082,-11.230,-18.555,172.363,0.000
1606143095.181,5.371,-0.977,-25.879,3.418,0.000
1606143095.185,-41.992,5.371,-25.879,-159.668,0.000
1606143095.189,-33.691,-25.391,-21.484,-107.910,0.000
1606143095.193,22.949,-31.250,-19.043,85.449,0.000
1606143095.197,47.363,-19.531,-15.625,167.969,0.000
1606143095.201,6.348,-22.949,-16.113,26.367,0.000
1606143095.205,-50.293,-31.738,-19.531,-147.461,0.000
1606143095.208,-51.270,-32.227,-17.578,-130.371,0.000
1606143095.212,4.883,-23.926,-18.066,64.453,0.000
1606143095.216,27.832,-30.273,-20.996,156.250,0.000
1606143095.220,-7.324,-19.531,-19.043,38.086,0.000
1606143095.224,-60.059,-17.090,-18.066,-134.277,0.000
1606143095.228,-69.336,-36.621,-23.926,-158.203,0.000
1606143095.232,-16.602,-30.762,-23.926,32.715,0.000
1606143095.236,11.230,-31.738,-23.926,153.320,0.000
1606143095.240,-17.578,-30.273,-25.391,53.711,0.000
1606143095.244,-60.547,-31.250,-20.508,-136.719,0.000
1606143095.248,-68.848,-37.109,-23.926,-185.059,0.000
1606143095.251,-27.832,-37.598,-26.367,-16.113,0.000
1606143095.255,15.137,-36.621,-21.973,125.488,0.000
1606143095.259,-1.953,-36.621,-27.832,57.129,0.000
1606143095.263,-65.430,-41.504,-27.832,-137.695,0.000
1606143095.267,-82.520,-39.551,-22.461,-190.430,0.000
1606143095.271,-41.992,-40.039,-25.391,-33.203,0.000
1606143095.275,-5.371,-43.945,-27.344,116.211,0.000
1606143095.279,-21.484,-49.316,-26.855,60.547,0.000
1606143095.283,-78.125,-20.996,-32.227,-149.902,0.000
1606143095.287,-100.098,-10.742,-34.180,-221.680,0.000
1606143095.291,-58.105,-34.180,-32.227,-78.125,0.000
1606143095.294,-3.906,-32.715,-34.668,93.750,0.000
1606143095.298,0.000,-28.320,-22.949,96.680,0.000
1606143095.302,-43.945,-28.809,-14.648,-73.242,0.000
1606143095.306,-73.242,-34.668,-33.691,-172.852,0.000
1606143095.310,-47.852,-37.109,-38.574,-69.336,0.000
1606143095.314,2.930,-29.297,-32.715,108.887,0.000
1606143095.318,4.395,-30.762,-37.109,126.953,0.000
1606143095.322,-45.410,-23.438,-29.785,-60.059,0.000
1606143095.326,-74.219,-21.973,-35.645,-183.594,0.000
1606143095.330,-50.293,-27.344,-34.668,-90.820,0.000
1606143095.333,9.766,-17.090,-31.250,95.703,0.000
1606143095.337,29.297,-15.625,-33.691,138.184,0.000
1606143095.341,-22.461,-17.090,-30.762,-24.414,0.000
1606143095.345,-64.941,-23.438,-33.203,-164.062,0.000
1606143095.349,-45.898,-24.902,-28.809,-104.492,0.000
1606143095.353,16.113,-12.695,-17.090,99.609,0.000
1606143095.357,35.156,-12.207,-21.973,168.945,0.000
1606143095.361,-14.648,-18.066,-34.668,11.230,0.000
1606143095.365,-50.293,-20.020,-27.344,-145.508,0.000
1606143095.369,-39.551,-27.832,-27.832,-131.836,0.000
1606143095.373,3.906,-33.203,-35.645,48.340,0.000
1606143095.376,30.762,-29.297,-26.855,140.625,0.000
1606143095.380,-6.348,-25.879,-23.438,8.789,0.000
1606143095.384,-57.617,-23.926,-24.902,-165.039,0.000
1606143095.388,-58.105,-26.367,-28.320,-169.922,0.000
1606143095.392,-13.184,-28.320,-24.902,16.113,0.000
1606143095.396,23.438,-23.438,-20.020,128.906,0.000
1606143095.400,-2.930,-20.996,-18.066,30.762,0.000
1606143095.404,-67.383,-29.297,-19.043,-159.180,0.000
1606143095.408,-79.590,-34.668,-20.508,-191.406,0.000
1606143095.412,-27.832,-31.738,-20.996,-5.371,0.000
1606143095.416,5.859,-30.762,-12.695,120.117,0.000
1606143095.419,-26.367,-41.504,-9.277,30.762,0.000
1606143095.423,-90.820,-51.270,-20.996,-161.621,0.000
1606143095.427,-105.957,-48.828,-25.879,-207.031,0.000
1606143095.431,-59.082,-48.828,-26.855,-49.316,0.000
1606143095.435,-19.531,-48.340,-24.414,96.191,0.000
1606143095.439,-34.180,-42.480,-25.391,44.434,0.000
1606143095.443,-91.309,-45.410,-33.691,-148.438,0.000
1606143095.447,-112.793,-46.875,-34.180,-218.262,0.000
1606143095.451,-62.500,-42.969,-33.691,-76.172,0.000
1606143095.455,-7.324,-36.133,-31.738,103.516,0.000
1606143095.458,-11.719,-30.762,-24.414,102.051,0.000
1606143095.462,-72.266,-43.457,-26.855,-100.098,0.000
1606143095.466,-99.609,-50.781,-26.367,-208.496,0.000
1606143095.470,-53.711,-36.133,-22.461,-70.312,0.000
1606143095.474,4.883,-19.531,-20.508,118.652,0.000
1606143095.478,5.859,-23.438,-20.508,115.234,0.000
1606143095.482,-48.340,-30.762,-19.531,-76.172,0.000
1606143095.486,-84.473,-32.715,-19.043,-187.500,0.000
1606143095.490,-58.594,-31.250,-21.484,-91.309,0.000
1606143095.494,3.906,-25.879,-20.508,92.773,0.000
1606143095.498,18.066,-21.973,-20.020,125.977,0.000
1606143095.501,-31.250,-24.902,-24.902,-46.875,0.000
1606143095.505,-67.383,-31.738,-23.926,-172.852,0.000
1606143095.509,-41.992,-35.156,-22.461,-103.516,0.000
1606143095.513,16.602,-34.668,-26.367,79.590,0.000
1606143095.517,37.109,-31.738,-22.949,141.113,0.000
1606143095.521,-5.859,-19.043,-27.832,-9.277,0.000
1606143095.525,-45.410,-15.137,-30.273,-157.227,0.000
1606143095.529,-25.391,-17.090,-17.090,-113.281,0.000
1606143095.533,37.109,-13.184,-10.742,90.820,0.000
1606143095.537,55.176,-15.625,-18.066,175.781,0.000
1606143095.541,8.301,-17.578,-15.625,31.738,0.000
1606143095.544,-38.574,-23.926,-16.602,-142.578,0.000
1606143095.548,-36.621,-20.020,-19.531,-131.348,0.000
1606143095.552,21.484,-8.789,-6.348,67.383,0.000
1606143095.556,41.016,-10.742,-6.348,148.926,0.000
1606143095.560,-7.812,-11.719,-19.531,14.160,0.000
1606143095.564,-64.453,-5.371,-23.438,-160.156,0.000
1606143095.568,-72.266,-17.578,-20.508,-161.133,0.000
1606143095.572,-19.531,-29.785,-16.602,24.902,0.000
1606143095.576,13.672,-33.203,-14.160,134.766,0.000
1606143095.580,-15.625,-35.156,-10.254,38.574,0.000
1606143095.583,-67.383,-36.621,-6.348,-141.113,0.000
1606143095.587,-83.984,-41.992,-10.742,-181.641,0.000
1606143095.591,-42.480,-41.504,-19.531,-23.438,0.000
1606143095.595,-4.883,-39.551,-19.531,113.281,0.000
1606143095.599,-29.785,-33.203,-19.531,49.805,0.000
1606143095.603,-82.520,-19.531,-21.973,-140.137,0.000
1606143095.607,-96.680,-36.621,-30.273,-204.590,0.000
1606143095.611,-54.199,-52.246,-36.621,-57.617,0.000
1606143095.615,-4.883,-44.922,-29.297,111.328,0.000
1606143095.619,-13.672,-41.016,-28.320,69.824,0.000
1606143095.623,-68.848,-40.039,-35.645,-132.812,0.000
1606143095.626,-84.961,-41.504,-34.668,-200.195,0.000
1606143095.630,-37.109,-38.574,-30.273,-64.453,0.000
1606143095.634,12.207,-35.645,-27.344,113.281,0.000
1606143095.638,4.883,-37.109,-31.250,111.816,0.000
1606143095.642,-44.922,-27.832,-36.621,-78.613,0.000
1606143095.646,-71.289,-28.809,-38.574,-176.270,0.000
1606143095.650,-39.551,-34.180,-38.574,-72.754,0.000
1606143095.654,11.719,-30.273,-38.574,101.074,0.000
1606143095.658,10.742,-41.504,-39.551,120.605,0.000
1606143095.662,-36.133,-7.324,-37.598,-51.758,0.000
1606143095.666,-61.035,19.531,-37.598,-170.898,0.000
1606143095.669,-36.621,-24.414,-38.086,-99.121,0.000
1606143095.673,19.531,-27.832,-34.180,88.867,0.000
1606143095.677,32.715,-20.020,-33.691,136.719,0.000
1606143095.681,-18.555,-22.461,-39.551,-23.438,0.000
1606143095.685,-64.453,-27.832,-43.457,-171.875,0.000
1606143095.689,-52.734,-31.738,-39.551,-120.117,0.000
1606143095.693,10.742,-18.555,-37.109,77.637,0.000
1606143095.697,25.879,-22.461,-36.133,135.742,0.000
1606143095.701,-30.762,0.000,-40.527,-25.879,0.000
1606143095.705,-74.219,16.113,-36.133,-188.477,0.000
1606143095.708,-49.316,-20.020,-34.180,-150.879,0.000
1606143095.712,18.555,-20.020,-37.598,64.941,0.000
1606143095.716,30.273,-20.508,-24.414,151.855,0.000
1606143095.720,-22.949,-34.180,-19.531,-2.441,0.000
1606143095.724,-65.430,-29.785,-22.461,-170.898,0.000
1606143095.728,-62.012,-23.438,-19.531,-164.062,0.000
1606143095.732,-22.461,-26.855,-18.066,13.184,0.000
1606143095.736,0.977,-34.180,-18.066,132.324,0.000
1606143095.740,-21.973,-27.832,-12.207,42.969,0.000
1606143095.744,-74.707,15.137,-15.625,-146.973,0.000
1606143095.748,-87.402,-7.324,-16.602,-190.918,0.000
1606143095.751,-30.273,-47.363,-3.418,-14.648,0.000
1606143095.755,8.789,-51.270,-11.230,118.164,0.000
1606143095.759,-17.090,-55.176,-26.855,34.180,0.000
1606143095.763,-67.871,-49.805,-26.367,-156.250,0.000
1606143095.767,-87.402,-50.781,-26.855,-210.938,0.000
1606143095.771,-46.387,-48.340,-30.762,-41.016,0.000
1606143095.775,7.324,-41.016,-24.902,133.789,0.000
1606143095.779,-0.977,-37.109,-23.438,77.637,0.000
1606143095.783,-58.594,-32.715,-29.297,-130.371,0.000
1606143095.787,-76.660,-36.621,-34.668,-198.242,0.000
1606143095.791,-33.691,-39.062,-40.527,-58.105,0.000
1606143095.794,18.066,-33.203,-31.250,117.676,0.000
1606143095.798,12.207,-35.645,-25.879,106.445,0.000
1606143095.802,-40.039,-16.113,-30.762,-89.844,0.000
1606143095.806,-61.035,-17.090,-25.879,-188.477,0.000
1606143095.810,-28.320,-38.086,-27.832,-70.801,0.000
1606143095.814,23.926,-36.133,-31.250,112.305,0.000
1606143095.818,31.250,-29.297,-22.949,124.512,0.000
1606143095.822,-17.578,-27.344,-27.832,-65.430,0.000
1606143095.826,-56.641,-30.273,-35.156,-187.012,0.000
1606143095.830,-31.250,-24.902,-22.949,-80.566,0.000
1606143095.833,31.738,-14.160,-20.020,124.512,0.000
1606143095.837,36.621,-19.043,-24.414,153.320,0.000
1606143095.841,-20.996,-15.137,-27.832,-36.133,0.000
1606143095.845,-58.594,-10.254,-34.180,-173.828,0.000
1606143095.849,-29.297,-23.926,-32.715,-101.562,0.000
1606143095.853,28.809,-21.973,-22.949,97.656,0.000
1606143095.857,39.551,-24.414,-23.926,154.297,0.000
1606143095.861,-6.348,-27.832,-31.738,-11.230,0.000
1606143095.865,-57.617,-26.855,-27.832,-163.086,0.000
1606143095.869,-46.875,-26.855,-28.809,-123.047,0.000
1606143095.873,6.348,-25.391,-30.273,67.871,0.000
1606143095.876,18.066,-33.691,-20.508,147.461,0.000
1606143095.880,-20.020,-7.324,-15.137,4.395,0.000
1606143095.884,-67.383,-4.883,-25.879,-182.129,0.000
1606143095.888,-72.266,-44.434,-29.297,-173.828,0.000
1606143095.892,-24.902,-42.480,-29.297,18.066,0.000
1606143095.896,3.906,-47.363,-19.531,120.117,0.000
1606143095.900,-27.832,-17.578,-16.113,12.695,0.000
1606143095.904,-80.078,0.000,-26.855,-166.016,0.000
1606143095.908,-84.473,-41.504,-29.297,-185.059,0.000
1606143095.912,-33.691,-46.387,-24.902,4.395,0.000
1606143095.916,-8.789,-47.363,-21.484,124.023,0.000
1606143095.919,-36.621,-38.086,-23.926,36.133,0.000
1606143095.923,-87.891,-31.250,-26.855,-147.949,0.000
1606143095.927,-93.750,-41.016,-25.391,-190.918,0.000
1606143095.931,-37.109,-42.480,-29.297,-22.461,0.000
1606143095.935,-1.465,-48.340,-32.715,110.352,0.000
1606143095.939,-31.250,-51.758,-31.738,37.598,0.000
1606143095.943,-82.031,52.246,-36.133,-154.297,0.000
1606143095.947,-86.914,52.734,-43.457,-204.590,0.000
1606143095.951,-41.504,-50.781,-41.504,-44.434,0.000
1606143095.955,1.953,-54.199,-36.133,116.211,0.000
1606143095.958,2.441,-45.898,-30.762,96.680,0.000
1606143095.962,-41.504,-40.527,-26.855,-85.938,0.000
1606143095.966,-71.289,-44.434,-34.180,-174.805,0.000
1606143095.970,-35.156,-43.945,-28.809,-42.969,0.000
1606143095.974,17.090,-38.574,-25.391,135.742,0.000
1606143095.978,15.625,-39.062,-26.367,134.766,0.000
1606143095.982,-43.457,-2.441,-26.855,-65.918,0.000
1606143095.986,-74.707,-4.883,-27.344,-184.082,0.000
1606143095.990,-35.645,-40.527,-27.832,-68.848,0.000
1606143095.994,14.160,-32.227,-25.391,116.699,0.000
1606143095.998,19.531,-29.297,-22.949,142.090,0.000
1606143096.001,-24.414,-24.902,-27.832,-37.598,0.000
1606143096.005,-52.246,-26.855,-20.020,-168.457,0.000
1606143096.009,-26.855,-28.320,-17.578,-81.055,0.000
1606143096.013,14.160,-24.902,-26.855,103.027,0.000
1606143096.017,15.137,-42.969,-19.043,139.648,0.000
1606143096.021,-26.855,17.090,-24.414,-20.508,0.000
1606143096.025,-65.430,76.660,-31.250,-165.527,0.000
1606143096.029,-51.758,-8.301,-21.973,-126.465,0.000
1606143096.033,-3.418,-44.922,-21.973,52.246,0.000
1606143096.037,11.230,-35.645,-18.555,125.977,0.000
1606143096.041,-30.273,-38.086,-10.742,-17.578,0.000
1606143096.044,-75.684,-42.969,-13.672,-183.594,0.000
1606143096.048,-70.312,-49.316,-16.602,-160.156,0.000
1606143096.052,-20.020,-47.363,-7.324,29.785,0.000
1606143096.056,0.977,-43.457,-11.719,117.676,0.000
1606143096.060,-37.598,-42.480,-14.648,-10.254,0.000
1606143096.064,-86.914,-41.992,-12.695,-173.828,0.000
1606143096.068,-89.355,-49.805,-19.531,-172.363,0.000
1606143096.072,-37.109,-49.805,-21.484,6.836,0.000
1606143096.076,-0.488,-55.176,-23.926,111.816,0.000
1606143096.080,-20.508,-25.879,-24.902,15.137,0.000
1606143096.083,-61.035,0.000,-28.809,-159.180,0.000
1606143096.087,-65.430,-40.527,-30.273,-186.035,0.000
1606143096.091,-24.414,-44.922,-28.320,-10.254,0.000
1606143096.095,9.277,-41.016,-23.926,121.094,0.000
1606143096.099,-8.301,-31.738,-17.578,59.570,0.000
1606143096.103,-56.152,-12.695,-21.973,-126.465,0.000
1606143096.107,-72.754,-37.109,-31.250,-180.664,0.000
1606143096.111,-30.762,-42.969,-32.715,-23.926,0.000
1606143096.115,14.160,-31.738,-29.785,135.254,0.000
1606143096.119,0.488,-31.738,-30.762,88.379,0.000
1606143096.123,-57.129,-15.137,-32.715,-118.164,0.000
1606143096.126,-78.613,-29.785,-29.785,-193.359,0.000
1606143096.130,-39.551,-41.504,-24.902,-49.316,0.000
1606143096.134,7.812,-29.785,-24.414,115.234,0.000
1606143096.138,8.789,-26.855,-19.531,105.957,0.000
1606143096.142,-44.434,-11.230,-22.461,-77.148,0.000
1606143096.146,-76.660,-16.113,-32.715,-171.875,0.000
1606143096.150,-45.898,-27.344,-35.156,-64.453,0.000
1606143096.154,4.395,-19.043,-24.902,116.211,0.000
1606143096.158,7.812,-19.043,-17.090,138.672,0.000
1606143096.162,-41.504,-1.953,-27.344,-45.898,0.000
1606143096.166,-71.289,-7.324,-31.738,-177.734,0.000
1606143096.169,-37.598,-32.227,-25.879,-93.262,0.000
1606143096.173,14.160,-24.902,-17.090,101.074,0.000
1606143096.177,12.695,-37.109,-13.184,135.254,0.000
1606143096.181,-34.668,4.395,-25.391,-36.133,0.000
1606143096.185,-41.992,35.156,-34.180,-151.367,0.000
1606143096.189,-9.766,-27.344,-24.414,-81.543,0.000
1606143096.193,3.418,-36.133,-12.695,71.289,0.000
1606143096.197,-4.883,-27.344,-15.137,96.191,0.000
1606143096.201,-44.434,-26.367,-18.066,-62.500,0.000
1606143096.205,-89.844,-31.250,-20.020,-225.098,0.000
1606143096.208,-89.844,-40.039,-21.973,-207.520,0.000
1606143096.212,-55.176,-33.691,-5.859,-10.742,0.000
1606143096.216,-47.852,-46.875,0.488,55.176,0.000
1606143096.220,-86.914,-22.949,-16.602,-81.543,0.000
1606143096.224,-122.070,47.852,-21.973,-220.215,0.000
1606143096.228,-123.535,-5.371,-27.832,-215.820,0.000
1606143096.232,-65.918,-62.500,-32.715,-27.344,0.000
1606143096.236,-33.691,-61.523,-33.691,82.520,0.000
1606143096.240,-60.059,-59.570,-36.621,-23.926,0.000
1606143096.244,-93.262,-57.129,-36.133,-197.266,0.000
1606143096.248,-89.355,-62.988,-35.156,-204.590,0.000
1606143096.251,-47.852,-60.547,-37.109,-14.160,0.000
1606143096.255,-16.113,-62.012,-30.273,125.000,0.000
1606143096.259,-34.668,-55.176,-26.367,43.457,0.000
1606143096.263,-77.148,-48.340,-28.320,-143.555,0.000
1606143096.267,-79.590,-57.129,-27.344,-177.734,0.000
1606143096.271,-34.180,-50.293,-28.809,-2.930,0.000
1606143096.275,1.953,-53.223,-35.156,139.160,0.000
1606143096.279,-10.742,-46.387,-36.621,71.777,0.000
1606143096.283,-55.664,-19.043,-33.691,-118.164,0.000
1606143096.287,-64.453,-38.086,-36.133,-167.480,0.000
1606143096.291,-15.625,-52.734,-36.133,-9.766,0.000
1606143096.294,31.738,-44.434,-36.621,139.160,0.000
1606143096.298,31.250,-49.316,-35.156,103.516,0.000
1606143096.302,-11.719,14.648,-37.598,-72.754,0.000
1606143096.306,-33.691,38.086,-38.574,-162.598,0.000
1606143096.310,1.953,-31.738,-37.109,-51.758,0.000
1606143096.314,46.387,-36.133,-28.320,124.512,0.000
1606143096.318,43.457,-31.738,-22.949,131.836,0.000
1606143096.322,-6.836,-37.109,-32.715,-61.035,0.000
1606143096.326,-34.180,-39.551,-28.320,-165.527,0.000
1606143096.330,-16.602,-40.039,-20.996,-51.758,0.000
1606143096.333,29.785,-33.691,-24.414,137.695,0.000
1606143096.337,38.086,-31.738,-25.391,153.809,0.000
1606143096.341,-15.625,-38.086,-33.203,-38.086,0.000
1606143096.345,-50.781,-37.109,-33.203,-157.715,0.000
1606143096.349,-30.273,-31.250,-28.320,-75.195,0.000
1606143096.353,13.184,-24.902,-29.297,104.492,0.000
1606143096.357,20.508,-32.227,-28.320,146.973,0.000
1606143096.361,-32.227,20.996,-26.367,-20.996,0.000
1606143096.365,-71.289,46.387,-28.320,-170.410,0.000
1606143096.369,-56.641,-20.996,-28.809,-133.789,0.000
1606143096.373,-8.301,-29.297,-22.461,57.617,0.000
1606143096.376,-0.488,-33.203,-22.461,128.418,0.000
1606143096.380,-55.176,-36.133,-30.762,-20.020,0.000
1606143096.384,-73.242,-35.645,-37.598,-174.805,0.000
1606143096.388,-67.871,-41.992,-33.203,-154.297,0.000
1606143096.392,-46.387,-37.109,-31.738,35.156,0.000
1606143096.396,-14.160,-50.781,-32.715,135.742,0.000
1606143096.400,-37.109,-20.020,-32.715,16.602,0.000
1606143096.404,-83.008,91.797,-33.691,-162.598,0.000
1606143096.408,-91.309,32.227,-32.715,-187.012,0.000
1606143096.412,-42.969,-54.688,-28.320,0.488,0.000
1606143096.416,-17.090,-50.293,-28.320,117.676,0.000
1606143096.419,-45.898,-51.758,-37.109,12.207,0.000
1606143096.423,-90.820,-48.340,-41.992,-173.828,0.000
1606143096.427,-88.379,-49.805,-36.133,-195.801,0.000
1606143096.431,-35.156,-45.410,-36.621,-16.602,0.000
1606143096.435,0.977,-57.129,-43.945,106.445,0.000
1606143096.439,-7.324,-41.504,-39.551,46.387,0.000
1606143096.443,-53.711,28.320,-42.480,-135.254,0.000
1606143096.447,-58.105,3.906,-53.711,-192.383,0.000
1606143096.451,-7.324,-42.480,-42.480,-31.250,0.000
1606143096.455,20.996,-43.945,-26.367,113.770,0.000
1606143096.458,8.789,-48.340,-31.250,73.242,0.000
1606143096.462,-38.086,-39.551,-31.738,-111.328,0.000
1606143096.466,-63.965,-41.992,-30.762,-195.312,0.000
1606143096.470,-27.832,-40.527,-27.832,-54.199,0.000
1606143096.474,18.555,-35.645,-18.555,130.371,0.000
1606143096.478,14.160,-34.668,-23.926,123.535,0.000
1606143096.482,-29.785,-29.785,-27.832,-53.711,0.000
1606143096.486,-52.246,-37.109,-27.832,-144.043,0.000
1606143096.490,-21.973,-33.203,-23.438,-30.762,0.000
1606143096.494,38.086,-20.996,-15.625,141.602,0.000
1606143096.498,30.273,-43.945,-19.043,126.465,0.000
1606143096.501,-31.738,28.809,-25.391,-62.012,0.000
1606143096.505,-46.875,92.285,-25.391,-165.527,0.000
1606143096.509,-19.043,2.441,-21.973,-72.266,0.000
1606143096.513,26.855,-33.203,-22.461,102.051,0.000
1606143096.517,38.086,-36.621,-26.367,129.883,0.000
1606143096.521,-1.953,-32.715,-23.926,-35.156,0.000
1606143096.525,-40.039,-36.133,-28.809,-178.223,0.000
1606143096.529,-21.484,-38.574,-28.320,-114.258,0.000
1606143096.533,25.391,-26.367,-20.508,82.520,0.000
1606143096.537,30.762,-42.480,-21.484,135.742,0.000
1606143096.541,-19.043,17.578,-26.855,-28.320,0.000
1606143096.544,-61.035,54.688,-27.832,-183.594,0.000
1606143096.548,-53.223,-28.809,-26.367,-160.645,0.000
1606143096.552,-4.395,-41.016,-25.879,27.832,0.000
1606143096.556,13.672,-37.598,-29.785,113.281,0.000
1606143096.560,-32.227,-40.527,-33.203,-22.949,0.000
1606143096.564,-75.195,-42.480,-32.715,-194.336,0.000
1606143096.568,-63.477,-49.316,-32.715,-178.711,0.000
1606143096.572,-21.484,-41.992,-20.996,13.184,0.000
1606143096.576,2.441,-53.711,-21.484,109.375,0.000
1606143096.580,-28.809,-29.297,-34.180,1.465,0.000
1606143096.583,-82.031,40.527,-37.598,-161.621,0.000
1606143096.587,-84.473,-17.090,-37.109,-178.711,0.000
1606143096.591,-36.133,-66.406,-28.320,-4.395,0.000
1606143096.595,-9.766,-64.453,-28.320,120.117,0.000
1606143096.599,-32.227,-57.129,-37.598,44.434,0.000
1606143096.603,-69.336,-35.156,-38.086,-143.066,0.000
1606143096.607,-71.777,-54.688,-30.273,-182.617,0.000
1606143096.611,-26.855,-58.594,-25.391,-9.766,0.000
1606143096.615,6.348,-57.617,-29.785,135.742,0.000
1606143096.619,-3.906,-50.781,-32.715,77.148,0.000
1606143096.623,-51.270,-47.363,-34.180,-115.723,0.000
1606143096.626,-74.219,-52.246,-37.109,-188.965,0.000
1606143096.630,-28.320,-44.434,-30.273,-29.785,0.000
1606143096.634,11.719,-46.387,-23.926,140.625,0.000
1606143096.638,-1.465,-55.664,-22.949,104.980,0.000
1606143096.642,-40.527,1.953,-28.809,-89.355,0.000
1606143096.646,-55.664,3.906,-29.297,-176.270,0.000
1606143096.650,-29.297,-52.734,-24.414,-48.340,0.000
1606143096.654,19.043,-43.945,-23.438,127.930,0.000
1606143096.658,24.414,-35.156,-23.438,120.117,0.000
1606143096.662,-30.273,-29.785,-23.926,-68.359,0.000
1606143096.666,-62.500,-33.203,-22.949,-173.340,0.000
1606143096.669,-34.668,-36.621,-22.949,-77.637,0.000
1606143096.673,15.625,-25.391,-17.090,112.793,0.000
1606143096.677,27.832,-36.133,-18.555,148.438,0.000
1606143096.681,-18.555,13.672,-28.809,-30.762,0.000
1606143096.685,-53.711,66.406,-26.855,-162.109,0.000
1606143096.689,-30.273,-5.859,-26.367,-88.379,0.000
1606143096.693,16.113,-38.086,-22.949,97.656,0.000
1606143096.697,31.250,-28.320,-17.578,145.508,0.000
1606143096.701,6.836,-18.066,-18.555,-10.254,0.000
1606143096.705,-42.480,-20.508,-20.508,-150.879,0.000
1606143096.708,-34.668,-29.297,-21.973,-113.770,0.000
1606143096.712,11.230,-22.949,-17.090,66.406,0.000
1606143096.716,21.484,-32.715,-21.973,136.230,0.000
1606143096.720,-13.184,0.977,-31.250,-4.883,0.000
1606143096.724,-62.500,17.090,-33.203,-161.621,0.000
1606143096.728,-71.777,-36.133,-29.297,-152.344,0.000
1606143096.732,-28.809,-41.016,-19.043,31.250,0.000
1606143096.736,-1.953,-40.527,-17.578,123.047,0.000
1606143096.740,-33.203,-25.391,-20.996,12.207,0.000
1606143096.744,-75.195,-24.902,-25.391,-145.508,0.000
1606143096.748,-74.219,-49.805,-27.832,-160.645,0.000
1606143096.751,-31.738,-45.898,-24.902,7.324,0.000
1606143096.755,-2.930,-41.016,-22.949,125.488,0.000
1606143096.759,-31.250,-36.133,-27.832,31.250,0.000
1606143096.763,-79.590,-38.574,-31.738,-153.809,0.000
1606143096.767,-75.195,-41.016,-24.414,-177.246,0.000
1606143096.771,-27.344,-32.715,-26.855,9.766,0.000
1606143096.775,-6.348,-38.086,-34.668,128.906,0.000
1606143096.779,-24.902,-46.387,-32.715,45.898,0.000
1606143096.783,-59.570,21.973,-32.227,-129.395,0.000
1606143096.787,-62.500,36.133,-34.180,-172.852,0.000
1606143096.791,-25.391,-26.855,-30.762,-16.113,0.000
1606143096.794,16.113,-30.273,-31.250,128.906,0.000
1606143096.798,10.254,-25.391,-22.949,91.797,0.000
1606143096.802,-40.039,-22.949,-18.555,-87.402,0.000
1606143096.806,-52.734,-29.785,-26.367,-170.410,0.000
1606143096.810,-7.812,-27.344,-21.973,-45.898,0.000
1606143096.814,38.086,-12.695,-21.973,124.023,0.000
1606143096.818,19.531,-27.344,-28.809,112.793,0.000
1606143096.822,-28.320,34.180,-30.273,-79.102,0.000
1606143096.826,-42.480,45.410,-28.809,-175.781,0.000
1606143096.830,-20.020,-33.203,-31.250,-74.219,0.000
1606143096.833,17.578,-30.762,-28.809,98.633,0.000
1606143096.837,18.555,-30.273,-24.414,114.746,0.000
1606143096.841,-28.809,-23.438,-25.391,-68.359,0.000
1606143096.845,-60.059,-20.020,-28.320,-192.871,0.000
1606143096.849,-36.621,-23.438,-33.203,-110.352,0.000
1606143096.853,6.348,-20.508,-34.668,62.500,0.000
1606143096.857,14.648,-26.855,-34.180,89.844,0.000
1606143096.861,-36.621,2.930,-34.180,-69.824,0.000
1606143096.865,-74.707,3.418,-34.180,-198.730,0.000
1606143096.869,-49.805,-30.762,-30.762,-146.973,0.000
1606143096.873,-21.484,-28.809,-22.461,26.367,0.000
1606143096.876,-13.672,-41.016,-20.508,75.684,0.000
1606143096.880,-42.480,-24.902,-26.855,-67.383,0.000
1606143096.884,-82.520,-6.348,-35.645,-210.449,0.000
1606143096.888,-73.730,-37.109,-35.645,-173.828,0.000
1606143096.892,-27.832,-44.434,-25.879,13.184,0.000
1606143096.896,-8.789,-42.969,-20.020,92.285,0.000
1606143096.900,-41.016,-41.016,-22.949,-30.273,0.000
1606143096.904,-77.637,-42.969,-33.691,-190.918,0.000
1606143096.908,-69.824,-48.340,-34.180,-180.176,0.000
1606143096.912,-27.344,-43.457,-31.738,11.719,0.000
1606143096.916,-11.719,-52.734,-35.156,102.539,0.000
1606143096.919,-38.574,-37.109,-29.785,6.836,0.000
1606143096.923,-78.125,-6.348,-28.320,-155.273,0.000
1606143096.927,-82.031,-35.645,-31.738,-195.312,0.000
1606143096.931,-36.133,-48.340,-26.855,-22.461,0.000
1606143096.935,-11.719,-47.363,-19.043,103.027,0.000
1606143096.939,-40.039,-54.199,-20.020,26.855,0.000
1606143096.943,-71.289,-52.246,-21.973,-128.418,0.000
1606143096.947,-71.777,-44.922,-27.832,-174.805,0.000
1606143096.951,-40.527,-39.551,-31.250,-46.875,0.000
1606143096.955,-5.371,-37.598,-30.273,89.355,0.000
1606143096.958,-22.461,-42.480,-25.391,50.293,0.000
1606143096.962,-79.590,22.949,-21.973,-130.859,0.000
1606143096.966,-90.332,39.551,-26.855,-201.660,0.000
1606143096.970,-38.574,-31.738,-21.973,-62.012,0.000
1606143096.974,7.324,-33.203,-11.719,99.121,0.000
1606143096.978,6.348,-36.133,-12.695,88.379,0.000
1606143096.982,-34.180,-41.504,-23.926,-90.820,0.000
1606143096.986,-50.781,-39.551,-17.578,-175.781,0.000
1606143096.990,-13.184,-37.598,-15.137,-52.734,0.000
1606143096.994,23.438,-35.156,-26.367,107.422,0.000
1606143096.998,20.996,-33.691,-24.902,106.934,0.000
1606143097.001,-14.160,-23.438,-19.531,-53.711,0.000
1606143097.005,-41.016,-23.438,-24.414,-152.344,0.000
1606143097.009,-21.973,-36.621,-32.715,-70.312,0.000
1606143097.013,20.508,-34.180,-28.809,100.586,0.000
1606143097.017,24.414,-31.250,-22.461,134.277,0.000
1606143097.021,-4.883,-23.438,-19.531,-17.578,0.000
1606143097.025,-42.969,-28.320,-19.531,-130.859,0.000
1606143097.029,-23.438,-37.598,-25.879,-67.383,0.000
1606143097.033,16.113,-32.715,-28.320,88.867,0.000
1606143097.037,-7.324,-36.133,-29.297,139.648,0.000
1606143097.041,-40.039,-35.645,-27.344,-0.488,0.000
1606143097.044,-74.707,-39.551,-22.949,-157.227,0.000
1606143097.048,-65.430,-37.109,-29.297,-129.395,0.000
1606143097.052,-16.602,-26.855,-29.785,51.758,0.000
1606143097.056,-7.324,-36.133,-21.484,105.469,0.000
1606143097.060,-50.293,-28.320,-26.367,-48.828,0.000
1606143097.064,-94.238,-0.488,-32.715,-198.242,0.000
1606143097.068,-87.891,-21.484,-28.320,-173.340,0.000
1606143097.072,-43.457,-41.504,-26.855,-1.953,0.000
1606143097.076,-15.625,-36.133,-19.531,83.008,0.000
1606143097.080,-46.875,-40.527,-20.996,-32.715,0.000
1606143097.083,-85.938,-42.480,-28.809,-187.500,0.000
1606143097.087,-86.426,-45.410,-29.785,-201.172,0.000
1606143097.091,-50.293,-45.410,-31.738,-46.387,0.000
1606143097.095,-29.297,-40.527,-25.391,65.430,0.000
1606143097.099,-57.129,-33.691,-32.227,-12.695,0.000
1606143097.103,-90.332,-20.508,-40.527,-193.359,0.000
1606143097.107,-96.191,-35.156,-35.156,-238.770,0.000
1606143097.111,-51.270,-43.945,-33.203,-66.895,0.000
1606143097.115,-10.742,-25.879,-35.156,65.430,0.000
1606143097.119,-39.062,-22.949,-34.180,-4.883,0.000
1606143097.123,-81.543,-25.391,-38.086,-171.387,0.000
1606143097.126,-74.707,-24.414,-51.758,-203.613,0.000
1606143097.130,-21.973,-24.902,-56.641,-35.156,0.000
1606143097.134,12.695,-27.344,-49.316,120.605,0.000
1606143097.138,5.859,-30.762,-45.410,97.656,0.000
1606143097.142,-30.273,-29.785,-41.992,-61.523,0.000
1606143097.146,-50.293,-25.879,-35.156,-125.488,0.000
1606143097.150,-9.766,-28.320,-34.180,-0.977,0.000
1606143097.154,42.969,-25.879,-38.086,147.949,0.000
1606143097.158,39.062,-24.414,-36.133,139.648,0.000
1606143097.162,3.418,11.230,-34.180,-27.832,0.000
1606143097.166,-29.297,38.574,-32.715,-119.141,0.000
1606143097.169,-8.301,-1.465,-37.109,-26.367,0.000
1606143097.173,38.574,-21.973,-42.969,128.418,0.000
1606143097.177,43.457,-21.973,-38.086,139.648,0.000
1606143097.181,-0.977,-21.484,-35.645,-29.785,0.000
1606143097.185,-34.180,-32.227,-39.551,-150.879,0.000
1606143097.189,-10.742,-33.203,-34.180,-71.289,0.000
1606143097.193,31.738,-21.484,-25.391,109.375,0.000
1606143097.197,32.715,-30.762,-26.367,131.836,0.000
1606143097.201,-3.906,-4.395,-32.715,-26.855,0.000
1606143097.205,-37.109,11.230,-37.598,-162.109,0.000
1606143097.208,-29.785,-27.344,-35.645,-118.164,0.000
1606143097.212,16.113,-29.785,-24.414,66.895,0.000
1606143097.216,31.250,-30.273,-21.973,128.418,0.000
1606143097.220,-9.766,-31.738,-32.227,-20.996,0.000
1606143097.224,-46.875,-33.203,-28.320,-169.434,0.000
1606143097.228,-40.039,-41.992,-25.879,-145.020,0.000
1606143097.232,-1.465,-41.992,-28.809,27.344,0.000
1606143097.236,19.043,-39.062,-17.578,118.164,0.000
1606143097.240,-10.742,-24.902,-24.902,9.277,0.000
1606143097.244,-56.152,17.578,-41.016,-166.504,0.000
1606143097.248,-56.641,-2.441,-40.527,-190.918,0.000
1606143097.251,-18.066,-39.062,-30.762,-20.020,0.000
1606143097.255,3.906,-32.227,-23.438,95.703,0.000
1606143097.259,-19.531,-34.668,-27.832,2.441,0.000
1606143097.263,-67.383,-41.016,-35.645,-163.574,0.000
1606143097.267,-80.078,-50.781,-34.668,-181.152,0.000
1606143097.271,-35.645,-49.316,-23.438,-9.277,0.000
1606143097.275,-2.441,-47.363,-17.578,112.793,0.000
1606143097.279,-25.879,-46.875,-15.137,33.691,0.000
1606143097.283,-75.195,-43.457,-24.902,-131.836,0.000
1606143097.287,-83.984,-49.316,-24.902,-172.852,0.000
1606143097.291,-43.457,-46.387,-19.043,-27.344,0.000
1606143097.294,-6.348,-49.805,-9.277,112.793,0.000
1606143097.298,-18.066,-55.176,-9.766,64.941,0.000
1606143097.302,-60.059,-23.926,-27.344,-109.375,0.000
1606143097.306,-72.266,-20.996,-26.367,-170.410,0.000
1606143097.310,-38.574,-41.992,-23.926,-43.457,0.000
1606143097.314,1.953,-36.133,-19.043,113.281,0.000
1606143097.318,5.859,-34.180,-23.438,99.121,0.000
1606143097.322,-36.621,-37.598,-29.297,-73.730,0.000
1606143097.326,-53.711,-32.715,-26.367,-150.391,0.000
1606143097.330,-15.625,-24.902,-30.762,-44.434,0.000
1606143097.333,24.902,-21.484,-31.250,116.211,0.000
1606143097.337,25.391,-30.762,-27.832,124.512,0.000
1606143097.341,-14.160,-7.812,-31.250,-57.617,0.000
1606143097.345,-35.645,23.926,-31.250,-166.016,0.000
1606143097.349,-9.766,-3.418,-29.297,-66.406,0.000
1606143097.353,37.109,-16.602,-23.438,102.051,0.000
1606143097.357,44.434,-16.602,-20.020,126.465,0.000
1606143097.361,-8.301,-19.531,-35.645,-44.434,0.000
1606143097.365,-38.574,-17.090,-31.250,-161.621,0.000
1606143097.369,-17.090,-23.438,-24.902,-92.773,0.000
1606143097.373,19.043,-27.344,-34.668,66.895,0.000
1606143097.376,23.438,-29.297,-27.832,118.652,0.000
1606143097.380,-16.113,-12.207,-25.879,-18.555,0.000
1606143097.384,-63.477,-13.184,-24.902,-172.852,0.000
1606143097.388,-62.988,-37.598,-10.742,-135.254,0.000
1606143097.392,-22.949,-40.039,-13.672,43.945,0.000
1606143097.396,-11.230,-48.340,-20.020,100.586,0.000
1606143097.400,-41.504,-36.133,-22.949,-28.809,0.000
1606143097.404,-78.613,-29.297,-24.414,-178.223,0.000
1606143097.408,-79.102,-47.852,-20.508,-168.945,0.000
1606143097.412,-37.109,-50.293,-18.555,15.625,0.000
1606143097.416,-14.648,-41.504,-14.160,119.141,0.000
1606143097.419,-46.387,-38.086,-15.137,12.207,0.000
1606143097.423,-75.684,-41.992,-17.578,-137.695,0.000
1606143097.427,-73.242,-45.410,-17.578,-148.926,0.000
1606143097.431,-40.039,-43.457,-22.949,-12.695,0.000
1606143097.435,-14.160,-42.480,-24.414,86.914,0.000
1606143097.439,-30.273,-40.527,-19.531,12.207,0.000
1606143097.443,-75.684,29.297,-22.461,-145.996,0.000
1606143097.447,-90.332,31.250,-30.273,-187.988,0.000
1606143097.451,-45.410,-38.574,-29.297,-39.551,0.000
1606143097.455,-11.719,-43.457,-25.879,90.820,0.000
1606143097.458,-28.320,-43.457,-24.902,39.551,0.000
1606143097.462,-72.266,-44.434,-29.785,-131.836,0.000
1606143097.466,-78.613,-46.387,-32.227,-192.383,0.000
1606143097.470,-39.062,-39.551,-34.180,-54.199,0.000
1606143097.474,-5.859,-27.832,-28.809,99.609,0.000
1606143097.478,-7.812,-32.227,-27.832,67.383,0.000
1606143097.482,-41.016,-8.789,-41.504,-110.352,0.000
1606143097.486,-54.688,-3.906,-35.156,-177.734,0.000
1606143097.490,-25.391,-32.227,-31.738,-57.129,0.000
1606143097.494,14.648,-34.668,-33.691,95.703,0.000
1606143097.498,13.672,-34.668,-24.902,94.238,0.000
1606143097.501,-28.320,-31.250,-20.020,-70.312,0.000
1606143097.505,-49.316,-28.809,-16.113,-159.668,0.000
1606143097.509,-28.809,-31.250,-22.949,-62.012,0.000
1606143097.513,9.766,-31.250,-21.484,93.750,0.000
1606143097.517,10.254,-34.668,-8.789,109.863,0.000
1606143097.521,-31.250,-18.066,-19.531,-35.645,0.000
1606143097.525,-56.641,-8.789,-30.273,-150.391,0.000
1606143097.529,-41.992,-32.227,-29.297,-91.797,0.000
1606143097.533,1.953,-35.645,-22.949,83.496,0.000
1606143097.537,19.531,-29.785,-18.555,134.277,0.000
1606143097.541,-17.578,-29.785,-18.066,-6.348,0.000
1606143097.544,-46.387,-30.273,-22.461,-135.254,0.000
1606143097.548,-26.367,-25.879,-20.996,-88.867,0.000
1606143097.552,14.648,-27.832,-14.160,79.590,0.000
1606143097.556,29.297,-31.250,-13.672,132.324,0.000
1606143097.560,-2.441,-29.785,-19.531,-8.789,0.000
1606143097.564,-52.246,-37.598,-26.367,-162.109,0.000
1606143097.568,-49.805,-39.551,-25.391,-132.812,0.000
1606143097.572,-7.812,-39.062,-22.461,40.527,0.000
1606143097.576,2.441,-48.340,-18.555,117.188,0.000
1606143097.580,-35.645,-35.645,-21.484,-1.465,0.000
1606143097.583,-77.148,-8.789,-19.531,-162.109,0.000
1606143097.587,-74.219,-32.227,-16.113,-162.598,0.000
1606143097.591,-35.156,-50.293,-17.090,-2.930,0.000
1606143097.595,-5.371,-43.945,-20.020,94.238,0.000
1606143097.599,-24.414,-41.504,-25.391,17.090,0.000
1606143097.603,-74.707,-44.922,-25.391,-148.438,0.000
1606143097.607,-81.055,-50.293,-30.762,-179.199,0.000
1606143097.611,-43.945,-45.410,-33.203,-24.414,0.000
1606143097.615,-15.625,-41.992,-28.320,101.074,0.000
1606143097.619,-31.250,-48.340,-28.809,40.039,0.000
1606143097.623,-81.055,4.395,-30.762,-140.137,0.000
1606143097.626,-93.262,18.066,-30.273,-187.500,0.000
1606143097.630,-41.504,-36.621,-35.645,-55.664,0.000
1606143097.634,-7.324,-38.574,-33.203,80.566,0.000
1606143097.638,-36.621,-38.574,-31.738,43.945,0.000
1606143097.642,-71.777,-35.156,-30.762,-128.906,0.000
1606143097.646,-75.195,-34.668,-27.344,-177.734,0.000
1606143097.650,-43.457,-31.738,-33.691,-51.270,0.000
1606143097.654,-7.812,-25.391,-28.320,95.703,0.000
1606143097.658,-10.742,-30.762,-26.367,91.309,0.000
1606143097.662,-54.688,-5.859,-42.480,-72.266,0.000
1606143097.666,-71.289,4.395,-41.992,-166.016,0.000
1606143097.669,-31.738,-29.785,-30.762,-68.848,0.000
1606143097.673,15.137,-31.738,-21.484,95.215,0.000
1606143097.677,15.137,-20.996,-18.555,107.910,0.000
1606143097.681,-20.020,-19.043,-22.461,-57.129,0.000
1606143097.685,-32.715,-23.926,-28.320,-154.297,0.000
1606143097.689,-6.836,-24.902,-26.855,-66.406,0.000
1606143097.693,28.320,-17.578,-22.949,101.562,0.000
1606143097.697,39.062,-16.602,-27.832,130.371,0.000
1606143097.701,-4.883,-25.879,-31.738,-23.926,0.000
1606143097.705,-55.664,-31.250,-37.598,-138.184,0.000
1606143097.708,-24.414,-25.391,-31.250,-65.430,0.000
1606143097.712,21.484,-21.484,-22.461,101.562,0.000
1606143097.716,26.367,-28.320,-22.949,142.578,0.000
1606143097.720,-11.719,-11.719,-25.879,2.930,0.000
1606143097.724,-42.480,19.531,-28.809,-136.230,0.000
1606143097.728,-39.062,-5.371,-25.879,-106.934,0.000
1606143097.732,0.977,-30.273,-17.578,74.707,0.000
1606143097.736,15.625,-29.785,-13.672,151.855,0.000
1606143097.740,-20.996,-24.902,-12.695,31.250,0.000
1606143097.744,-61.523,-25.391,-14.648,-121.094,0.000
1606143097.748,-57.129,-37.109,-16.113,-126.953,0.000
1606143097.751,-7.812,-32.227,-18.555,41.992,0.000
1606143097.755,13.672,-35.156,-21.973,134.277,0.000
1606143097.759,-21.973,-29.785,-23.438,21.484,0.000
1606143097.763,-63.477,5.859,-23.438,-142.578,0.000
1606143097.767,-73.242,-19.043,-22.461,-172.852,0.000
1606143097.771,-39.551,-39.551,-17.090,-19.043,0.000
1606143097.775,-11.230,-37.109,-14.160,95.215,0.000
1606143097.779,-34.668,-41.504,-16.113,14.648,0.000
1606143097.783,-80.078,-39.551,-22.461,-157.227,0.000
1606143097.787,-88.379,-41.016,-25.391,-192.383,0.000
1606143097.791,-42.480,-38.574,-14.160,-37.598,0.000
1606143097.794,-19.043,-40.527,-12.695,83.008,0.000
1606143097.798,-36.621,-53.223,-20.996,26.855,0.000
1606143097.802,-63.965,18.555,-23.438,-141.113,0.000
1606143097.806,-80.566,34.180,-36.133,-210.938,0.000
1606143097.810,-64.453,-38.086,-36.621,-97.168,0.000
1606143097.814,-28.320,-41.992,-20.508,48.828,0.000
1606143097.818,-32.715,-46.387,-17.578,41.504,0.000
1606143097.822,-70.312,-39.551,-30.762,-128.418,0.000
1606143097.826,-84.473,-39.551,-38.086,-206.543,0.000
1606143097.830,-46.875,-42.969,-29.297,-86.914,0.000
1606143097.833,-4.395,-40.527,-26.855,66.406,0.000
1606143097.837,-7.324,-42.480,-28.809,67.871,0.000
1606143097.841,-51.758,-39.551,-33.203,-95.215,0.000
1606143097.845,-77.637,-37.598,-34.668,-177.246,0.000
1606143097.849,-56.152,-38.086,-27.832,-79.102,0.000
1606143097.853,-20.508,-37.109,-31.738,64.941,0.000
1606143097.857,-12.695,-48.828,-27.344,89.355,0.000
1606143097.861,-41.504,-8.789,-20.996,-47.363,0.000
1606143097.865,-68.359,12.207,-25.879,-166.992,0.000
1606143097.869,-55.176,-40.039,-29.785,-116.699,0.000
1606143097.873,-15.625,-46.875,-25.879,60.059,0.000
1606143097.876,-1.953,-43.945,-22.949,107.422,0.000
1606143097.880,-35.156,-46.875,-28.809,-41.992,0.000
1606143097.884,-75.684,-48.828,-34.668,-178.223,0.000
1606143097.888,-63.965,-46.387,-41.504,-142.090,0.000
1606143097.892,-17.578,-38.574,-38.574,30.273,0.000
1606143097.896,2.441,-35.645,-29.297,103.516,0.000
1606143097.900,-30.762,-30.762,-33.691,-34.668,0.000
1606143097.904,-72.266,24.414,-38.086,-189.453,0.000
1606143097.908,-65.430,13.184,-37.109,-167.969,0.000
1606143097.912,-19.043,-38.574,-37.109,7.324,0.000
1606143097.916,12.207,-35.645,-31.250,100.098,0.000
1606143097.919,-13.672,-36.621,-29.785,-3.906,0.000
1606143097.923,-59.082,-41.992,-32.227,-166.992,0.000
1606143097.927,-59.082,-44.922,-34.180,-169.434,0.000
1606143097.931,-20.508,-41.016,-43.945,3.906,0.000
1606143097.935,9.766,-41.016,-42.480,102.051,0.000
1606143097.939,-9.766,-49.316,-30.273,20.508,0.000
1606143097.943,-52.734,-28.809,-28.320,-134.277,0.000
1606143097.947,-59.082,-33.203,-37.109,-172.363,0.000
1606143097.951,-25.391,-45.898,-30.762,-29.785,0.000
1606143097.955,3.418,-38.086,-23.926,83.008,0.000
1606143097.958,-18.555,-40.527,-28.320,26.855,0.000
1606143097.962,-65.918,-48.828,-29.785,-142.578,0.000
1606143097.966,-71.777,-48.828,-34.668,-193.848,0.000
1606143097.970,-41.016,-44.434,-36.621,-49.805,0.000
1606143097.974,6.836,-41.504,-25.879,89.844,0.000
1606143097.978,-7.812,-41.016,-27.344,61.523,0.000
1606143097.982,-68.359,-43.457,-38.574,-109.863,0.000
1606143097.986,-78.613,-43.945,-39.551,-178.711,0.000
1606143097.990,-39.551,-38.086,-37.109,-49.316,0.000
1606143097.994,-4.883,-30.273,-32.227,91.309,0.000
1606143097.998,-13.672,-45.898,-26.367,69.824,0.000
1606143098.001,-57.617,-9.277,-29.785,-99.121,0.000
1606143098.005,-85.938,30.273,-37.109,-184.082,0.000
1606143098.009,-55.664,-23.438,-29.297,-85.449,0.000
1606143098.013,-14.648,-44.434,-31.250,63.477,0.000
1606143098.017,-12.207,-45.410,-34.180,74.707,0.000
1606143098.021,-50.781,-43.945,-30.762,-61.523,0.000
1606143098.025,-73.242,-34.668,-20.996,-147.949,0.000
1606143098.029,-44.434,-31.738,-22.461,-90.332,0.000
1606143098.033,-1.465,-32.227,-34.180,64.453,0.000
1606143098.037,15.137,-43.945,-26.367,105.469,0.000
1606143098.041,-18.555,-6.348,-28.809,-46.875,0.000
1606143098.044,-54.199,20.020,-30.762,-179.688,0.000
1606143098.048,-35.645,-34.668,-30.273,-126.953,0.000
1606143098.052,12.695,-39.062,-26.855,62.500,0.000
1606143098.056,29.785,-28.320,-13.184,139.648,0.000
1606143098.060,-1.953,-32.715,-23.926,11.719,0.000
1606143098.064,-44.922,-39.551,-41.504,-139.160,0.000
1606143098.068,-30.762,-39.062,-31.738,-97.656,0.000
1606143098.072,23.438,-30.273,-26.367,86.426,0.000
1606143098.076,34.668,-39.062,-27.344,149.414,0.000
1606143098.080,1.953,-25.391,-20.996,43.945,0.000
1606143098.083,-33.203,18.555,-20.020,-94.727,0.000
1606143098.087,-40.039,-10.254,-13.184,-103.516,0.000
1606143098.091,-12.695,-38.574,-12.207,33.203,0.000
1606143098.095,6.836,-38.574,-22.461,115.723,0.000
1606143098.099,-16.113,-29.297,-25.879,35.645,0.000
1606143098.103,-62.500,-12.207,-27.344,-131.348,0.000
1606143098.107,-65.430,-39.551,-23.926,-160.645,0.000
1606143098.111,-23.926,-50.293,-20.020,-0.488,0.000
1606143098.115,-3.906,-40.527,-17.578,123.535,0.000
1606143098.119,-25.391,-40.039,-20.508,54.688,0.000
1606143098.123,-68.359,-42.969,-24.902,-129.395,0.000
1606143098.126,-76.172,-42.480,-31.250,-178.711,0.000
1606143098.130,-46.875,-39.551,-34.180,-39.062,0.000
1606143098.134,-6.836,-42.969,-34.668,77.637,0.000
1606143098.138,-17.090,-44.922,-36.621,27.344,0.000
1606143098.142,-85.938,-12.207,-42.969,-150.879,0.000
1606143098.146,-92.285,-9.277,-38.086,-206.543,0.000
1606143098.150,-50.293,-39.062,-39.062,-82.031,0.000
1606143098.154,-13.184,-34.668,-44.434,64.453,0.000
1606143098.158,-20.996,-32.227,-43.457,49.316,0.000
1606143098.162,-66.895,-29.785,-45.410,-125.488,0.000
1606143098.166,-85.449,-36.133,-46.875,-201.660,0.000
1606143098.169,-55.176,-40.039,-43.457,-89.844,0.000
1606143098.173,-20.508,-37.598,-35.645,75.684,0.000
1606143098.177,-18.066,-43.945,-29.297,94.727,0.000
1606143098.181,-46.387,-1.465,-33.691,-59.082,0.000
1606143098.185,-69.824,39.062,-39.062,-172.363,0.000
1606143098.189,-57.617,-14.648,-37.598,-95.703,0.000
1606143098.193,-20.996,-42.480,-34.180,80.078,0.000
1606143098.197,-9.277,-38.574,-23.926,115.723,0.000
1606143098.201,-43.457,-41.016,-26.855,-47.363,0.000
1606143098.205,-75.684,-44.922,-37.598,-168.457,0.000
1606143098.208,-52.734,-42.969,-31.250,-87.891,0.000
1606143098.212,0.488,-34.668,-23.438,91.797,0.000
1606143098.216,10.742,-48.828,-21.484,136.230,0.000
1606143098.220,-20.020,-9.766,-26.367,2.441,0.000
1606143098.224,-49.805,23.438,-31.250,-133.789,0.000
1606143098.228,-53.223,-34.180,-28.809,-112.793,0.000
1606143098.232,-8.301,-42.480,-22.461,61.523,0.000
1606143098.236,13.184,-49.805,-21.484,121.094,0.000
1606143098.240,-13.672,-31.250,-26.367,0.488,0.000
1606143098.244,-40.527,-14.160,-21.973,-132.324,0.000
1606143098.248,-32.715,-37.598,-14.160,-118.652,0.000
1606143098.251,5.859,-37.109,-20.020,39.062,0.000
1606143098.255,23.438,-40.039,-20.996,116.699,0.000
1606143098.259,-2.930,-34.180,-20.996,18.066,0.000
1606143098.263,-45.898,-28.809,-26.367,-141.113,0.000
1606143098.267,-48.340,-38.086,-27.832,-153.809,0.000
1606143098.271,0.000,-33.691,-24.414,20.996,0.000
1606143098.275,25.879,-26.855,-22.949,132.324,0.000
1606143098.279,-4.883,-43.945,-31.738,26.855,0.000
1606143098.283,-43.457,62.012,-33.691,-150.391,0.000
1606143098.287,-50.293,111.816,-26.367,-176.270,0.000
1606143098.291,-20.996,-16.113,-25.391,-37.598,0.000
1606143098.294,11.719,-52.734,-28.809,83.984,0.000
1606143098.298,-0.977,-43.945,-28.320,34.180,0.000
1606143098.302,-46.875,-39.551,-30.273,-132.812,0.000
1606143098.306,-63.477,-46.387,-32.227,-180.176,0.000
1606143098.310,-35.645,-50.293,-26.367,-44.434,0.000
1606143098.314,0.977,-39.062,-18.066,104.492,0.000
1606143098.318,-7.812,-48.828,-24.414,75.195,0.000
1606143098.322,-60.547,13.184,-33.691,-118.652,0.000
1606143098.326,-83.008,23.438,-32.227,-197.266,0.000
1606143098.330,-51.758,-45.898,-27.832,-75.684,0.000
1606143098.333,-3.418,-44.922,-26.367,88.379,0.000
1606143098.337,-8.301,-55.176,-29.297,78.125,0.000
1606143098.341,-57.129,-54.688,-25.879,-98.145,0.000
1606143098.345,-69.824,-45.410,-23.438,-178.711,0.000
1606143098.349,-57.617,-45.898,-32.227,-81.055,0.000
1606143098.353,-11.719,-44.434,-35.645,72.754,0.000
1606143098.357,0.977,-44.922,-32.227,97.656,0.000
1606143098.361,-57.129,-31.250,-32.715,-53.223,0.000
1606143098.365,-77.637,-21.973,-29.297,-156.738,0.000
1606143098.369,-57.129,-38.086,-28.320,-92.285,0.000
1606143098.373,-19.043,-36.621,-24.902,61.523,0.000
1606143098.376,-4.395,-44.434,-16.602,106.445,0.000
1606143098.380,-34.668,-6.348,-20.508,-27.344,0.000
1606143098.384,-67.871,53.223,-25.391,-144.531,0.000
1606143098.388,-52.246,-1.953,-31.738,-110.840,0.000
1606143098.392,-8.789,-38.574,-30.273,46.387,0.000
1606143098.396,5.859,-32.715,-25.879,113.281,0.000
1606143098.400,-20.508,-31.250,-28.809,-8.789,0.000
1606143098.404,-54.199,-33.203,-31.250,-149.902,0.000
1606143098.408,-49.316,-42.969,-29.297,-127.441,0.000
1606143098.412,-2.930,-37.598,-20.020,48.828,0.000
1606143098.416,13.184,-39.062,-15.137,125.000,0.000
1606143098.419,-20.996,-25.391,-19.531,7.812,0.000
1606143098.423,-55.664,4.883,-23.438,-137.207,0.000
1606143098.427,-52.246,-22.949,-23.926,-135.254,0.000
1606143098.431,-15.137,-45.898,-25.879,22.461,0.000
1606143098.435,8.301,-41.016,-18.066,125.977,0.000
1606143098.439,-2.441,-39.551,-14.160,40.527,0.000
1606143098.443,-52.734,-36.133,-18.555,-131.836,0.000
1606143098.447,-73.730,-39.062,-20.020,-150.879,0.000
1606143098.451,-26.367,-35.645,-14.648,10.254,0.000
1606143098.455,-1.465,-24.414,-12.695,116.211,0.000
1606143098.458,-16.602,-47.852,-14.648,51.758,0.000
1606143098.462,-60.059,53.223,-23.926,-123.535,0.000
1606143098.466,-76.172,96.191,-36.621,-192.383,0.000
1606143098.470,-39.062,-34.668,-31.738,-52.734,0.000
1606143098.474,-7.324,-48.828,-27.344,86.914,0.000
1606143098.478,-23.438,-41.992,-33.203,46.875,0.000
1606143098.482,-65.918,-43.945,-34.180,-121.094,0.000
1606143098.486,-76.172,-41.992,-37.109,-196.777,0.000
1606143098.490,-40.039,-41.504,-38.086,-81.055,0.000
1606143098.494,0.488,-38.574,-28.320,80.078,0.000
1606143098.498,-6.348,-48.340,-28.320,64.941,0.000
1606143098.501,-49.316,-20.996,-34.668,-110.840,0.000
1606143098.505,-62.988,-13.672,-41.992,-185.059,0.000
1606143098.509,-30.273,-44.922,-43.457,-79.590,0.000
1606143098.513,4.395,-45.410,-40.527,70.801,0.000
1606143098.517,-4.395,-57.129,-35.156,76.660,0.000
1606143098.521,-45.898,-26.367,-33.691,-69.824,0.000
1606143098.525,-74.219,-19.531,-31.738,-172.852,0.000
1606143098.529,-54.199,-48.828,-24.902,-99.121,0.000
1606143098.533,-5.859,-47.363,-16.602,73.730,0.000
1606143098.537,-1.953,-56.152,-12.207,111.816,0.000
1606143098.541,-43.457,-51.270,-20.020,-49.316,0.000
1606143098.544,-69.336,-46.875,-29.297,-179.688,0.000
1606143098.548,-50.293,-50.293,-29.297,-115.723,0.000
1606143098.552,0.977,-37.109,-26.855,72.266,0.000
1606143098.556,18.066,-42.480,-28.809,125.488,0.000
1606143098.560,-17.578,-19.531,-32.715,-30.273,0.000
1606143098.564,-57.617,79.102,-30.762,-154.785,0.000
1606143098.568,-49.316,35.156,-24.902,-114.258,0.000
1606143098.572,-7.324,-45.410,-23.438,50.293,0.000
1606143098.576,-4.883,-46.387,-19.531,129.883,0.000
1606143098.580,-29.785,-42.969,-19.531,5.371,0.000
1606143098.583,-62.500,-37.109,-25.879,-150.391,0.000
1606143098.587,-56.641,-45.898,-27.832,-145.996,0.000
1606143098.591,-8.789,-43.457,-28.809,25.879,0.000
1606143098.595,12.695,-45.410,-30.762,126.953,0.000
1606143098.599,-12.207,-38.574,-26.855,29.785,0.000
1606143098.603,-46.875,19.043,-30.762,-136.719,0.000
1606143098.607,-48.828,-4.883,-36.133,-154.785,0.000
1606143098.611,-11.230,-46.875,-22.949,15.137,0.000
1606143098.615,15.625,-42.480,-19.531,125.977,0.000
1606143098.619,-5.859,-43.457,-18.555,43.945,0.000
1606143098.623,-55.664,-39.062,-29.785,-131.348,0.000
1606143098.626,-62.012,-40.039,-40.527,-174.805,0.000
1606143098.630,-22.949,-33.691,-35.156,-25.391,0.000
1606143098.634,26.367,-29.785,-31.250,102.051,0.000
1606143098.638,7.812,-33.203,-34.180,48.340,0.000
1606143098.642,-50.781,-13.184,-36.133,-113.770,0.000
1606143098.646,-44.922,-10.254,-35.156,-161.133,0.000
1606143098.650,-20.508,-30.762,-37.109,-41.504,0.000
1606143098.654,-0.977,-41.504,-31.250,88.379,0.000
1606143098.658,-13.672,-44.922,-29.297,55.664,0.000
1606143098.662,-62.988,-16.113,-32.715,-119.141,0.000
1606143098.666,-71.777,-17.090,-29.785,-194.824,0.000
1606143098.669,-41.992,-43.457,-27.344,-89.844,0.000
1606143098.673,-18.555,-41.992,-24.414,62.988,0.000
1606143098.677,-23.438,-56.152,-24.902,73.730,0.000
1606143098.681,-61.523,-3.418,-26.367,-87.402,0.000
1606143098.685,-79.590,22.461,-20.996,-183.105,0.000
1606143098.689,-63.965,-47.363,-28.809,-95.703,0.000
1606143098.693,-28.320,-48.340,-33.691,69.336,0.000
1606143098.697,-18.555,-62.988,-27.344,87.891,0.000
1606143098.701,-61.523,-20.508,-24.902,-70.312,0.000
1606143098.705,-88.867,18.555,-26.855,-175.293,0.000
1606143098.708,-66.895,-47.363,-23.438,-114.258,0.000
1606143098.712,-15.625,-50.781,-21.973,54.199,0.000
1606143098.716,-0.488,-41.992,-29.785,96.680,0.000
1606143098.720,-38.574,-43.457,-24.902,-41.992,0.000
1606143098.724,-67.871,-41.016,-24.902,-161.621,0.000
1606143098.728,-44.922,-43.945,-19.043,-117.676,0.000
1606143098.732,1.465,-46.875,-16.113,53.223,0.000
1606143098.736,14.648,-47.852,-26.367,117.676,0.000
1606143098.740,-10.742,-26.855,-22.949,0.488,0.000
1606143098.744,-46.387,25.391,-24.414,-146.484,0.000
1606143098.748,-44.434,0.977,-22.461,-142.090,0.000
1606143098.751,-0.977,-42.969,-16.113,22.461,0.000
1606143098.755,20.996,-44.434,-11.230,119.629,0.000
1606143098.759,-6.836,-43.457,-18.066,29.297,0.000
1606143098.763,-52.734,-41.992,-25.391,-127.930,0.000
1606143098.767,-51.270,-52.734,-20.508,-135.742,0.000
1606143098.771,-0.488,-45.898,-17.578,41.992,0.000
1606143098.775,22.461,-42.480,-16.113,147.949,0.000
1606143098.779,-7.812,-43.945,-17.578,51.758,0.000
1606143098.783,-46.875,-35.156,-22.949,-113.770,0.000
1606143098.787,-65.430,-46.875,-26.855,-140.137,0.000
1606143098.791,-45.898,-51.270,-29.785,-1.953,0.000
1606143098.794,-12.695,-43.457,-23.926,114.258,0.000
1606143098.798,-19.531,-49.316,-19.043,62.988,0.000
1606143098.802,-58.594,-23.926,-29.297,-104.004,0.000
1606143098.806,-65.430,-19.531,-29.297,-166.504,0.000
1606143098.810,-29.785,-43.457,-26.367,-40.039,0.000
1606143098.814,0.977,-37.598,-30.273,100.586,0.000
1606143098.818,-7.812,-35.645,-28.809,66.895,0.000
1606143098.822,-48.340,-36.133,-31.738,-107.422,0.000
1606143098.826,-66.406,-37.598,-34.180,-183.594,0.000
1606143098.830,-37.598,-37.109,-37.109,-69.336,0.000
1606143098.833,0.000,-33.691,-43.945,88.379,0.000
1606143098.837,-7.324,-47.852,-41.016,73.242,0.000
1606143098.841,-51.270,-6.348,-37.109,-110.840,0.000
1606143098.845,-71.777,41.016,-39.551,-206.543,0.000
1606143098.849,-46.387,-19.043,-38.086,-111.328,0.000
1606143098.853,-3.906,-47.852,-35.156,55.664,0.000
1606143098.857,-1.465,-44.922,-34.668,73.242,0.000
1606143098.861,-51.270,-46.387,-34.668,-88.379,0.000
1606143098.865,-84.473,-45.410,-28.320,-185.059,0.000
1606143098.869,-54.688,-55.664,-31.250,-114.258,0.000
1606143098.873,-15.137,-57.129,-37.109,50.781,0.000
1606143098.876,-24.902,-63.477,-25.879,100.098,0.000
1606143098.880,-47.363,-39.062,-15.625,-29.785,0.000
1606143098.884,-73.730,-13.184,-27.832,-161.133,0.000
1606143098.888,-71.777,-43.457,-35.156,-130.859,0.000
1606143098.892,-22.949,-50.293,-28.320,49.316,0.000
1606143098.896,-2.441,-45.410,-26.367,117.676,0.000
1606143098.900,-40.039,-43.945,-25.879,-23.926,0.000
1606143098.904,-73.730,-43.457,-29.297,-165.039,0.000
1606143098.908,-64.453,-40.039,-31.250,-141.602,0.000
1606143098.912,-22.949,-36.133,-24.902,30.762,0.000
1606143098.916,-0.977,-41.992,-19.043,118.164,0.000
1606143098.919,-30.273,-36.133,-21.484,9.277,0.000
1606143098.923,-74.707,-34.180,-25.391,-142.090,0.000
1606143098.927,-77.148,-42.480,-34.180,-139.648,0.000
1606143098.931,-34.668,-40.527,-36.133,22.461,0.000
1606143098.935,-5.371,-43.945,-27.344,113.770,0.000
1606143098.939,-20.020,-47.363,-25.391,24.414,0.000
1606143098.943,-54.688,28.809,-26.367,-126.953,0.000
1606143098.947,-54.199,40.527,-28.809,-154.297,0.000
1606143098.951,-18.555,-39.551,-20.508,-10.254,0.000
1606143098.955,30.762,-38.086,-12.207,107.422,0.000
1606143098.958,15.137,-27.344,-22.949,53.711,0.000
1606143098.962,-56.152,-37.109,-27.832,-120.117,0.000
1606143098.966,-57.617,-42.480,-24.414,-170.898,0.000
1606143098.970,-13.672,-36.133,-27.344,-27.344,0.000
1606143098.974,14.648,-27.344,-26.367,104.004,0.000
1606143098.978,0.000,-42.480,-23.438,66.406,0.000
1606143098.982,-52.246,18.555,-31.738,-114.258,0.000
1606143098.986,-74.707,34.180,-35.645,-188.477,0.000
1606143098.990,-36.133,-38.086,-28.809,-62.988,0.000
1606143098.994,-3.906,-41.992,-27.344,80.566,0.000
1606143098.998,-19.531,-44.434,-31.738,62.012,0.000
1606143099.001,-60.547,-41.504,-35.645,-114.258,0.000
1606143099.005,-76.660,-38.086,-32.715,-186.035,0.000
1606143099.009,-44.922,-41.504,-28.320,-69.336,0.000
1606143099.013,-10.742,-41.504,-31.250,72.754,0.000
1606143099.017,-21.973,-53.711,-35.156,78.613,0.000
1606143099.021,-56.641,0.000,-31.738,-62.988,0.000
1606143099.025,-79.102,34.180,-31.250,-175.781,0.000
1606143099.029,-65.430,-34.668,-30.762,-114.746,0.000
1606143099.033,-18.555,-39.551,-22.949,59.082,0.000
1606143099.037,-10.254,-45.898,-26.855,102.539,0.000
1606143099.041,-57.617,-17.578,-39.062,-55.176,0.000
1606143099.044,-71.289,9.766,-34.180,-180.664,0.000
1606143099.048,-45.410,-37.109,-27.832,-115.723,0.000
1606143099.052,-19.043,-39.062,-24.414,61.523,0.000
1606143099.056,-3.418,-35.156,-18.066,105.957,0.000
1606143099.060,-37.598,-41.504,-21.973,-29.297,0.000
1606143099.064,-68.848,-40.527,-33.691,-156.250,0.000
1606143099.068,-45.410,-37.109,-33.203,-128.418,0.000
1606143099.072,2.441,-34.668,-29.785,29.785,0.000
1606143099.076,11.719,-41.992,-30.762,96.680,0.000
1606143099.080,-21.484,-29.785,-24.414,-9.277,0.000
1606143099.083,-48.340,1.953,-23.438,-140.625,0.000
1606143099.087,-40.039,-15.137,-25.391,-128.418,0.000
1606143099.091,-5.859,-31.738,-21.973,34.180,0.000
1606143099.095,14.648,-27.832,-23.438,128.418,0.000
1606143099.099,-9.766,-28.320,-25.391,39.062,0.000
1606143099.103,-54.688,-31.738,-24.414,-123.047,0.000
1606143099.107,-61.035,-41.016,-25.879,-145.996,0.000
1606143099.111,-18.555,-41.992,-14.160,26.367,0.000
1606143099.115,13.672,-34.668,-8.789,146.973,0.000
1606143099.119,-18.555,-57.617,-28.320,53.223,0.000
1606143099.123,-70.801,13.672,-39.551,-127.441,0.000
1606143099.126,-79.590,47.852,-41.992,-180.664,0.000
1606143099.130,-40.527,-41.504,-36.133,-32.227,0.000
1606143099.134,4.883,-47.363,-25.391,109.863,0.000
1606143099.138,-9.277,-43.457,-20.996,65.918,0.000
1606143099.142,-47.363,-44.434,-20.020,-97.168,0.000
1606143099.146,-69.824,-42.480,-21.973,-147.461,0.000
1606143099.150,-48.828,-39.551,-28.809,-21.484,0.000
1606143099.154,-1.465,-28.809,-32.715,118.164,0.000
1606143099.158,-14.160,-45.410,-34.180,93.262,0.000
1606143099.162,-58.594,5.859,-31.250,-86.914,0.000
1606143099.166,-76.660,24.902,-32.715,-175.293,0.000
1606143099.169,-47.363,-46.387,-29.297,-70.312,0.000
1606143099.173,-6.836,-50.293,-23.438,83.496,0.000
1606143099.177,-4.395,-47.852,-31.738,86.426,0.000
1606143099.181,-48.340,-41.992,-33.203,-85.449,0.000
1606143099.185,-74.219,-40.039,-33.691,-186.523,0.000
1606143099.189,-42.480,-42.480,-27.832,-88.379,0.000
1606143099.193,0.977,-38.574,-21.484,81.055,0.000
1606143099.197,0.488,-39.062,-24.902,99.609,0.000
1606143099.201,-41.992,-38.086,-27.344,-69.336,0.000
1606143099.205,-66.406,-35.645,-27.832,-181.152,0.000
1606143099.208,-46.875,-34.180,-24.414,-104.004,0.000
1606143099.212,-0.977,-29.297,-17.578,64.941,0.000
1606143099.216,8.301,-37.109,-16.113,102.051,0.000
1606143099.220,-35.156,-26.367,-24.414,-48.828,0.000
1606143099.224,-62.500,32.715,-30.273,-180.176,0.000
1606143099.228,-50.781,8.789,-31.738,-139.648,0.000
1606143099.232,-14.160,-43.945,-34.180,31.738,0.000
1606143099.236,1.953,-44.922,-35.156,104.004,0.000
1606143099.240,-20.508,-41.992,-30.762,-8.789,0.000
1606143099.244,-55.664,-40.039,-25.879,-147.461,0.000
1606143099.248,-55.176,-47.852,-34.180,-146.484,0.000
1606143099.251,-5.371,-41.016,-30.762,24.414,0.000
1606143099.255,22.461,-37.109,-18.555,124.023,0.000
1606143099.259,2.930,-27.832,-19.043,15.137,0.000
1606143099.263,-49.805,10.254,-30.273,-143.066,0.000
1606143099.267,-55.176,-18.555,-37.109,-154.297,0.000
1606143099.271,-5.859,-47.852,-30.273,19.043,0.000
1606143099.275,15.625,-41.016,-26.855,132.324,0.000
1606143099.279,-9.277,-44.922,-32.715,40.527,0.000
1606143099.283,-45.410,-44.922,-40.039,-127.930,0.000
1606143099.287,-40.039,-37.109,-35.645,-154.297,0.000
1606143099.291,-0.977,-27.832,-32.715,5.371,0.000
1606143099.294,26.855,-23.926,-31.250,126.953,0.000
1606143099.298,10.254,-39.062,-28.809,71.289,0.000
1606143099.302,-35.645,42.480,-24.902,-91.309,0.000
1606143099.306,-52.734,73.242,-27.832,-157.715,0.000
1606143099.310,-22.461,-27.344,-27.344,-38.574,0.000
1606143099.314,10.254,-41.016,-29.785,92.773,0.000
1606143099.318,0.488,-42.480,-34.668,63.477,0.000
1606143099.322,-46.387,-41.016,-37.109,-104.980,0.000
1606143099.326,-60.547,-37.598,-38.086,-173.828,0.000
1606143099.330,-27.344,-44.922,-36.621,-49.805,0.000
1606143099.333,10.254,-41.992,-32.227,104.492,0.000
1606143099.337,9.766,-42.480,-30.762,96.680,0.000
1606143099.341,-39.062,-41.992,-36.621,-82.520,0.000
1606143099.345,-43.457,-36.621,-35.645,-170.898,0.000
1606143099.349,-17.090,-35.156,-30.762,-75.684,0.000
1606143099.353,1.465,-32.227,-31.250,71.289,0.000
1606143099.357,13.184,-47.852,-32.227,97.168,0.000
1606143099.361,-23.438,6.836,-34.668,-64.453,0.000
1606143099.365,-54.688,41.016,-32.227,-181.641,0.000
1606143099.369,-39.551,-37.598,-34.668,-109.863,0.000
1606143099.373,4.395,-44.434,-30.762,62.012,0.000
1606143099.376,15.137,-29.785,-23.926,101.074,0.000
1606143099.380,-23.438,-23.926,-27.344,-43.457,0.000
1606143099.384,-64.941,-30.273,-31.738,-165.527,0.000
1606143099.388,-54.199,-35.645,-32.227,-119.141,0.000
1606143099.392,-4.883,-25.391,-24.902,54.688,0.000
1606143099.396,17.578,-33.691,-25.391,117.676,0.000
1606143099.400,-25.391,-27.344,-27.344,-15.137,0.000
1606143099.404,-72.266,29.785,-29.297,-164.551,0.000
1606143099.408,-61.523,10.742,-34.180,-145.020,0.000
1606143099.412,-14.648,-40.039,-26.855,31.738,0.000
1606143099.416,-2.441,-38.574,-21.973,116.699,0.000
1606143099.419,-38.086,-39.551,-28.320,6.836,0.000
1606143099.423,-69.824,-35.156,-27.344,-149.902,0.000
1606143099.427,-58.594,-34.668,-23.438,-149.414,0.000
1606143099.431,-20.020,-33.691,-24.902,18.555,0.000
1606143099.435,16.113,-34.180,-24.902,118.164,0.000
1606143099.439,-1.465,-26.855,-24.902,41.016,0.000
1606143099.443,-54.688,27.832,-20.996,-114.258,0.000
1606143099.447,-53.223,9.766,-20.508,-145.996,0.000
1606143099.451,-11.230,-33.203,-21.484,7.812,0.000
1606143099.455,19.043,-28.809,-18.066,120.605,0.000
1606143099.458,-3.418,-33.691,-15.137,59.570,0.000
1606143099.462,-42.969,-33.691,-9.766,-104.004,0.000
1606143099.466,-47.363,-32.715,-6.836,-150.391,0.000
1606143099.470,-14.648,-30.762,-11.230,-3.906,0.000
1606143099.474,16.113,-32.227,-16.602,128.906,0.000
1606143099.478,0.977,-26.367,-19.531,74.219,0.000
1606143099.482,-41.992,-15.137,-15.625,-98.145,0.000
1606143099.486,-56.152,-21.973,-18.555,-157.715,0.000
1606143099.490,-22.461,-32.227,-27.832,-26.367,0.000
1606143099.494,11.230,-24.902,-26.367,113.770,0.000
1606143099.498,3.906,-38.574,-25.391,82.520,0.000
1606143099.501,-40.527,10.254,-26.367,-96.191,0.000
1606143099.505,-72.266,66.895,-25.391,-177.734,0.000
1606143099.509,-45.410,-10.742,-30.273,-75.195,0.000
1606143099.513,-2.441,-47.852,-26.367,69.336,0.000
1606143099.517,-1.953,-39.062,-21.973,79.590,0.000
1606143099.521,-44.434,-38.086,-32.715,-75.195,0.000
1606143099.525,-63.477,-42.969,-37.109,-189.453,0.000
1606143099.529,-48.828,-41.992,-32.227,-104.980,0.000
1606143099.533,-12.207,-24.414,-23.926,73.730,0.000
1606143099.537,-9.766,-38.574,-32.227,94.238,0.000
1606143099.541,-55.176,-10.254,-46.387,-73.242,0.000
1606143099.544,-75.684,27.344,-42.480,-190.918,0.000
1606143099.548,-56.152,-28.320,-34.668,-119.141,0.000
1606143099.552,-8.789,-41.504,-28.809,53.711,0.000
1606143099.556,1.465,-36.621,-29.785,102.051,0.000
1606143099.560,-38.086,-41.992,-33.691,-23.438,0.000
1606143099.564,-73.730,-48.340,-36.621,-154.785,0.000
1606143099.568,-66.895,-51.758,-38.574,-120.605,0.000
1606143099.572,-27.344,-41.992,-28.320,52.246,0.000
1606143099.576,-7.324,-44.434,-20.996,123.535,0.000
1606143099.580,-31.250,-28.320,-28.320,7.324,0.000
1606143099.583,-67.383,25.879,-32.227,-132.812,0.000
1606143099.587,-57.129,-4.883,-23.438,-122.070,0.000
1606143099.591,-10.254,-47.363,-25.879,29.785,0.000
1606143099.595,9.766,-48.828,-34.668,108.398,0.000
1606143099.599,-13.672,-39.062,-36.133,11.719,0.000
1606143099.603,-53.711,-1.953,-39.551,-138.672,0.000
1606143099.607,-61.523,-29.785,-41.504,-153.809,0.000
1606143099.611,-18.555,-54.688,-38.086,-1.953,0.000
1606143099.615,22.461,-41.016,-28.809,108.887,0.000
1606143099.619,-13.672,-43.457,-28.809,27.344,0.000
1606143099.623,-67.383,-37.598,-38.574,-148.438,0.000
1606143099.626,-60.059,-34.668,-38.086,-176.270,0.000
1606143099.630,-20.508,-33.203,-24.414,-13.672,0.000
1606143099.634,6.836,-33.691,-26.855,104.004,0.000
1606143099.638,-14.160,-50.781,-25.879,35.645,0.000
1606143099.642,-55.664,19.043,-15.137,-127.930,0.000
1606143099.646,-65.918,29.297,-28.320,-180.176,0.000
1606143099.650,-41.992,-48.828,-38.086,-61.035,0.000
1606143099.654,-6.836,-42.969,-32.715,79.102,0.000
1606143099.658,-10.742,-39.551,-30.762,58.105,0.000
1606143099.662,-55.176,-42.480,-32.227,-111.816,0.000
1606143099.666,-72.754,-42.969,-36.133,-189.941,0.000
1606143099.669,-44.434,-44.922,-29.297,-72.266,0.000
1606143099.673,-10.742,-38.574,-21.484,88.379,0.000
1606143099.677,-0.977,-46.387,-22.949,94.727,0.000
1606143099.681,-47.363,-7.324,-31.250,-68.848,0.000
1606143099.685,-91.309,28.320,-33.691,-171.387,0.000
1606143099.689,-69.824,-33.203,-27.344,-91.797,0.000
1606143099.693,-23.926,-52.246,-23.926,75.684,0.000
1606143099.697,-18.555,-46.387,-26.367,96.191,0.000
1606143099.701,-62.988,-49.805,-24.414,-62.012,0.000
1606143099.705,-82.520,-49.805,-15.137,-171.387,0.000
1606143099.708,-57.617,-43.945,-21.484,-104.492,0.000
1606143099.712,-11.719,-41.504,-23.926,70.312,0.000
1606143099.716,6.836,-53.223,-25.879,104.492,0.000
1606143099.720,-39.551,-26.855,-33.203,-45.410,0.000
1606143099.724,-76.660,-8.301,-35.156,-170.410,0.000
1606143099.728,-65.918,-44.434,-38.574,-138.184,0.000
1606143099.732,-21.484,-45.410,-32.227,44.434,0.000
1606143099.736,-0.488,-44.434,-26.367,115.723,0.000
1606143099.740,-32.227,-41.992,-24.414,-15.625,0.000
1606143099.744,-67.871,-33.691,-32.227,-152.344,0.000
1606143099.748,-60.547,-46.387,-31.250,-144.531,0.000
1606143099.751,-14.648,-41.016,-16.602,27.344,0.000
1606143099.755,20.508,-34.668,-5.859,127.930,0.000
1606143099.759,-25.391,-41.016,-15.625,21.484,0.000
1606143099.763,-80.566,-41.992,-29.297,-135.254,0.000
1606143099.767,-65.430,-45.898,-28.809,-135.254,0.000
1606143099.771,-22.949,-45.898,-30.273,37.598,0.000
1606143099.775,0.000,-37.598,-25.391,141.113,0.000
1606143099.779,-23.438,-50.781,-20.996,46.387,0.000
1606143099.783,-59.570,15.137,-24.414,-117.676,0.000
1606143099.787,-55.176,46.387,-15.137,-136.719,0.000
1606143099.791,-15.625,-32.227,-11.230,12.695,0.000
1606143099.794,6.836,-45.410,-22.461,122.070,0.000
1606143099.798,-8.301,-41.016,-20.020,66.895,0.000
1606143099.802,-40.527,-35.645,-19.531,-87.402,0.000
1606143099.806,-49.805,-39.551,-20.020,-137.695,0.000
1606143099.810,-22.461,-46.387,-20.996,-15.625,0.000
1606143099.814,19.043,-36.133,-24.902,122.559,0.000
1606143099.818,14.648,-48.828,-29.297,85.938,0.000
1606143099.822,-32.227,1.953,-30.762,-98.145,0.000
1606143099.826,-48.828,27.344,-24.414,-156.250,0.000
1606143099.830,-21.484,-37.598,-25.391,-40.039,0.000
1606143099.833,28.320,-37.109,-25.879,100.586,0.000
1606143099.837,12.695,-36.621,-22.461,92.773,0.000
1606143099.841,-49.805,-39.551,-20.996,-76.660,0.000
1606143099.845,-70.801,-41.992,-27.344,-173.340,0.000
1606143099.849,-45.410,-46.875,-27.344,-83.496,0.000
1606143099.853,-0.977,-39.062,-16.602,80.078,0.000
1606143099.857,-1.953,-49.805,-18.555,91.309,0.000
1606143099.861,-41.992,-6.348,-22.949,-58.594,0.000
1606143099.865,-68.848,9.277,-16.602,-161.133,0.000
1606143099.869,-48.828,-37.598,-17.090,-103.516,0.000
1606143099.873,-9.277,-33.691,-28.320,44.922,0.000
1606143099.876,-14.648,-49.805,-30.273,68.359,0.000
1606143099.880,-49.805,-21.973,-27.344,-72.754,0.000
1606143099.884,-76.660,34.668,-37.109,-192.383,0.000
1606143099.888,-61.035,-16.602,-41.992,-128.418,0.000
1606143099.892,-20.020,-50.293,-36.621,51.758,0.000
1606143099.896,-3.418,-43.945,-31.250,101.562,0.000
1606143099.900,-38.574,-39.551,-24.902,-17.090,0.000
1606143099.904,-96.191,-42.969,-25.391,-151.855,0.000
1606143099.908,-85.449,-48.340,-22.461,-123.535,0.000
1606143099.912,-37.109,-45.410,-24.902,50.293,0.000
1606143099.916,-23.438,-50.781,-31.250,118.652,0.000
1606143099.919,-48.340,-42.480,-25.879,13.672,0.000
1606143099.923,-76.172,-34.180,-30.762,-147.461,0.000
1606143099.927,-68.848,-45.898,-37.598,-147.949,0.000
1606143099.931,-20.508,-40.527,-28.809,30.273,0.000
1606143099.935,11.719,-34.180,-24.902,125.000,0.000
1606143099.939,-3.906,-31.738,-20.508,34.668,0.000
1606143099.943,-48.828,-26.367,-23.438,-121.582,0.000
1606143099.947,-43.457,-30.273,-34.668,-146.973,0.000
1606143099.951,6.348,-32.227,-30.762,8.789,0.000
1606143099.955,21.484,-29.785,-29.785,129.883,0.000
1606143099.958,8.789,-32.227,-28.320,75.684,0.000
1606143099.962,-21.484,10.742,-20.020,-81.055,0.000
1606143099.966,-21.973,33.203,-20.508,-128.906,0.000
1606143099.970,9.766,-17.578,-24.414,-6.836,0.000
1606143099.974,34.180,-26.855,-24.902,113.281,0.000
1606143099.978,27.832,-18.066,-32.715,77.637,0.000
1606143099.982,-11.719,-20.508,-34.180,-94.727,0.000
1606143099.986,-36.621,-28.809,-26.367,-162.598,0.000
1606143099.990,-12.695,-27.344,-25.391,-40.039,0.000
1606143099.994,19.043,-23.438,-26.855,110.840,0.000
1606143099.998,11.719,-33.203,-16.113,102.051,0.000
1606143100.001,-16.113,4.395,-19.531,-54.688,0.000
1606143100.005,-47.852,8.301,-27.344,-138.184,0.000
1606143100.009,-42.480,-34.180,-24.902,-57.617,0.000
1606143100.013,4.395,-30.273,-22.949,96.680,0.000
1606143100.017,6.348,-32.715,-21.973,108.887,0.000
1606143100.021,-34.668,-22.949,-29.785,-54.199,0.000
1606143100.025,-57.129,-25.391,-21.973,-159.668,0.000
1606143100.029,-36.621,-38.574,-19.043,-77.637,0.000
1606143100.033,1.953,-32.715,-23.438,84.473,0.000
1606143100.037,10.254,-33.691,-18.066,105.469,0.000
1606143100.041,-32.715,-33.203,-23.438,-52.246,0.000
1606143100.044,-70.312,-37.109,-24.414,-181.152,0.000
1606143100.048,-53.711,-40.527,-30.273,-122.559,0.000
1606143100.052,-7.324,-31.738,-32.227,57.129,0.000
1606143100.056,-0.488,-39.551,-33.691,102.051,0.000
1606143100.060,-40.039,-22.949,-43.457,-46.875,0.000
1606143100.064,-66.895,71.289,-41.016,-178.711,0.000
1606143100.068,-57.617,36.133,-38.574,-149.902,0.000
1606143100.072,-5.859,-49.316,-40.039,13.184,0.000
1606143100.076,17.578,-45.898,-36.621,94.238,0.000
1606143100.080,-36.621,-49.316,-35.156,-24.414,0.000
1606143100.083,-73.730,-51.758,-40.039,-169.434,0.000
1606143100.087,-60.547,-52.246,-34.668,-148.438,0.000
1606143100.091,-20.020,-47.852,-33.203,21.973,0.000
1606143100.095,3.418,-46.875,-32.715,117.188,0.000
1606143100.099,-21.973,-41.016,-30.273,40.527,0.000
1606143100.103,-66.406,19.043,-32.227,-122.070,0.000
1606143100.107,-68.359,0.977,-25.391,-145.508,0.000
1606143100.111,-22.461,-51.270,-20.508,27.344,0.000
1606143100.115,9.277,-45.898,-25.879,125.000,0.000
1606143100.119,-10.742,-47.852,-23.438,50.293,0.000
1606143100.123,-52.734,-46.875,-24.902,-107.910,0.000
1606143100.126,-58.105,-47.363,-28.320,-144.043,0.000
1606143100.130,-17.090,-45.410,-22.461,14.648,0.000
1606143100.134,17.090,-41.992,-17.090,141.602,0.000
1606143100.138,1.953,-41.016,-19.043,89.844,0.000
1606143100.142,-37.598,-27.832,-20.020,-71.289,0.000
1606143100.146,-26.855,-28.320,-21.484,-123.535,0.000
1606143100.150,5.371,-36.133,-15.137,-0.977,0.000
1606143100.154,28.320,-27.832,-0.488,137.695,0.000
1606143100.158,30.273,-41.992,-13.184,106.445,0.000
1606143100.162,-19.531,12.207,-24.414,-72.266,0.000
1606143100.166,-40.527,62.500,-19.531,-144.531,0.000
1606143100.169,-6.348,-15.137,-14.648,-38.086,0.000
1606143100.173,24.902,-38.574,-8.789,108.887,0.000
1606143100.177,16.602,-27.832,-7.812,107.910,0.000
1606143100.181,-19.043,-33.691,-13.672,-56.641,0.000
1606143100.185,-42.480,-35.645,-17.578,-149.414,0.000
1606143100.189,-17.578,-30.762,-15.137,-58.594,0.000
1606143100.193,18.066,-26.367,-8.789,99.121,0.000
1606143100.197,6.836,-44.434,-10.254,109.375,0.000
1606143100.201,-39.062,4.395,-20.996,-62.500,0.000
1606143100.205,-69.824,48.340,-18.555,-178.223,0.000
1606143100.208,-54.688,-21.484,-23.438,-108.398,0.000
1606143100.212,-10.742,-41.504,-20.508,59.570,0.000
1606143100.216,-7.812,-41.504,-13.672,95.703,0.000
1606143100.220,-52.246,-43.457,-25.391,-53.711,0.000
1606143100.224,-84.473,-40.527,-28.320,-174.805,0.000
1606143100.228,-67.871,-46.387,-24.414,-128.906,0.000
1606143100.232,-34.180,-46.875,-33.203,28.320,0.000
1606143100.236,-15.137,-52.246,-41.504,85.449,0.000
1606143100.240,-46.387,-48.340,-38.086,-20.996,0.000
1606143100.244,-103.027,13.672,-39.062,-163.574,0.000
1606143100.248,-94.727,0.000,-38.574,-156.250,0.000
1606143100.251,-54.199,-59.082,-37.598,11.230,0.000
1606143100.255,-25.391,-53.223,-31.738,104.980,0.000
1606143100.259,-50.293,-52.734,-34.668,4.395,0.000
1606143100.263,-91.309,-57.129,-40.039,-147.461,0.000
1606143100.267,-79.590,-51.270,-39.062,-148.438,0.000
1606143100.271,-27.344,-40.039,-43.457,17.090,0.000
1606143100.275,3.418,-37.109,-41.992,118.652,0.000
1606143100.279,-22.949,-37.109,-45.410,23.438,0.000
1606143100.283,-59.082,-26.367,-51.758,-138.672,0.000
1606143100.287,-50.781,-33.203,-47.852,-165.527,0.000
1606143100.291,-10.254,-34.668,-45.898,-19.043,0.000
1606143100.294,16.602,-27.832,-43.457,112.305,0.000
1606143100.298,0.977,-35.645,-40.527,58.105,0.000
1606143100.302,-42.969,1.953,-40.039,-113.281,0.000
1606143100.306,-44.922,7.812,-38.086,-161.133,0.000
1606143100.310,-5.859,-29.297,-34.668,-25.879,0.000
1606143100.314,37.598,-23.438,-36.621,110.352,0.000
1606143100.318,38.574,-20.020,-38.086,88.379,0.000
1606143100.322,-31.738,-22.949,-36.621,-77.637,0.000
1606143100.326,-56.152,-22.461,-34.668,-154.297,0.000
1606143100.330,-16.113,-21.973,-30.762,-39.551,0.000
1606143100.333,23.438,-17.578,-28.809,111.816,0.000
1606143100.337,18.555,-31.250,-32.715,107.422,0.000
1606143100.341,-29.297,-6.836,-32.715,-66.895,0.000
1606143100.345,-53.223,32.715,-25.391,-159.668,0.000
1606143100.349,-33.691,-13.184,-20.508,-63.477,0.000
1606143100.353,-3.418,-37.598,-14.648,86.426,0.000
1606143100.357,-8.789,-33.203,-12.695,95.215,0.000
1606143100.361,-53.223,-41.992,-23.438,-65.430,0.000
1606143100.365,-82.031,-49.316,-30.273,-170.898,0.000
1606143100.369,-62.012,-54.199,-29.297,-97.656,0.000
1606143100.373,-25.391,-49.316,-26.855,60.059,0.000
1606143100.376,-1.465,-54.199,-25.879,99.609,0.000
1606143100.380,-31.250,-23.438,-21.973,-34.180,0.000
1606143100.384,-83.984,2.930,-25.879,-171.387,0.000
1606143100.388,-66.895,-41.504,-32.227,-134.766,0.000
1606143100.392,-23.438,-52.734,-32.227,29.785,0.000
1606143100.396,-15.625,-43.945,-28.320,88.867,0.000
1606143100.400,-53.223,-45.410,-33.691,-43.945,0.000
1606143100.404,-77.148,-43.945,-44.922,-189.941,0.000
1606143100.408,-68.848,-50.781,-43.457,-160.156,0.000
1606143100.412,-49.316,-59.082,-34.668,5.859,0.000
1606143100.416,-42.480,-58.105,-29.297,74.707,0.000
1606143100.419,-62.012,-54.199,-26.367,-21.484,0.000
1606143100.423,-90.332,-51.270,-34.180,-171.387,0.000
1606143100.427,-83.496,-56.152,-37.598,-178.711,0.000
1606143100.431,-42.480,-53.711,-25.391,-2.930,0.000
1606143100.435,-9.277,-45.898,-12.695,98.633,0.000
1606143100.439,-37.598,-53.711,-13.184,18.555,0.000
1606143100.443,-83.008,3.906,-25.879,-130.371,0.000
1606143100.447,-72.266,25.391,-21.973,-140.625,0.000
1606143100.451,-33.691,-37.109,-15.137,21.973,0.000
1606143100.455,-7.812,-48.828,-19.531,119.141,0.000
1606143100.458,-22.461,-48.340,-20.020,48.828,0.000
1606143100.462,-61.523,-47.363,-20.020,-111.816,0.000
1606143100.466,-65.430,-47.363,-21.973,-157.715,0.000
1606143100.470,-28.320,-43.457,-20.020,-6.348,0.000
1606143100.474,5.859,-39.062,-15.625,131.836,0.000
1606143100.478,-13.184,-49.805,-18.555,70.801,0.000
1606143100.482,-57.617,-19.043,-20.508,-113.770,0.000
1606143100.486,-66.406,-11.230,-24.902,-177.734,0.000
1606143100.490,-35.645,-46.387,-30.273,-51.270,0.000
1606143100.494,6.348,-34.668,-24.902,103.516,0.000
1606143100.498,9.277,-24.902,-20.020,95.215,0.000
1606143100.501,-27.344,-25.879,-23.926,-74.707,0.000
1606143100.505,-44.922,-31.738,-25.879,-156.250,0.000
1606143100.509,-20.996,-32.227,-21.973,-63.965,0.000
1606143100.513,11.230,-20.996,-18.555,85.449,0.000
1606143100.517,8.789,-34.180,-19.043,104.492,0.000
1606143100.521,-34.180,-10.742,-14.648,-48.828,0.000
1606143100.525,-60.547,40.527,-15.625,-157.227,0.000
1606143100.529,-50.781,-9.277,-33.203,-101.562,0.000
1606143100.533,-21.973,-43.457,-33.203,53.223,0.000
1606143100.537,0.977,-34.668,-22.461,88.867,0.000
1606143100.541,-32.227,-33.203,-17.090,-47.852,0.000
1606143100.544,-78.613,-38.086,-18.555,-174.316,0.000
1606143100.548,-58.594,-45.898,-24.414,-138.184,0.000
1606143100.552,-12.695,-40.039,-22.949,35.156,0.000
1606143100.556,2.930,-33.691,-14.160,95.215,0.000
1606143100.560,-31.250,-32.715,-15.625,-38.574,0.000
1606143100.564,-58.594,-30.762,-18.066,-166.504,0.000
1606143100.568,-45.410,-34.668,-18.555,-127.930,0.000
1606143100.572,-17.090,-37.109,-24.414,33.203,0.000
1606143100.576,-2.441,-44.922,-26.855,86.426,0.000
1606143100.580,-27.344,-32.227,-19.531,-31.250,0.000
1606143100.583,-64.941,11.230,-25.879,-165.527,0.000
1606143100.587,-58.105,-15.137,-28.809,-153.320,0.000
1606143100.591,-14.648,-38.574,-19.531,19.531,0.000
1606143100.595,3.906,-39.062,-23.926,113.770,0.000
1606143100.599,-25.391,-44.434,-31.250,13.672,0.000
1606143100.603,-66.406,-38.574,-36.621,-138.184,0.000
1606143100.607,-63.477,-39.551,-31.250,-151.855,0.000
1606143100.611,-21.484,-35.156,-27.344,1.953,0.000
1606143100.615,0.000,-29.297,-24.902,114.746,0.000
1606143100.619,-23.926,-46.875,-26.367,26.367,0.000
1606143100.623,-62.988,11.719,-35.645,-142.578,0.000
1606143100.626,-67.383,47.852,-35.645,-163.086,0.000
1606143100.630,-32.227,-26.367,-33.691,-21.484,0.000
1606143100.634,-0.488,-37.598,-24.902,104.492,0.000
1606143100.638,-13.672,-33.203,-21.973,61.523,0.000
1606143100.642,-52.734,-36.621,-30.762,-105.469,0.000
1606143100.646,-62.500,-36.133,-31.250,-158.203,0.000
1606143100.650,-25.391,-35.156,-24.414,-34.668,0.000
1606143100.654,15.137,-34.180,-20.996,106.934,0.000
1606143100.658,8.789,-41.016,-21.484,94.727,0.000
1606143100.662,-32.715,8.789,-27.344,-67.383,0.000
1606143100.666,-57.617,22.461,-33.203,-164.062,0.000
1606143100.669,-30.273,-29.297,-29.297,-70.801,0.000
1606143100.673,16.113,-21.484,-20.996,80.078,0.000
1606143100.677,15.137,-21.973,-26.855,80.566,0.000
1606143100.681,-27.832,-26.367,-31.738,-74.219,0.000
1606143100.685,-49.316,-27.832,-30.273,-164.551,0.000
1606143100.689,-20.996,-36.621,-29.297,-88.379,0.000
1606143100.693,2.930,-38.086,-22.949,68.359,0.000
1606143100.697,-0.488,-39.062,-20.996,100.098,0.000
1606143100.701,-42.969,-38.574,-22.949,-58.594,0.000
1606143100.705,-76.172,-41.504,-26.367,-168.945,0.000
1606143100.708,-46.387,-42.969,-23.438,-86.914,0.000
1606143100.712,-7.324,-34.668,-17.578,77.637,0.000
1606143100.716,-4.395,-45.410,-23.926,110.840,0.000
1606143100.720,-39.062,-28.809,-21.484,-23.438,0.000
1606143100.724,-67.383,47.363,-18.066,-141.602,0.000
1606143100.728,-62.012,12.695,-18.555,-109.375,0.000
1606143100.732,-27.832,-47.363,-18.555,47.363,0.000
1606143100.736,-9.277,-40.527,-16.113,112.305,0.000
1606143100.740,-40.039,-32.715,-20.020,-0.488,0.000
1606143100.744,-72.266,-35.645,-26.855,-145.020,0.000
1606143100.748,-71.289,-55.664,-29.297,-144.043,0.000
1606143100.751,-36.133,-51.270,-26.367,20.996,0.000
1606143100.755,-13.672,-49.805,-26.367,110.352,0.000
1606143100.759,-40.527,-42.969,-29.297,9.766,0.000
1606143100.763,-70.312,12.695,-30.273,-144.531,0.000
1606143100.767,-64.941,-1.465,-29.297,-157.715,0.000
1606143100.771,-24.902,-43.457,-24.902,0.000,0.000
1606143100.775,-2.930,-38.086,-20.508,103.027,0.000
1606143100.779,-25.391,-34.668,-31.738,20.508,0.000
1606143100.783,-65.430,-32.227,-41.016,-142.578,0.000
1606143100.787,-70.312,-41.016,-36.621,-174.316,0.000
1606143100.791,-29.785,-41.992,-38.086,-30.762,0.000
1606143100.794,5.859,-29.297,-32.227,87.891,0.000
1606143100.798,-6.836,-43.945,-31.250,44.434,0.000
1606143100.802,-54.688,19.043,-37.598,-112.305,0.000
1606143100.806,-62.988,54.688,-31.250,-165.039,0.000
1606143100.810,-30.273,-26.367,-26.855,-45.898,0.000
1606143100.814,-3.906,-33.203,-34.180,80.078,0.000
1606143100.818,-16.602,-31.738,-39.062,57.129,0.000
1606143100.822,-39.062,-21.484,-34.180,-86.426,0.000
1606143100.826,-47.363,-21.484,-25.391,-149.902,0.000
1606143100.830,-38.086,-37.598,-23.438,-53.711,0.000
1606143100.833,-2.441,-35.156,-20.020,98.145,0.000
1606143100.837,-0.977,-36.621,-17.090,99.609,0.000
1606143100.841,-57.617,-39.551,-20.020,-77.148,0.000
1606143100.845,-86.426,-36.133,-25.879,-168.457,0.000
1606143100.849,-57.129,-38.086,-20.020,-71.289,0.000
1606143100.853,-17.578,-33.691,-12.207,77.148,0.000
1606143100.857,-8.301,-42.969,-9.277,102.539,0.000
1606143100.861,-47.363,-1.953,-15.625,-52.246,0.000
1606143100.865,-74.707,31.738,-17.090,-155.762,0.000
1606143100.869,-49.805,-32.227,-12.695,-81.543,0.000
1606143100.873,-11.230,-41.992,-19.531,71.777,0.000
1606143100.876,-2.441,-41.016,-19.531,108.887,0.000
1606143100.880,-34.668,-46.387,-20.996,-31.250,0.000
1606143100.884,-58.594,-37.109,-16.602,-153.809,0.000
1606143100.888,-45.410,-41.504,-15.625,-110.352,0.000
1606143100.892,-9.766,-39.551,-17.578,62.012,0.000
