timestamps,TP9,AF7,AF8,TP10,Right AUX
1604236581.138,-0.488,0.000,-0.488,-0.488,0.000
1604236581.142,-0.488,0.000,0.000,-0.488,0.000
1604236581.146,30.762,-0.977,0.000,30.762,0.000
1604236581.150,-59.082,0.977,-0.977,-59.570,0.000
1604236581.154,311.523,-7.324,1.953,312.012,0.000
1604236581.158,-859.863,-22.461,-3.418,-859.375,0.000
1604236581.162,360.352,-36.621,-25.391,358.887,0.000
1604236581.165,-967.773,-53.223,-44.922,-969.238,0.000
1604236581.169,-1000.000,-52.734,-33.203,-1000.000,0.000
1604236581.173,-125.977,-31.738,-5.859,-120.117,0.000
1604236581.177,-817.871,-10.742,-2.930,-815.430,0.000
1604236581.181,500.977,-28.809,-16.113,498.535,0.000
1604236581.185,-864.746,-60.547,-37.598,-866.211,0.000
1604236581.189,-1000.000,-58.105,-36.133,-1000.000,0.000
1604236581.193,-224.121,-30.273,-12.695,-220.703,0.000
1604236581.197,-909.668,-15.625,-6.836,-906.250,0.000
1604236581.201,760.254,-28.320,-27.344,754.395,0.000
1604236581.205,-609.375,-53.711,-47.852,-615.234,0.000
1604236581.208,-1000.000,-61.523,-28.809,-1000.000,0.000
1604236581.212,-188.965,-38.086,6.836,-189.453,0.000
1604236581.216,-972.168,-11.719,17.090,-970.215,0.000
1604236581.220,968.750,-15.625,4.395,964.844,0.000
1604236581.224,-278.809,-50.781,-15.625,-283.203,0.000
1604236581.228,-1000.000,-65.430,-10.742,-1000.000,0.000
1604236581.232,-214.355,-35.156,7.324,-220.215,0.000
1604236581.236,984.863,-19.043,11.230,984.375,0.000
1604236581.240,-946.289,-25.391,3.418,-946.289,0.000
1604236581.244,-37.109,-50.781,-19.531,-40.039,0.000
1604236581.248,-1000.000,-70.801,-27.832,-1000.000,0.000
1604236581.251,-386.230,-43.457,-6.836,-390.625,0.000
1604236581.255,909.180,-20.020,16.113,905.762,0.000
1604236581.259,-897.461,-22.461,3.418,-894.531,0.000
1604236581.263,118.164,-48.828,-37.109,128.906,0.000
1604236581.267,-1000.000,-66.406,-37.598,-1000.000,0.000
1604236581.271,-581.055,-53.711,-11.230,-599.609,0.000
1604236581.275,797.852,-25.391,-6.836,777.832,0.000
1604236581.279,-854.492,-13.672,-10.254,-849.609,0.000
1604236581.283,184.570,-56.152,-18.555,182.617,0.000
1604236581.287,-1000.000,-71.777,-25.391,-1000.000,0.000
1604236581.290,-838.379,-43.457,-14.648,-852.539,0.000
1604236581.294,515.625,-11.719,3.906,492.188,0.000
1604236581.298,-800.781,-7.812,5.371,-797.363,0.000
1604236581.302,149.414,-43.945,-32.227,149.902,0.000
1604236581.306,-1000.000,-68.848,-54.688,-1000.000,0.000
1604236581.310,-1000.000,-50.293,-27.832,-1000.000,0.000
1604236581.314,166.016,-27.832,-2.930,157.715,0.000
1604236581.318,-763.672,-21.484,0.488,-766.113,0.000
1604236581.322,222.656,-43.457,-15.625,231.934,0.000
1604236581.326,-1000.000,-63.477,-34.180,-998.535,0.000
1604236581.330,-1000.000,-43.457,-26.855,-1000.000,0.000
1604236581.333,-32.227,-16.113,-1.953,-29.785,0.000
1604236581.337,-788.086,-8.301,-2.441,-787.598,0.000
1604236581.341,404.785,-35.156,-32.715,402.344,0.000
1604236581.345,-912.598,-60.059,-51.758,-914.551,0.000
1604236581.349,-1000.000,-53.711,-49.805,-1000.000,0.000
1604236581.353,-205.078,-27.344,-13.184,-200.195,0.000
1604236581.357,-867.188,-18.066,7.812,-863.770,0.000
1604236581.361,633.789,-33.691,-16.602,626.953,0.000
1604236581.365,-753.906,-56.152,-35.645,-759.766,0.000
1604236581.369,-1000.000,-54.199,-24.414,-1000.000,0.000
1604236581.373,-205.078,-27.344,-6.348,-205.566,0.000
1604236581.376,-943.848,-9.766,-2.441,-941.406,0.000
1604236581.380,878.418,-20.508,-12.695,873.535,0.000
1604236581.384,-439.453,-49.316,-36.621,-446.777,0.000
1604236581.388,-1000.000,-53.711,-41.504,-1000.000,0.000
1604236581.392,-176.758,-16.602,-6.836,-177.246,0.000
1604236581.396,-992.188,3.418,7.812,-989.746,0.000
1604236581.400,-972.656,-26.367,-10.742,-979.004,0.000
1604236581.404,-131.836,-63.477,-37.109,-142.090,0.000
1604236581.408,-1000.000,-66.406,-33.203,-1000.000,0.000
1604236581.412,-313.477,-26.855,-13.184,-312.500,0.000
1604236581.415,942.383,-1.465,-3.418,942.871,0.000
1604236581.419,-917.480,-11.230,0.000,-917.480,0.000
1604236581.423,50.781,-47.363,-34.180,49.805,0.000
1604236581.427,-1000.000,-61.523,-44.922,-1000.000,0.000
1604236581.431,-504.395,-31.738,-15.625,-504.883,0.000
1604236581.435,867.188,-6.348,7.812,867.676,0.000
1604236581.439,-925.781,-15.625,-8.789,-925.781,0.000
1604236581.443,108.887,-47.363,-37.598,97.168,0.000
1604236581.447,-1000.000,-68.359,-39.062,-1000.000,0.000
1604236581.451,-755.371,-48.340,-24.902,-750.977,0.000
1604236581.455,623.047,-35.645,-17.090,623.047,0.000
1604236581.458,-820.801,-37.598,-23.438,-819.336,0.000
1604236581.462,165.039,-43.457,-29.297,163.574,0.000
1604236581.466,-1000.000,-59.082,-34.668,-1000.000,0.000
1604236581.470,-949.219,-39.062,-21.484,-961.914,0.000
1604236581.474,346.680,-5.859,-0.488,317.383,0.000
1604236581.478,-779.297,-8.789,0.488,-776.367,0.000
1604236581.482,141.602,-47.363,-28.809,160.156,0.000
1604236581.486,-1000.000,-66.895,-41.992,-1000.000,0.000
1604236581.490,-1000.000,-55.664,-19.531,-1000.000,0.000
1604236581.494,56.152,-31.738,3.418,48.340,0.000
1604236581.498,-769.043,-12.207,4.395,-771.484,0.000
1604236581.501,317.871,-33.203,-16.113,322.754,0.000
1604236581.505,-955.566,-61.035,-31.738,-954.102,0.000
1604236581.509,-1000.000,-48.828,-21.973,-1000.000,0.000
1604236581.513,-131.836,-21.484,-9.277,-132.324,0.000
1604236581.517,-820.312,-7.324,-4.395,-820.312,0.000
1604236581.521,509.766,-22.461,-15.625,508.301,0.000
1604236581.525,-860.352,-45.898,-28.809,-860.352,0.000
1604236581.529,-1000.000,-48.828,-27.344,-1000.000,0.000
1604236581.533,-222.656,-23.438,-10.254,-223.145,0.000
1604236581.537,-911.621,-1.465,0.977,-908.203,0.000
1604236581.540,769.043,-17.090,-25.391,760.254,0.000
1604236581.544,-598.145,-52.246,-50.293,-608.887,0.000
1604236581.548,-1000.000,-61.035,-45.410,-1000.000,0.000
1604236581.552,-187.988,-30.273,-12.695,-188.477,0.000
1604236581.556,-974.121,-11.230,0.000,-971.191,0.000
1604236581.560,974.121,-18.555,-17.090,968.262,0.000
1604236581.564,-268.066,-63.477,-36.133,-276.367,0.000
1604236581.568,-1000.000,-83.008,-37.109,-1000.000,0.000
1604236581.572,-216.797,-37.109,-14.160,-222.656,0.000
1604236581.576,981.934,-19.043,-2.930,981.445,0.000
1604236581.580,-943.359,-19.043,-8.301,-942.871,0.000
1604236581.583,-18.555,-48.828,-39.551,-24.414,0.000
1604236581.587,-1000.000,-71.777,-50.293,-1000.000,0.000
1604236581.591,-410.156,-35.645,-24.902,-407.227,0.000
1604236581.595,896.484,-8.789,-11.719,897.461,0.000
1604236581.599,-891.113,-22.949,-22.949,-891.113,0.000
1604236581.603,139.648,-53.223,-46.387,138.672,0.000
1604236581.607,-1000.000,-68.359,-50.293,-1000.000,0.000
1604236581.611,-613.281,-48.828,-28.320,-619.629,0.000
1604236581.615,770.508,-21.973,-5.859,759.766,0.000
1604236581.619,-849.121,-20.508,-7.812,-846.191,0.000
1604236581.623,184.082,-49.316,-35.645,182.617,0.000
1604236581.626,-1000.000,-66.406,-44.434,-1000.000,0.000
1604236581.630,-830.566,-37.598,-26.367,-843.262,0.000
1604236581.634,527.344,-12.695,-5.371,504.883,0.000
1604236581.638,-802.246,-16.602,-4.395,-798.828,0.000
1604236581.642,147.949,-54.688,-34.668,148.926,0.000
1604236581.646,-1000.000,-85.449,-43.945,-1000.000,0.000
1604236581.650,-1000.000,-57.617,-29.297,-1000.000,0.000
1604236581.654,145.020,-22.461,-9.766,143.066,0.000
1604236581.658,-764.160,-12.207,-0.488,-766.113,0.000
1604236581.662,223.145,-33.691,-18.066,229.980,0.000
1604236581.665,-1000.000,-58.594,-37.598,-1000.000,0.000
1604236581.669,-1000.000,-48.828,-24.414,-1000.000,0.000
1604236581.673,-33.203,-17.090,5.371,-32.715,0.000
1604236581.677,-789.062,-9.277,0.488,-790.039,0.000
1604236581.681,416.016,-39.551,-23.926,422.852,0.000
1604236581.685,-905.762,-67.871,-43.945,-901.367,0.000
1604236581.689,-1000.000,-57.617,-35.156,-1000.000,0.000
1604236581.693,-213.867,-26.367,-2.930,-208.008,0.000
1604236581.697,-870.605,-6.836,6.348,-867.676,0.000
1604236581.701,637.695,-30.762,-8.301,633.789,0.000
1604236581.705,-751.953,-63.477,-31.250,-755.859,0.000
1604236581.708,-1000.000,-55.176,-31.738,-1000.000,0.000
1604236581.712,-203.125,-23.926,-10.742,-203.613,0.000
1604236581.716,-948.730,-12.207,3.906,-946.289,0.000
1604236581.720,894.043,-18.555,-17.578,889.648,0.000
1604236581.724,-415.039,-53.223,-50.293,-422.852,0.000
1604236581.728,-1000.000,-72.754,-31.250,-1000.000,0.000
1604236581.732,-175.781,-27.344,-11.230,-176.270,0.000
1604236581.736,-994.141,-2.441,-12.207,-991.699,0.000
1604236581.740,-969.238,-19.043,-16.602,-973.633,0.000
1604236581.744,-116.211,-47.363,-39.551,-126.465,0.000
1604236581.748,-1000.000,-62.012,-43.945,-1000.000,0.000
1604236581.751,-324.707,-43.457,-26.367,-321.289,0.000
1604236581.755,937.012,-18.066,-7.324,938.965,0.000
1604236581.759,-913.574,-18.066,-11.719,-914.062,0.000
1604236581.763,64.941,-53.223,-50.293,62.012,0.000
1604236581.767,-1000.000,-77.148,-62.012,-1000.000,0.000
1604236581.771,-506.348,-39.551,-17.090,-505.859,0.000
1604236581.775,845.215,-5.371,1.465,846.191,0.000
1604236581.779,-868.652,-14.160,-18.066,-868.164,0.000
1604236581.783,196.777,-43.945,-30.762,185.547,0.000
1604236581.787,-1000.000,-66.895,-40.039,-1000.000,0.000
1604236581.790,-752.930,-36.133,-23.438,-751.953,0.000
1604236581.794,628.418,0.000,5.371,624.023,0.000
1604236581.798,-819.824,-2.441,-7.324,-818.848,0.000
1604236581.802,160.156,-36.133,-39.062,160.645,0.000
1604236581.806,-1000.000,-54.688,-45.898,-1000.000,0.000
1604236581.810,-985.840,-42.969,-31.250,-983.398,0.000
1604236581.814,279.297,-22.461,-13.672,276.855,0.000
1604236581.818,-773.926,-9.277,-10.742,-772.949,0.000
1604236581.822,158.203,-39.551,-32.715,176.270,0.000
1604236581.826,-1000.000,-83.008,-42.969,-1000.000,0.000
1604236581.830,-1000.000,-73.242,-24.902,-1000.000,0.000
1604236581.833,51.758,-21.484,-1.953,38.086,0.000
1604236581.837,-770.020,1.465,4.395,-773.438,0.000
1604236581.841,320.801,-29.297,-20.996,329.102,0.000
1604236581.845,-954.590,-58.594,-37.109,-951.172,0.000
1604236581.849,-1000.000,-48.828,-23.926,-1000.000,0.000
1604236581.853,-134.766,-20.508,-3.418,-140.137,0.000
1604236581.857,-821.289,-16.113,-8.789,-825.684,0.000
1604236581.861,515.625,-31.738,-37.598,525.391,0.000
1604236581.865,-856.934,-60.059,-50.293,-845.703,0.000
1604236581.869,-1000.000,-65.918,-39.551,-1000.000,0.000
1604236581.873,-220.703,-41.016,-11.719,-220.703,0.000
1604236581.876,-916.016,-17.090,5.859,-913.574,0.000
1604236581.880,784.180,-12.695,-19.531,779.297,0.000
1604236581.884,-577.637,-41.992,-51.758,-583.984,0.000
1604236581.888,-1000.000,-51.270,-39.551,-1000.000,0.000
1604236581.892,-185.547,-22.461,-8.301,-187.012,0.000
1604236581.896,-978.027,-5.859,-0.488,-974.609,0.000
1604236581.900,986.328,-21.973,-12.207,978.516,0.000
1604236581.904,-244.629,-50.293,-33.691,-258.301,0.000
1604236581.908,-1000.000,-54.199,-36.133,-1000.000,0.000
1604236581.912,-215.820,-31.738,-17.578,-223.145,0.000
1604236581.915,984.375,-20.996,-6.348,982.910,0.000
1604236581.919,-945.312,-24.414,-15.137,-944.336,0.000
1604236581.923,-23.926,-71.289,-47.363,-28.809,0.000
1604236581.927,-1000.000,-97.168,-57.617,-1000.000,0.000
1604236581.931,-417.969,-47.852,-30.762,-414.551,0.000
1604236581.935,890.625,-16.602,-8.301,892.578,0.000
1604236581.939,-888.672,-23.926,-19.531,-889.160,0.000
1604236581.943,146.973,-48.340,-51.758,144.531,0.000
1604236581.947,-1000.000,-59.570,-59.082,-1000.000,0.000
1604236581.951,-631.836,-36.621,-38.574,-634.766,0.000
1604236581.955,752.441,-4.395,-12.207,746.582,0.000
1604236581.958,-844.238,4.883,-20.996,-842.773,0.000
1604236581.962,178.223,-31.250,-41.504,178.223,0.000
1604236581.966,-1000.000,-60.547,-39.551,-1000.000,0.000
1604236581.970,-876.953,-41.504,-28.320,-876.953,0.000
1604236581.974,458.984,-8.301,-8.789,456.055,0.000
1604236581.978,-793.945,-10.742,-12.207,-792.969,0.000
1604236581.982,148.926,-51.758,-29.297,149.414,0.000
1604236581.986,-1000.000,-72.266,-42.480,-1000.000,0.000
1604236581.990,-1000.000,-53.223,-31.738,-1000.000,0.000
1604236581.994,157.715,-17.578,-6.836,150.391,0.000
1604236581.998,-763.672,-2.930,-4.883,-766.113,0.000
1604236582.001,261.230,-35.645,-14.648,262.207,0.000
1604236582.005,-983.887,-72.754,-33.691,-981.934,0.000
1604236582.009,-1000.000,-58.594,-22.461,-1000.000,0.000
1604236582.013,-44.434,-33.203,19.531,-60.059,0.000
1604236582.017,-791.992,-26.367,18.066,-796.387,0.000
1604236582.021,417.969,-44.922,-10.254,428.223,0.000
1604236582.025,-904.785,-77.637,-21.973,-901.855,0.000
1604236582.029,-1000.000,-76.172,-21.484,-1000.000,0.000
1604236582.033,-225.098,-35.645,-2.930,-215.332,0.000
1604236582.037,-877.930,-17.090,11.719,-875.000,0.000
1604236582.040,656.738,-31.250,-0.977,655.273,0.000
1604236582.044,-734.863,-64.453,-20.020,-732.910,0.000
1604236582.048,-1000.000,-71.777,-28.320,-1000.000,0.000
1604236582.052,-203.125,-30.762,-8.301,-204.102,0.000
1604236582.056,-945.801,-13.184,4.395,-942.871,0.000
1604236582.060,884.766,-32.227,-7.324,878.906,0.000
1604236582.064,-429.199,-68.848,-24.414,-438.477,0.000
1604236582.068,-1000.000,-69.824,-32.227,-1000.000,0.000
1604236582.072,-175.293,-26.855,-11.230,-175.781,0.000
1604236582.076,-995.605,-6.348,4.395,-992.188,0.000
1604236582.080,-967.773,-19.043,-1.953,-972.656,0.000
1604236582.083,-110.352,-52.246,-20.508,-123.047,0.000
1604236582.087,-1000.000,-62.012,-30.762,-1000.000,0.000
1604236582.091,-321.289,-39.551,-11.719,-318.359,0.000
1604236582.095,936.035,-20.020,4.395,937.988,0.000
1604236582.099,-911.621,-16.113,1.953,-912.109,0.000
1604236582.103,85.449,-41.992,-22.949,78.125,0.000
1604236582.107,-1000.000,-64.453,-41.016,-1000.000,0.000
1604236582.111,-520.508,-32.227,-6.836,-516.602,0.000
1604236582.115,839.355,-5.371,7.324,841.797,0.000
1604236582.119,-866.211,-15.137,-24.902,-866.211,0.000
1604236582.123,195.312,-35.156,-44.922,187.012,0.000
1604236582.126,-1000.000,-50.293,-47.363,-1000.000,0.000
1604236582.130,-760.254,-39.062,-27.344,-759.277,0.000
1604236582.134,619.141,-14.160,4.395,615.723,0.000
1604236582.138,-818.848,-1.953,1.953,-817.871,0.000
1604236582.142,162.109,-35.645,-24.902,161.621,0.000
1604236582.146,-1000.000,-66.406,-38.086,-1000.000,0.000
1604236582.150,-971.680,-48.340,-22.949,-975.586,0.000
1604236582.154,305.664,-21.973,-2.930,291.504,0.000
1604236582.158,-775.391,-16.113,-8.301,-773.926,0.000
1604236582.162,145.996,-46.875,-36.133,168.457,0.000
1604236582.165,-1000.000,-71.289,-45.898,-1000.000,0.000
1604236582.169,-1000.000,-56.641,-25.391,-1000.000,0.000
1604236582.173,28.809,-20.996,-3.418,21.973,0.000
1604236582.177,-772.949,0.488,1.465,-775.879,0.000
1604236582.181,332.031,-25.391,-26.367,345.703,0.000
1604236582.185,-952.148,-53.711,-48.828,-945.312,0.000
1604236582.189,-1000.000,-51.758,-33.203,-1000.000,0.000
1604236582.193,-132.812,-21.973,-2.441,-135.254,0.000
1604236582.197,-821.289,-7.812,-6.348,-825.195,0.000
1604236582.201,514.648,-23.926,-30.762,524.902,0.000
1604236582.205,-857.422,-73.730,-42.969,-844.727,0.000
1604236582.208,-1000.000,-78.613,-43.457,-1000.000,0.000
1604236582.212,-220.703,-20.996,-11.230,-220.215,0.000
1604236582.216,-916.504,-4.395,11.719,-915.039,0.000
1604236582.220,786.133,-20.508,-7.812,784.180,0.000
1604236582.224,-575.195,-44.434,-29.297,-577.148,0.000
1604236582.228,-1000.000,-54.199,-25.879,-1000.000,0.000
1604236582.232,-184.570,-33.691,-5.371,-185.059,0.000
1604236582.236,-980.957,-9.277,-0.488,-978.027,0.000
1604236582.240,994.141,-12.207,-20.020,989.746,0.000
1604236582.244,-227.051,-49.316,-46.875,-236.328,0.000
1604236582.248,-1000.000,-66.406,-55.176,-1000.000,0.000
1604236582.251,-238.770,-24.902,-31.250,-236.328,0.000
1604236582.255,975.098,0.977,-10.254,977.539,0.000
1604236582.259,-938.965,-9.766,-18.066,-939.941,0.000
1604236582.263,-11.719,-46.875,-45.410,-18.555,0.000
1604236582.267,-1000.000,-69.336,-54.199,-1000.000,0.000
1604236582.271,-422.852,-32.715,-23.438,-418.945,0.000
1604236582.275,887.207,-2.441,6.348,889.160,0.000
1604236582.279,-886.230,-14.648,-3.906,-886.719,0.000
1604236582.283,168.457,-55.176,-38.574,163.086,0.000
1604236582.287,-1000.000,-67.871,-44.434,-1000.000,0.000
1604236582.290,-635.742,-36.133,-20.508,-637.695,0.000
1604236582.294,752.930,-14.160,-10.254,748.047,0.000
1604236582.298,-844.727,-12.695,-15.625,-842.773,0.000
1604236582.302,176.270,-53.223,-44.434,176.758,0.000
1604236582.306,-1000.000,-87.891,-58.105,-1000.000,0.000
1604236582.310,-893.066,-62.012,-17.090,-890.625,0.000
1604236582.314,434.082,-22.461,6.836,436.035,0.000
1604236582.318,-790.527,-11.230,-4.883,-790.527,0.000
1604236582.322,147.949,-38.086,-29.785,148.438,0.000
1604236582.326,-1000.000,-58.594,-45.898,-1000.000,0.000
1604236582.330,-1000.000,-46.387,-21.484,-1000.000,0.000
1604236582.333,145.508,-17.578,4.395,140.625,0.000
1604236582.337,-763.672,-12.695,-9.277,-766.113,0.000
1604236582.341,236.328,-44.922,-40.527,249.023,0.000
1604236582.345,-995.117,-70.312,-54.199,-988.281,0.000
1604236582.349,-1000.000,-61.035,-34.180,-1000.000,0.000
1604236582.353,-45.898,-29.785,-9.766,-61.035,0.000
1604236582.357,-791.992,-16.602,-7.812,-796.875,0.000
1604236582.361,422.363,-39.551,-29.297,437.988,0.000
1604236582.365,-902.832,-58.105,-44.434,-895.508,0.000
1604236582.369,-1000.000,-54.688,-35.645,-1000.000,0.000
1604236582.373,-222.168,-37.598,-14.160,-211.426,0.000
1604236582.376,-882.812,-20.508,-4.883,-884.766,0.000
1604236582.380,677.734,-28.320,-22.949,692.383,0.000
1604236582.384,-709.961,-73.730,-48.828,-687.012,0.000
1604236582.388,-1000.000,-84.961,-42.969,-1000.000,0.000
1604236582.392,-200.684,-32.715,-11.230,-200.195,0.000
1604236582.396,-950.684,-1.465,-3.906,-948.730,0.000
1604236582.400,902.344,-20.020,-25.879,900.879,0.000
1604236582.404,-401.855,-52.734,-51.270,-403.809,0.000
1604236582.408,-1000.000,-50.781,-45.410,-1000.000,0.000
1604236582.412,-174.805,-18.555,-8.789,-175.293,0.000
1604236582.415,-995.117,-6.836,9.766,-993.652,0.000
1604236582.419,-967.285,-28.320,-0.488,-967.285,0.000
1604236582.423,-106.445,-66.406,-25.391,-110.352,0.000
1604236582.427,-1000.000,-70.312,-26.855,-1000.000,0.000
1604236582.431,-331.543,-36.133,0.488,-328.613,0.000
1604236582.435,932.617,-20.020,14.160,935.059,0.000
1604236582.439,-910.645,-23.926,1.465,-911.621,0.000
1604236582.443,81.543,-51.270,-18.555,75.195,0.000
1604236582.447,-1000.000,-67.871,-23.926,-1000.000,0.000
1604236582.451,-527.344,-38.086,-8.789,-523.438,0.000
1604236582.455,834.473,-13.184,11.719,836.914,0.000
1604236582.458,-864.746,-20.020,9.766,-864.746,0.000
1604236582.462,194.336,-43.945,-18.066,187.012,0.000
1604236582.466,-1000.000,-58.105,-36.133,-1000.000,0.000
1604236582.470,-765.625,-39.551,-20.996,-763.184,0.000
1604236582.474,611.816,-11.719,2.930,610.840,0.000
1604236582.478,-816.895,-12.695,0.000,-816.406,0.000
1604236582.482,158.691,-48.340,-22.461,159.180,0.000
1604236582.486,-1000.000,-85.449,-32.227,-1000.000,0.000
1604236582.490,-992.676,-59.570,-19.043,-990.723,0.000
1604236582.494,264.648,-20.020,-1.953,263.672,0.000
1604236582.498,-771.973,-28.320,-0.488,-771.484,0.000
1604236582.501,163.086,-58.594,-21.973,178.223,0.000
1604236582.505,-1000.000,-70.801,-42.969,-1000.000,0.000
1604236582.509,-1000.000,-65.918,-30.762,-1000.000,0.000
1604236582.513,15.137,-28.320,1.953,14.648,0.000
1604236582.517,-775.879,-4.883,0.488,-777.344,0.000
1604236582.521,343.750,-41.016,-34.668,353.027,0.000
1604236582.525,-945.312,-69.824,-54.199,-939.453,0.000
1604236582.529,-1000.000,-55.664,-38.086,-1000.000,0.000
1604236582.533,-149.902,-19.043,-12.695,-159.668,0.000
1604236582.537,-826.172,-6.348,-16.113,-835.938,0.000
1604236582.540,523.438,-31.738,-41.016,549.316,0.000
1604236582.544,-854.492,-61.523,-45.898,-826.660,0.000
1604236582.548,-1000.000,-64.941,-35.645,-1000.000,0.000
1604236582.552,-219.238,-31.738,-12.695,-216.309,0.000
1604236582.556,-919.434,-8.789,-3.906,-921.875,0.000
1604236582.560,796.387,-28.320,-28.320,807.129,0.000
1604236582.564,-562.012,-54.688,-42.480,-543.457,0.000
1604236582.568,-1000.000,-57.617,-29.785,-1000.000,0.000
1604236582.572,-184.082,-27.832,-8.789,-184.570,0.000
1604236582.576,-980.957,-18.555,-9.766,-977.539,0.000
1604236582.580,994.141,-29.785,-22.461,990.723,0.000
1604236582.583,-225.586,-69.824,-39.062,-233.887,0.000
1604236582.587,-1000.000,-97.168,-37.109,-1000.000,0.000
1604236582.591,-246.582,-41.016,-9.766,-242.676,0.000
1604236582.595,971.680,-11.719,-2.441,974.609,0.000
1604236582.599,-937.012,-33.691,-17.578,-937.988,0.000
1604236582.603,-8.789,-57.617,-39.551,-15.625,0.000
1604236582.607,-1000.000,-57.129,-39.551,-1000.000,0.000
1604236582.611,-424.316,-26.367,-9.277,-418.457,0.000
1604236582.615,885.742,-3.906,4.395,888.184,0.000
1604236582.619,-885.254,-20.508,-18.066,-885.254,0.000
1604236582.623,176.270,-63.477,-48.828,174.805,0.000
1604236582.626,-1000.000,-80.078,-56.641,-1000.000,0.000
1604236582.630,-663.574,-49.805,-26.367,-658.691,0.000
1604236582.634,725.586,-18.066,1.465,729.004,0.000
1604236582.638,-839.355,-13.672,-4.883,-839.355,0.000
1604236582.642,175.293,-42.480,-33.691,176.270,0.000
1604236582.646,-1000.000,-56.641,-38.086,-1000.000,0.000
1604236582.650,-890.137,-41.992,-13.184,-887.695,0.000
1604236582.654,437.988,-14.648,-0.488,440.430,0.000
1604236582.658,-790.039,-2.441,-5.859,-790.039,0.000
1604236582.662,144.531,-29.785,-29.297,145.508,0.000
1604236582.665,-1000.000,-71.289,-46.387,-1000.000,0.000
1604236582.669,-1000.000,-65.430,-33.203,-1000.000,0.000
1604236582.673,95.215,-23.926,-11.719,103.516,0.000
1604236582.677,-765.625,-3.906,-12.695,-766.602,0.000
1604236582.681,251.953,-27.832,-33.691,260.254,0.000
1604236582.685,-986.816,-64.453,-44.922,-982.422,0.000
1604236582.689,-1000.000,-61.523,-38.574,-1000.000,0.000
1604236582.693,-88.379,-35.156,-19.043,-86.914,0.000
1604236582.697,-800.293,-15.625,-10.742,-802.246,0.000
1604236582.701,432.129,-24.902,-25.879,445.312,0.000
1604236582.705,-901.855,-57.129,-49.316,-894.531,0.000
1604236582.708,-1000.000,-56.152,-48.340,-1000.000,0.000
1604236582.712,-230.957,-27.832,-12.207,-218.262,0.000
1604236582.716,-881.836,-15.625,3.906,-882.324,0.000
1604236582.720,665.527,-38.086,-18.066,677.246,0.000
1604236582.724,-727.051,-69.824,-38.574,-707.031,0.000
1604236582.728,-1000.000,-67.383,-43.457,-1000.000,0.000
1604236582.732,-200.195,-31.738,-25.391,-197.754,0.000
1604236582.736,-953.125,-21.484,-0.488,-955.566,0.000
1604236582.740,910.645,-25.391,-7.812,919.922,0.000
1604236582.744,-389.648,-39.551,-32.227,-369.629,0.000
1604236582.748,-1000.000,-49.316,-35.156,-1000.000,0.000
1604236582.751,-174.316,-21.484,-26.367,-176.758,0.000
1604236582.755,-995.605,-0.488,-5.859,-994.141,0.000
1604236582.759,-965.820,-12.207,-3.906,-965.332,0.000
1604236582.763,-99.121,-59.570,-33.691,-102.539,0.000
1604236582.767,-1000.000,-93.750,-40.039,-1000.000,0.000
1604236582.771,-339.844,-50.781,-12.695,-335.938,0.000
1604236582.775,928.711,-7.812,12.695,931.152,0.000
1604236582.779,-908.203,-15.625,4.395,-908.203,0.000
1604236582.783,89.355,-50.293,-26.855,86.426,0.000
1604236582.787,-1000.000,-72.266,-41.504,-1000.000,0.000
1604236582.790,-533.691,-58.105,-17.090,-528.320,0.000
1604236582.794,832.031,-13.672,13.672,834.961,0.000
1604236582.798,-863.281,6.836,-3.418,-863.281,0.000
1604236582.802,190.430,-36.133,-38.574,191.895,0.000
1604236582.806,-1000.000,-62.500,-52.246,-1000.000,0.000
1604236582.810,-803.223,-24.902,-47.852,-794.922,0.000
1604236582.814,562.988,10.742,-34.668,572.754,0.000
1604236582.818,-809.570,14.160,-41.992,-810.059,0.000
1604236582.822,156.250,-18.555,-59.570,157.227,0.000
1604236582.826,-1000.000,-40.527,-68.359,-1000.000,0.000
1604236582.830,-1000.000,-28.809,-66.895,-999.512,0.000
1604236582.833,242.676,1.953,-55.176,247.070,0.000
1604236582.837,-770.508,22.461,-50.781,-770.020,0.000
1604236582.841,176.758,-10.254,-68.848,185.547,0.000
1604236582.845,-1000.000,-44.434,-86.914,-1000.000,0.000
1604236582.849,-1000.000,-32.715,-74.707,-1000.000,0.000
1604236582.853,22.461,-8.301,-48.340,20.020,0.000
1604236582.857,-775.391,-6.348,-44.922,-777.344,0.000
1604236582.861,345.703,-41.016,-61.523,354.980,0.000
1604236582.865,-940.430,-79.590,-80.078,-936.035,0.000
1604236582.869,-1000.000,-64.453,-67.871,-1000.000,0.000
1604236582.873,-176.270,-17.090,-39.062,-173.828,0.000
1604236582.876,-836.914,-6.348,-28.320,-842.773,0.000
1604236582.880,545.410,-29.297,-41.504,565.918,0.000
1604236582.884,-838.867,-61.035,-63.477,-813.477,0.000
1604236582.888,-1000.000,-55.176,-57.129,-1000.000,0.000
1604236582.892,-218.262,-13.672,-26.855,-215.332,0.000
1604236582.896,-919.922,0.488,-20.996,-922.363,0.000
1604236582.900,796.875,-25.391,-46.875,810.059,0.000
1604236582.904,-561.523,-59.082,-66.895,-539.551,0.000
1604236582.908,-1000.000,-61.523,-58.594,-1000.000,0.000
1604236582.912,-183.594,-21.484,-31.738,-184.570,0.000
1604236582.915,-981.445,-1.953,-13.672,-978.516,0.000
1604236582.919,995.605,-14.160,-27.344,991.211,0.000
1604236582.923,-221.191,-47.363,-58.594,-228.027,0.000
1604236582.927,-1000.000,-63.477,-54.688,-1000.000,0.000
1604236582.931,-254.883,-34.180,-29.297,-261.719,0.000
1604236582.935,966.797,-10.742,-27.344,962.891,0.000
1604236582.939,-932.617,-17.578,-36.621,-930.176,0.000
1604236582.943,8.301,-39.551,-46.387,13.672,0.000
1604236582.947,-1000.000,-68.359,-49.316,-1000.000,0.000
1604236582.951,-441.895,-38.086,-23.926,-442.383,0.000
1604236582.955,878.418,2.930,-1.953,880.859,0.000
1604236582.958,-882.324,-3.906,-9.766,-882.324,0.000
1604236582.962,176.758,-34.180,-44.434,167.969,0.000
1604236582.966,-1000.000,-57.617,-55.176,-1000.000,0.000
1604236582.970,-666.016,-42.969,-29.785,-660.156,0.000
1604236582.974,723.145,-2.930,-9.277,726.562,0.000
1604236582.978,-838.379,-2.441,-23.438,-838.379,0.000
1604236582.982,173.340,-33.691,-46.387,174.316,0.000
1604236582.986,-1000.000,-54.199,-50.781,-1000.000,0.000
1604236582.990,-905.273,-42.480,-34.668,-902.344,0.000
1604236582.994,415.039,-12.207,-13.672,418.945,0.000
1604236582.998,-787.598,-10.742,-14.160,-787.598,0.000
1604236583.001,145.020,-44.434,-32.715,146.484,0.000
1604236583.005,-1000.000,-62.500,-43.945,-1000.000,0.000
1604236583.009,-1000.000,-48.340,-36.133,-1000.000,0.000
1604236583.013,104.004,-26.855,-14.160,113.281,0.000
1604236583.017,-765.137,-18.555,-6.348,-766.602,0.000
1604236583.021,275.879,-40.039,-29.785,272.461,0.000
1604236583.025,-975.098,-64.453,-51.758,-976.074,0.000
1604236583.029,-1000.000,-61.523,-48.828,-1000.000,0.000
1604236583.033,-94.238,-28.320,-15.625,-92.773,0.000
1604236583.037,-806.641,2.441,-3.906,-806.152,0.000
1604236583.040,470.215,-13.672,-30.762,468.262,0.000
1604236583.044,-879.883,-65.430,-53.223,-881.348,0.000
1604236583.048,-1000.000,-71.289,-46.387,-1000.000,0.000
1604236583.052,-226.562,-19.043,-17.578,-216.797,0.000
1604236583.056,-889.160,-2.930,-5.371,-889.160,0.000
1604236583.060,691.406,-26.855,-22.461,700.684,0.000
1604236583.064,-695.801,-49.805,-48.340,-679.199,0.000
1604236583.068,-1000.000,-51.758,-42.480,-1000.000,0.000
1604236583.072,-196.777,-24.902,-11.230,-194.824,0.000
1604236583.076,-958.984,-12.207,0.977,-960.938,0.000
1604236583.080,929.199,-21.973,-14.648,936.035,0.000
1604236583.083,-356.934,-52.246,-47.363,-339.844,0.000
1604236583.087,-1000.000,-69.824,-53.711,-1000.000,0.000
1604236583.091,-174.805,-24.902,-24.902,-185.547,0.000
1604236583.095,-995.117,-0.977,-13.672,-996.582,0.000
1604236583.099,-964.844,-13.672,-26.367,-962.891,0.000
1604236583.103,-94.727,-39.551,-38.574,-96.191,0.000
1604236583.107,-1000.000,-52.246,-39.551,-1000.000,0.000
1604236583.111,-343.262,-24.414,-20.020,-342.285,0.000
1604236583.115,926.758,-3.418,1.953,928.223,0.000
1604236583.119,-906.738,-12.207,-3.418,-906.738,0.000
1604236583.123,93.262,-49.316,-39.551,88.379,0.000
1604236583.126,-1000.000,-62.988,-52.246,-1000.000,0.000
1604236583.130,-529.785,-24.414,-20.508,-525.391,0.000
1604236583.134,834.961,-1.953,7.324,837.402,0.000
1604236583.138,-864.258,-25.391,-9.766,-864.258,0.000
1604236583.142,191.895,-56.152,-42.480,187.500,0.000
1604236583.146,-1000.000,-75.195,-52.734,-1000.000,0.000
1604236583.150,-792.969,-57.129,-32.227,-789.551,0.000
1604236583.154,576.172,-22.461,-1.465,579.102,0.000
1604236583.158,-811.035,-10.254,4.883,-810.547,0.000
1604236583.162,155.273,-36.133,-29.297,156.250,0.000
1604236583.165,-1000.000,-62.988,-50.293,-1000.000,0.000
1604236583.169,-1000.000,-50.293,-32.715,-1000.000,0.000
1604236583.173,224.609,-17.578,-10.742,229.004,0.000
1604236583.177,-768.555,-15.625,-11.230,-768.066,0.000
1604236583.181,181.641,-54.688,-35.156,188.965,0.000
1604236583.185,-1000.000,-77.637,-44.434,-1000.000,0.000
1604236583.189,-1000.000,-61.523,-32.715,-1000.000,0.000
1604236583.193,0.000,-29.785,-0.977,0.488,0.000
1604236583.197,-778.320,-19.531,5.371,-779.297,0.000
1604236583.201,342.285,-41.992,-27.344,352.051,0.000
1604236583.205,-941.406,-60.547,-46.875,-936.035,0.000
1604236583.208,-1000.000,-55.176,-35.156,-1000.000,0.000
1604236583.212,-208.008,-24.902,0.488,-202.148,0.000
1604236583.216,-841.309,-9.277,5.859,-845.215,0.000
1604236583.220,530.762,-23.926,-29.297,551.270,0.000
1604236583.224,-859.375,-55.176,-52.246,-833.984,0.000
1604236583.228,-1000.000,-73.730,-45.898,-1000.000,0.000
1604236583.232,-219.238,-42.969,-21.484,-217.773,0.000
1604236583.236,-918.457,-14.160,-3.418,-918.457,0.000
1604236583.240,791.504,-22.949,-11.230,796.387,0.000
1604236583.244,-568.359,-52.246,-36.621,-559.570,0.000
1604236583.248,-1000.000,-53.223,-41.016,-1000.000,0.000
1604236583.251,-182.617,-19.531,-6.348,-181.641,0.000
1604236583.255,-985.352,0.488,0.000,-984.375,0.000
1604236583.259,-992.188,-18.066,-15.625,-994.629,0.000
1604236583.263,-200.684,-57.129,-15.137,-195.801,0.000
1604236583.267,-1000.000,-61.523,-25.879,-1000.000,0.000
1604236583.271,-243.652,-26.367,-14.648,-240.723,0.000
1604236583.275,972.168,-13.672,9.277,975.098,0.000
1604236583.279,-934.570,-21.484,4.395,-935.059,0.000
1604236583.283,3.418,-54.688,-30.273,3.906,0.000
1604236583.287,-1000.000,-74.219,-41.504,-1000.000,0.000
1604236583.290,-418.945,-41.992,-11.719,-416.992,0.000
1604236583.294,887.207,-20.508,-2.441,889.160,0.000
1604236583.298,-884.766,-23.926,-11.719,-884.766,0.000
1604236583.302,203.125,-59.082,-35.645,193.359,0.000
1604236583.306,-1000.000,-82.520,-45.898,-1000.000,0.000
1604236583.310,-629.395,-50.781,-21.484,-634.277,0.000
1604236583.314,768.066,-20.020,-2.441,757.324,0.000
1604236583.318,-848.145,-20.508,-10.742,-845.215,0.000
1604236583.322,177.246,-55.664,-39.551,177.734,0.000
1604236583.326,-1000.000,-76.172,-52.246,-1000.000,0.000
1604236583.330,-886.719,-58.105,-32.227,-885.254,0.000
1604236583.333,443.848,-29.785,-6.836,443.848,0.000
1604236583.337,-791.992,-22.461,-14.160,-791.016,0.000
1604236583.341,147.461,-52.246,-41.504,147.949,0.000
1604236583.345,-1000.000,-72.754,-44.434,-1000.000,0.000
1604236583.349,-1000.000,-60.059,-28.320,-1000.000,0.000
1604236583.353,134.277,-29.297,-7.324,133.789,0.000
1604236583.357,-765.137,-27.344,-4.883,-766.602,0.000
1604236583.361,292.480,-52.246,-30.762,289.551,0.000
1604236583.365,-967.773,-73.730,-50.781,-969.727,0.000
1604236583.369,-1000.000,-68.359,-36.133,-1000.000,0.000
1604236583.373,-75.195,-27.832,-11.719,-77.148,0.000
1604236583.376,-802.734,-11.230,-8.301,-803.223,0.000
1604236583.380,457.031,-41.016,-30.762,459.473,0.000
1604236583.384,-885.742,-61.035,-44.922,-884.766,0.000
1604236583.388,-1000.000,-52.246,-28.809,-1000.000,0.000
1604236583.392,-227.051,-29.785,-9.277,-215.820,0.000
1604236583.396,-888.184,-4.395,-5.859,-888.672,0.000
1604236583.400,688.477,-20.508,-19.043,700.195,0.000
1604236583.404,-699.219,-64.453,-41.504,-679.199,0.000
1604236583.408,-1000.000,-72.266,-40.527,-1000.000,0.000
1604236583.412,-198.730,-28.320,-6.836,-196.289,0.000
1604236583.415,-953.613,-1.953,6.836,-957.520,0.000
1604236583.419,912.598,-27.832,-11.230,926.758,0.000
1604236583.423,-386.719,-63.965,-33.691,-356.445,0.000
1604236583.427,-1000.000,-77.148,-42.480,-1000.000,0.000
1604236583.431,-173.828,-40.039,-13.672,-184.082,0.000
1604236583.435,-997.070,-8.301,7.324,-1000.000,0.000
1604236583.439,-962.891,-25.879,-14.648,-958.496,0.000
1604236583.443,-88.379,-54.199,-30.273,-77.637,0.000
1604236583.447,-1000.000,-65.430,-38.574,-1000.000,0.000
1604236583.451,-337.891,-46.387,-26.855,-336.426,0.000
1604236583.455,928.223,-20.996,6.348,930.176,0.000
1604236583.458,-906.738,-14.160,0.000,-905.762,0.000
1604236583.462,104.492,-33.203,-32.715,112.793,0.000
1604236583.466,-1000.000,-52.246,-40.527,-1000.000,0.000
1604236583.470,-531.738,-43.945,-11.719,-529.297,0.000
1604236583.474,834.961,-19.043,5.859,838.379,0.000
1604236583.478,-864.746,-9.277,2.930,-864.258,0.000
1604236583.482,192.871,-44.434,-13.672,193.848,0.000
1604236583.486,-1000.000,-67.871,-30.273,-1000.000,0.000
1604236583.490,-779.297,-44.922,-32.227,-777.832,0.000
1604236583.494,594.238,-13.184,-9.277,595.215,0.000
1604236583.498,-814.941,-14.160,-3.906,-813.965,0.000
1604236583.501,159.668,-40.527,-15.625,160.156,0.000
1604236583.505,-1000.000,-58.594,-30.762,-1000.000,0.000
1604236583.509,-981.445,-58.105,-29.785,-981.934,0.000
1604236583.513,281.250,-32.715,-14.648,276.367,0.000
1604236583.517,-771.973,-22.461,-12.207,-771.484,0.000
1604236583.521,191.406,-45.410,-26.367,195.312,0.000
1604236583.525,-1000.000,-68.848,-35.645,-1000.000,0.000
1604236583.529,-1000.000,-58.594,-21.973,-1000.000,0.000
1604236583.533,-3.418,-26.367,-3.418,-0.488,0.000
1604236583.537,-780.273,-11.719,0.488,-780.762,0.000
1604236583.540,364.258,-31.738,-20.996,366.699,0.000
1604236583.544,-936.035,-56.641,-35.645,-933.594,0.000
1604236583.548,-1000.000,-50.293,-34.180,-1000.000,0.000
1604236583.552,-162.109,-23.926,-15.625,-167.480,0.000
1604236583.556,-835.449,-24.414,-11.719,-842.773,0.000
1604236583.560,547.852,-37.109,-28.809,571.289,0.000
1604236583.564,-833.008,-49.805,-49.805,-807.129,0.000
1604236583.568,-1000.000,-64.941,-55.176,-1000.000,0.000
1604236583.572,-218.750,-42.969,-17.090,-217.285,0.000
1604236583.576,-916.504,-17.578,4.883,-916.992,0.000
1604236583.580,786.621,-28.809,-25.391,790.527,0.000
1604236583.583,-574.707,-54.688,-58.594,-567.871,0.000
1604236583.587,-1000.000,-62.012,-53.711,-1000.000,0.000
1604236583.591,-183.105,-32.227,-14.648,-182.617,0.000
1604236583.595,-984.375,-5.859,9.277,-982.910,0.000
1604236583.599,-998.047,-2.930,-7.812,-1000.000,0.000
1604236583.603,-205.078,-44.434,-45.898,-202.148,0.000
1604236583.607,-1000.000,-87.402,-50.293,-1000.000,0.000
1604236583.611,-288.574,-44.922,-17.578,-291.504,0.000
1604236583.615,954.590,-4.883,-3.906,953.613,0.000
1604236583.619,-928.711,-15.625,-11.719,-927.246,0.000
1604236583.623,0.488,-44.922,-34.668,3.906,0.000
1604236583.626,-1000.000,-57.129,-44.434,-1000.000,0.000
1604236583.630,-455.078,-29.785,-17.090,-469.727,0.000
1604236583.634,869.629,-6.836,-2.441,861.328,0.000
1604236583.638,-878.418,-12.207,-14.160,-875.000,0.000
1604236583.642,185.547,-41.992,-27.344,178.711,0.000
1604236583.646,-1000.000,-65.918,-38.574,-1000.000,0.000
1604236583.650,-681.641,-36.133,-29.297,-675.293,0.000
1604236583.654,708.496,2.441,-6.348,714.355,0.000
1604236583.658,-835.449,-4.883,3.418,-835.449,0.000
1604236583.662,171.387,-38.574,-14.160,172.363,0.000
1604236583.665,-1000.000,-61.035,-22.949,-1000.000,0.000
1604236583.669,-919.434,-54.199,-8.789,-914.551,0.000
1604236583.673,393.555,-25.879,17.090,400.879,0.000
1604236583.677,-785.156,-19.531,39.551,-785.156,0.000
1604236583.681,144.043,-63.965,19.043,145.020,0.000
1604236583.685,-1000.000,-89.355,-1.953,-1000.000,0.000
1604236583.689,-1000.000,-75.684,20.996,-1000.000,0.000
1604236583.693,89.355,-54.199,50.293,97.656,0.000
1604236583.697,-766.113,-56.641,46.387,-766.602,0.000
1604236583.701,267.090,-90.332,22.461,269.531,0.000
1604236583.705,-979.004,-122.070,16.113,-977.539,0.000
1604236583.708,-1000.000,-111.816,30.762,-1000.000,0.000
1604236583.712,-102.051,-69.824,51.758,-98.145,0.000
1604236583.716,-807.129,-55.664,57.129,-807.129,0.000
1604236583.720,468.262,-74.707,30.273,469.727,0.000
1604236583.724,-881.836,-94.238,6.836,-880.859,0.000
1604236583.728,-1000.000,-85.449,15.137,-1000.000,0.000
1604236583.732,-228.516,-53.711,32.227,-218.262,0.000
1604236583.736,-900.879,-37.598,41.992,-897.461,0.000
1604236583.740,732.910,-52.734,19.531,729.492,0.000
1604236583.744,-645.020,-87.891,-12.207,-644.531,0.000
1604236583.748,-1000.000,-100.586,-6.836,-1000.000,0.000
1604236583.751,-197.754,-57.617,16.113,-195.801,0.000
1604236583.755,-952.637,-25.391,21.973,-956.055,0.000
1604236583.759,911.133,-33.691,3.906,923.340,0.000
1604236583.763,-388.184,-58.594,-15.137,-359.863,0.000
1604236583.767,-1000.000,-76.172,-16.602,-1000.000,0.000
1604236583.771,-179.688,-43.945,16.113,-203.125,0.000
1604236583.775,-999.023,-14.648,30.273,994.141,0.000
1604236583.779,-962.402,-30.273,7.324,-957.031,0.000
1604236583.783,-89.355,-63.477,-25.879,-82.031,0.000
1604236583.787,-1000.000,-67.871,-34.668,-1000.000,0.000
1604236583.790,-351.562,-37.598,-1.465,-360.352,0.000
1604236583.794,921.875,-20.020,18.555,917.969,0.000
1604236583.798,-904.297,-19.531,9.766,-900.879,0.000
1604236583.802,105.957,-47.363,-17.090,115.234,0.000
1604236583.806,-1000.000,-72.266,-29.297,-1000.000,0.000
1604236583.810,-549.316,-41.504,-19.531,-562.988,0.000
1604236583.814,824.707,-14.160,8.789,810.059,0.000
1604236583.818,-860.352,-16.602,11.719,-857.422,0.000
1604236583.822,189.941,-40.527,-24.902,190.430,0.000
1604236583.826,-1000.000,-51.270,-39.551,-1000.000,0.000
1604236583.830,-799.316,-28.809,-19.531,-793.945,0.000
1604236583.833,567.871,-5.371,8.789,574.219,0.000
1604236583.837,-809.570,-5.859,9.277,-810.059,0.000
1604236583.841,154.785,-36.621,-14.648,155.762,0.000
1604236583.845,-1000.000,-63.477,-29.297,-1000.000,0.000
1604236583.849,-1000.000,-47.852,-14.160,-1000.000,0.000
1604236583.853,221.680,-18.066,5.859,227.539,0.000
1604236583.857,-768.066,-11.230,-6.836,-767.578,0.000
1604236583.861,191.895,-45.410,-28.809,195.801,0.000
1604236583.865,-1000.000,-62.988,-31.738,-1000.000,0.000
1604236583.869,-1000.000,-48.828,-21.973,-1000.000,0.000
1604236583.873,-11.719,-30.273,-2.930,-7.812,0.000
1604236583.876,-783.203,-8.789,2.930,-782.227,0.000
1604236583.880,388.672,-22.461,-21.973,385.254,0.000
1604236583.884,-920.410,-57.129,-45.410,-921.875,0.000
1604236583.888,-1000.000,-59.570,-33.691,-1000.000,0.000
1604236583.892,-190.430,-36.621,-5.371,-187.012,0.000
1604236583.896,-852.051,-22.949,2.930,-853.027,0.000
1604236583.900,588.867,-38.086,-16.602,593.750,0.000
1604236583.904,-798.828,-62.012,-38.574,-789.551,0.000
1604236583.908,-1000.000,-54.199,-34.668,-1000.000,0.000
1604236583.912,-214.355,-23.926,-7.324,-211.914,0.000
1604236583.915,-924.805,-3.418,6.836,-927.734,0.000
1604236583.919,813.477,-18.066,-19.531,827.148,0.000
1604236583.923,-537.109,-65.918,-46.387,-514.160,0.000
1604236583.927,-1000.000,-73.242,-41.504,-1000.000,0.000
1604236583.931,-181.152,-35.156,-10.742,-180.664,0.000
1604236583.935,-986.328,-22.461,0.000,-984.863,0.000
1604236583.939,-989.746,-33.203,-26.855,-992.676,0.000
1604236583.943,-189.453,-51.758,-47.852,-182.617,0.000
1604236583.947,-1000.000,-61.035,-33.691,-1000.000,0.000
1604236583.951,-269.043,-33.691,-4.395,-282.715,0.000
1604236583.955,962.402,-9.766,1.953,956.543,0.000
1604236583.958,-930.176,-19.043,-5.859,-925.781,0.000
1604236583.962,10.742,-51.270,-32.227,20.508,0.000
1604236583.966,-1000.000,-63.965,-47.363,-1000.000,0.000
1604236583.970,-447.266,-32.227,-21.973,-455.566,0.000
1604236583.974,874.023,-0.488,-4.395,871.582,0.000
1604236583.978,-879.883,-0.977,-7.324,-877.930,0.000
1604236583.982,192.383,-43.457,-32.227,181.641,0.000
1604236583.986,-1000.000,-86.914,-51.758,-1000.000,0.000
1604236583.990,-699.219,-60.059,-31.250,-710.938,0.000
1604236583.994,691.406,-22.461,-15.137,671.875,0.000
1604236583.998,-832.031,-17.578,-20.996,-828.613,0.000
1604236584.001,169.434,-39.062,-36.133,169.922,0.000
1604236584.005,-1000.000,-53.711,-47.852,-1000.000,0.000
1604236584.009,-929.688,-35.645,-39.551,-926.758,0.000
1604236584.013,377.930,-20.020,-18.066,381.836,0.000
1604236584.017,-783.203,-12.695,-8.789,-783.203,0.000
1604236584.021,143.555,-33.203,-29.785,144.531,0.000
1604236584.025,-1000.000,-64.453,-45.898,-1000.000,0.000
1604236584.029,-1000.000,-60.547,-34.180,-1000.000,0.000
1604236584.033,84.961,-26.855,-16.602,90.332,0.000
1604236584.037,-767.090,-15.137,-11.230,-767.090,0.000
1604236584.040,300.781,-37.109,-31.738,293.945,0.000
1604236584.044,-963.379,-66.895,-53.711,-966.797,0.000
1604236584.048,-1000.000,-62.988,-37.109,-1000.000,0.000
1604236584.052,-110.840,-29.785,-4.395,-107.910,0.000
1604236584.056,-812.012,-13.672,-2.441,-810.547,0.000
1604236584.060,480.469,-33.203,-22.949,477.539,0.000
1604236584.064,-875.488,-60.059,-38.574,-877.441,0.000
1604236584.068,-1000.000,-58.105,-30.762,-1000.000,0.000
1604236584.072,-229.980,-29.785,-6.348,-220.703,0.000
1604236584.076,-895.020,-16.113,8.301,-893.066,0.000
1604236584.080,709.961,-30.762,-9.277,710.449,0.000
1604236584.083,-674.805,-57.617,-41.016,-668.457,0.000
1604236584.087,-1000.000,-71.777,-36.133,-1000.000,0.000
1604236584.091,-193.359,-35.156,-0.488,-193.359,0.000
1604236584.095,-965.332,-9.766,16.602,-963.867,0.000
1604236584.099,947.266,-7.324,-2.441,945.312,0.000
1604236584.103,-323.730,-32.715,-38.574,-320.801,0.000
1604236584.107,-1000.000,-55.176,-41.992,-1000.000,0.000
1604236584.111,-185.059,-23.438,-9.277,-206.543,0.000
1604236584.115,-999.023,-1.465,10.254,992.676,0.000
1604236584.119,-961.914,-18.066,-7.324,-955.078,0.000
1604236584.123,-85.938,-46.875,-37.598,-71.289,0.000
1604236584.126,-1000.000,-58.594,-37.598,-1000.000,0.000
1604236584.130,-374.023,-35.645,-10.742,-386.719,0.000
1604236584.134,912.109,-8.301,2.441,906.738,0.000
1604236584.138,-900.391,-15.625,-4.883,-896.973,0.000
1604236584.142,100.098,-44.434,-23.438,105.469,0.000
1604236584.146,-1000.000,-58.594,-27.344,-1000.000,0.000
1604236584.150,-550.293,-35.156,-25.391,-567.871,0.000
1604236584.154,822.754,-0.488,-16.113,803.223,0.000
1604236584.158,-859.863,3.418,-14.648,-855.469,0.000
1604236584.162,187.500,-31.738,-29.785,186.035,0.000
1604236584.165,-1000.000,-59.082,-25.879,-1000.000,0.000
1604236584.169,-825.195,-46.875,-15.625,-833.496,0.000
1604236584.173,534.180,-26.855,-8.301,520.020,0.000
1604236584.177,-804.688,-20.508,-5.859,-802.246,0.000
1604236584.181,153.320,-43.457,-29.297,154.785,0.000
1604236584.185,-1000.000,-61.523,-23.926,-1000.000,0.000
1604236584.189,-1000.000,-42.480,-5.371,-1000.000,0.000
1604236584.193,212.891,-15.625,-5.371,221.680,0.000
1604236584.197,-767.578,-12.695,-10.254,-767.090,0.000
1604236584.201,204.590,-43.945,-30.762,204.102,0.000
1604236584.205,-1000.000,-64.453,-37.109,-1000.000,0.000
1604236584.208,-1000.000,-53.711,-18.555,-1000.000,0.000
1604236584.212,-8.301,-28.320,0.977,-5.371,0.000
1604236584.216,-783.691,-12.207,7.324,-782.715,0.000
1604236584.220,392.578,-32.715,-25.391,389.648,0.000
1604236584.224,-918.457,-61.523,-56.152,-919.922,0.000
1604236584.228,-1000.000,-54.688,-50.293,-1000.000,0.000
1604236584.232,-186.523,-19.043,-13.184,-185.547,0.000
1604236584.236,-852.539,-4.395,3.418,-853.516,0.000
1604236584.240,594.727,-21.484,-26.367,598.145,0.000
1604236584.244,-791.504,-48.340,-55.176,-785.156,0.000
1604236584.248,-1000.000,-47.852,-52.246,-1000.000,0.000
1604236584.251,-210.449,-28.809,-19.043,-209.961,0.000
1604236584.255,-934.570,-13.184,-4.395,-933.105,0.000
1604236584.259,847.168,-19.531,-25.391,844.238,0.000
1604236584.263,-487.305,-44.922,-36.621,-488.770,0.000
1604236584.267,-1000.000,-54.199,-28.809,-1000.000,0.000
1604236584.271,-179.688,-24.414,-26.367,-179.688,0.000
1604236584.275,-987.793,-10.254,-20.508,-986.328,0.000
1604236584.279,-983.398,-23.926,-26.367,-987.793,0.000
1604236584.283,-172.363,-46.387,-50.293,-171.875,0.000
1604236584.287,-1000.000,-49.805,-46.387,-1000.000,0.000
1604236584.290,-258.301,-20.020,-20.996,-275.391,0.000
1604236584.294,962.891,-7.812,-10.254,956.543,0.000
1604236584.298,-926.270,-13.184,-17.090,-923.340,0.000
1604236584.302,48.340,-42.480,-36.133,47.363,0.000
1604236584.306,-1000.000,-78.125,-35.645,-1000.000,0.000
1604236584.310,-454.102,-48.340,-9.277,-464.355,0.000
1604236584.314,874.512,-11.230,5.859,869.629,0.000
1604236584.318,-879.395,-8.789,-9.766,-877.441,0.000
1604236584.322,198.730,-41.016,-41.016,187.988,0.000
1604236584.326,-1000.000,-52.246,-52.246,-1000.000,0.000
1604236584.330,-667.480,-29.785,-25.391,-663.574,0.000
1604236584.333,727.051,-10.254,-8.789,728.027,0.000
1604236584.337,-839.355,-3.418,-18.066,-838.867,0.000
1604236584.341,173.340,-28.809,-33.691,173.828,0.000
1604236584.345,-1000.000,-40.039,-43.945,-1000.000,0.000
1604236584.349,-908.691,-19.043,-29.297,-905.273,0.000
1604236584.353,409.668,-1.953,-3.906,412.598,0.000
1604236584.357,-787.109,-9.766,-9.277,-786.621,0.000
1604236584.361,144.043,-34.668,-39.062,159.180,0.000
1604236584.365,-1000.000,-70.801,-50.293,-1000.000,0.000
1604236584.369,-1000.000,-69.336,-34.180,-1000.000,0.000
1604236584.373,92.773,-19.043,-8.301,100.098,0.000
1604236584.376,-767.090,-5.859,-8.789,-767.578,0.000
1604236584.380,305.664,-33.203,-32.715,303.711,0.000
1604236584.384,-961.914,-53.711,-45.410,-963.379,0.000
1604236584.388,-1000.000,-47.852,-31.738,-1000.000,0.000
1604236584.392,-100.098,-16.602,4.395,-97.168,0.000
1604236584.396,-810.059,-1.953,8.301,-809.082,0.000
1604236584.400,479.492,-29.785,-27.832,478.516,0.000
1604236584.404,-874.512,-66.895,-47.363,-875.000,0.000
1604236584.408,-1000.000,-54.688,-30.762,-1000.000,0.000
1604236584.412,-229.492,-6.836,-2.441,-222.168,0.000
1604236584.415,-896.484,-0.977,4.883,-895.508,0.000
1604236584.419,714.844,-19.531,-9.766,717.285,0.000
1604236584.423,-668.457,-43.457,-31.250,-660.645,0.000
1604236584.427,-1000.000,-52.734,-34.180,-1000.000,0.000
1604236584.431,-193.848,-22.949,-12.207,-193.359,0.000
1604236584.435,-963.379,-8.789,0.977,-964.355,0.000
1604236584.439,940.918,-27.832,-8.789,944.824,0.000
1604236584.443,-330.078,-53.711,-20.508,-318.359,0.000
1604236584.447,-1000.000,-63.477,-26.855,-1000.000,0.000
1604236584.451,-219.238,-27.344,-10.254,-226.074,0.000
1604236584.455,991.211,2.441,9.766,990.723,0.000
1604236584.458,-960.938,-0.488,-18.066,-959.473,0.000
1604236584.462,-101.074,-19.531,-59.082,-102.539,0.000
1604236584.466,-1000.000,-33.691,-64.941,-1000.000,0.000
1604236584.470,-394.531,-6.348,-40.527,-397.461,0.000
1604236584.474,901.367,27.832,-29.785,899.902,0.000
1604236584.478,-897.461,21.973,-54.199,-895.508,0.000
1604236584.482,91.797,-8.301,-83.496,87.891,0.000
1604236584.486,-1000.000,-8.789,-90.820,-1000.000,0.000
1604236584.490,-562.500,22.949,-77.637,-591.797,0.000
1604236584.494,811.035,42.480,-63.965,776.855,0.000
1604236584.498,-856.934,35.645,-67.871,-849.609,0.000
1604236584.501,187.012,6.836,-97.168,184.570,0.000
1604236584.505,-1000.000,-31.250,-116.699,-1000.000,0.000
1604236584.509,-824.707,-19.531,-92.285,-836.914,0.000
1604236584.513,535.156,22.949,-63.965,515.137,0.000
1604236584.517,-804.199,24.902,-55.664,-801.270,0.000
1604236584.521,151.367,-9.277,-70.312,151.855,0.000
1604236584.525,-1000.000,-32.227,-85.938,-1000.000,0.000
1604236584.529,-1000.000,-30.762,-76.660,-1000.000,0.000
1604236584.533,184.082,-20.508,-56.641,184.570,0.000
1604236584.537,-765.137,-13.184,-55.176,-765.625,0.000
1604236584.540,202.148,-42.480,-75.684,201.660,0.000
1604236584.544,-1000.000,-68.359,-98.145,-1000.000,0.000
1604236584.548,-1000.000,-58.594,-94.238,-1000.000,0.000
1604236584.552,-26.855,-26.367,-57.617,-23.926,0.000
1604236584.556,-785.645,-17.578,-46.387,-784.180,0.000
1604236584.560,388.672,-38.574,-63.477,384.766,0.000
1604236584.564,-920.898,-61.035,-74.219,-922.852,0.000
1604236584.568,-1000.000,-62.500,-67.871,-1000.000,0.000
1604236584.572,-200.684,-32.227,-48.828,-198.242,0.000
1604236584.576,-862.793,-20.020,-44.922,-860.352,0.000
1604236584.580,622.070,-37.109,-51.758,617.188,0.000
1604236584.583,-765.625,-66.406,-67.871,-768.555,0.000
1604236584.587,-1000.000,-75.195,-73.730,-1000.000,0.000
1604236584.591,-209.473,-42.480,-40.039,-209.473,0.000
1604236584.595,-933.105,-17.090,-20.996,-931.641,0.000
1604236584.599,843.750,-23.438,-33.691,840.820,0.000
1604236584.603,-492.676,-61.035,-59.082,-494.629,0.000
1604236584.607,-1000.000,-64.941,-62.012,-1000.000,0.000
1604236584.611,-178.223,-32.227,-33.203,-179.688,0.000
1604236584.615,-991.211,-15.137,-20.508,-987.305,0.000
1604236584.619,-975.098,-18.066,-25.391,-985.352,0.000
1604236584.623,-153.320,-42.969,-47.363,-166.016,0.000
1604236584.626,-1000.000,-51.758,-50.293,-1000.000,0.000
1604236584.630,-259.766,-22.461,-21.484,-274.902,0.000
1604236584.634,968.262,-3.906,0.000,960.938,0.000
1604236584.638,-932.129,-24.414,-18.555,-927.734,0.000
1604236584.642,11.719,-53.223,-45.410,22.461,0.000
1604236584.646,-1000.000,-49.805,-47.363,-1000.000,0.000
1604236584.650,-453.613,-27.344,-29.785,-469.727,0.000
1604236584.654,870.605,-12.695,-12.207,863.281,0.000
1604236584.658,-878.418,-20.996,-21.973,-875.000,0.000
1604236584.662,190.918,-50.293,-36.133,179.199,0.000
1604236584.665,-1000.000,-64.453,-42.480,-1000.000,0.000
1604236584.669,-699.707,-48.828,-25.879,-713.379,0.000
1604236584.673,690.430,-17.090,-0.488,668.457,0.000
1604236584.677,-832.031,-5.859,-6.836,-827.637,0.000
1604236584.681,169.434,-38.086,-23.926,170.410,0.000
1604236584.685,-1000.000,-69.336,-43.945,-1000.000,0.000
1604236584.689,-927.734,-56.152,-37.598,-924.805,0.000
1604236584.693,380.371,-21.484,-7.812,385.254,0.000
1604236584.697,-783.203,-11.719,-16.602,-783.203,0.000
1604236584.701,143.066,-43.945,-37.109,143.555,0.000
1604236584.705,-1000.000,-72.266,-37.598,-1000.000,0.000
1604236584.708,-1000.000,-64.453,-29.297,-1000.000,0.000
1604236584.712,76.660,-29.785,-6.348,80.566,0.000
1604236584.716,-768.066,-10.742,0.000,-767.090,0.000
1604236584.720,306.152,-41.016,-27.832,304.199,0.000
1604236584.724,-961.914,-77.637,-50.293,-963.379,0.000
1604236584.728,-1000.000,-69.336,-43.945,-1000.000,0.000
1604236584.732,-110.352,-27.344,-18.066,-107.422,0.000
1604236584.736,-813.477,-3.906,-9.277,-812.012,0.000
1604236584.740,491.699,-25.391,-31.250,488.770,0.000
1604236584.744,-868.652,-56.152,-46.875,-870.605,0.000
1604236584.748,-1000.000,-52.246,-29.785,-1000.000,0.000
1604236584.751,-226.074,-26.855,-11.719,-218.262,0.000
1604236584.755,-903.809,-9.766,-8.789,-900.879,0.000
1604236584.759,741.211,-27.832,-25.391,738.281,0.000
1604236584.763,-633.789,-62.988,-49.805,-633.789,0.000
1604236584.767,-1000.000,-61.035,-44.922,-1000.000,0.000
1604236584.771,-192.871,-26.367,-27.832,-191.895,0.000
1604236584.775,-965.332,-7.324,-8.301,-964.844,0.000
1604236584.779,949.219,-19.531,-13.672,948.730,0.000
1604236584.783,-320.312,-49.805,-32.227,-313.965,0.000
1604236584.787,-1000.000,-57.129,-38.574,-1000.000,0.000
1604236584.790,-185.059,-29.785,-17.578,-205.566,0.000
1604236584.794,997.559,-10.254,6.836,990.234,0.000
1604236584.798,-956.055,-24.902,-16.113,-950.684,0.000
1604236584.802,-63.965,-51.270,-46.387,-53.223,0.000
1604236584.806,-1000.000,-61.523,-42.480,-1000.000,0.000
1604236584.810,-353.027,-38.574,-25.879,-363.281,0.000
1604236584.814,919.922,-17.090,-4.883,916.016,0.000
1604236584.818,-900.879,-14.160,-10.742,-898.438,0.000
1604236584.822,141.602,-48.828,-43.945,143.066,0.000
1604236584.826,-1000.000,-84.961,-48.340,-1000.000,0.000
1604236584.830,-557.617,-58.105,-23.438,-580.078,0.000
1604236584.833,824.707,-22.949,-0.488,799.316,0.000
1604236584.837,-860.352,-23.438,6.348,-854.980,0.000
1604236584.841,187.988,-55.176,-30.273,187.500,0.000
1604236584.845,-1000.000,-66.406,-55.664,-1000.000,0.000
1604236584.849,-819.824,-39.062,-31.250,-820.801,0.000
1604236584.853,541.504,-22.461,-5.371,538.086,0.000
1604236584.857,-805.176,-18.555,-5.371,-804.199,0.000
1604236584.861,152.344,-38.086,-28.809,153.809,0.000
1604236584.865,-1000.000,-70.312,-44.922,-1000.000,0.000
1604236584.869,-1000.000,-61.523,-28.809,-1000.000,0.000
1604236584.873,198.730,-27.832,-4.883,205.566,0.000
1604236584.876,-766.113,-19.531,-4.883,-766.113,0.000
1604236584.880,202.637,-43.457,-28.320,201.660,0.000
1604236584.884,-1000.000,-57.129,-43.945,-1000.000,0.000
1604236584.888,-1000.000,-49.805,-35.645,-1000.000,0.000
1604236584.892,-24.902,-31.738,-9.766,-22.461,0.000
1604236584.896,-786.621,-14.160,-5.371,-785.645,0.000
1604236584.900,390.137,-32.227,-24.902,387.695,0.000
1604236584.904,-942.871,-57.617,-39.062,-943.848,0.000
1604236584.908,-1000.000,-55.664,-35.645,-1000.000,0.000
1604236584.912,-108.398,-31.738,-18.066,-105.957,0.000
1604236584.915,-864.258,-15.625,-7.324,-865.234,0.000
1604236584.919,590.332,-41.016,-21.484,595.703,0.000
1604236584.923,-796.875,-72.266,-49.805,-787.109,0.000
1604236584.927,-1000.000,-59.570,-53.223,-1000.000,0.000
1604236584.931,-209.961,-23.438,-23.926,-209.961,0.000
1604236584.935,-935.547,-6.348,-4.395,-934.082,0.000
1604236584.939,850.098,-28.320,-20.508,848.145,0.000
1604236584.943,-482.422,-50.781,-33.691,-483.398,0.000
1604236584.947,-1000.000,-54.199,-28.320,-1000.000,0.000
1604236584.951,-178.223,-29.785,-9.277,-179.199,0.000
1604236584.955,-990.723,-3.906,-2.930,-987.305,0.000
1604236584.958,-976.562,-11.230,-20.020,-985.352,0.000
1604236584.962,-152.344,-49.805,-39.062,-162.598,0.000
1604236584.966,-1000.000,-75.684,-42.969,-1000.000,0.000
1604236584.970,-282.227,-41.016,-26.855,-290.039,0.000
1604236584.974,956.543,-3.906,-11.230,952.148,0.000
1604236584.978,-924.805,-15.137,-14.160,-921.387,0.000
1604236584.982,30.762,-51.270,-45.898,41.016,0.000
1604236584.986,-1000.000,-67.383,-41.016,-1000.000,0.000
1604236584.990,-452.148,-38.086,-12.207,-460.938,0.000
1604236584.994,874.023,-4.395,-8.301,871.094,0.000
1604236584.998,-879.395,-13.184,-15.625,-877.441,0.000
1604236585.001,193.359,-46.875,-43.457,183.594,0.000
1604236585.005,-1000.000,-62.500,-61.035,-1000.000,0.000
1604236585.009,-696.777,-39.551,-36.133,-703.613,0.000
1604236585.013,694.336,-12.695,-3.418,680.664,0.000
1604236585.017,-832.520,-8.301,-9.277,-829.590,0.000
1604236585.021,168.457,-34.180,-41.504,168.945,0.000
1604236585.025,-1000.000,-64.941,-49.805,-1000.000,0.000
1604236585.029,-935.547,-51.270,-34.180,-936.523,0.000
1604236585.033,368.164,-26.855,-12.207,364.746,0.000
1604236585.037,-782.227,-23.438,-11.719,-781.738,0.000
1604236585.040,144.043,-42.480,-36.621,145.508,0.000
1604236585.044,-1000.000,-59.570,-45.410,-1000.000,0.000
1604236585.048,-1000.000,-48.828,-28.320,-1000.000,0.000
1604236585.052,88.867,-22.461,-4.883,96.680,0.000
1604236585.056,-766.602,-10.742,1.465,-767.090,0.000
1604236585.060,296.387,-31.250,-18.555,292.969,0.000
1604236585.064,-964.844,-46.875,-36.621,-966.797,0.000
1604236585.068,-1000.000,-43.457,-27.832,-1000.000,0.000
1604236585.072,-110.840,-23.926,-7.324,-105.957,0.000
1604236585.076,-812.500,-12.695,-3.906,-811.035,0.000
1604236585.080,484.863,-41.992,-24.902,482.910,0.000
1604236585.083,-872.559,-66.406,-51.270,-874.023,0.000
1604236585.087,-1000.000,-56.152,-44.434,-1000.000,0.000
1604236585.091,-224.609,-24.414,-16.113,-215.820,0.000
1604236585.095,-910.156,-2.441,-6.348,-904.785,0.000
1604236585.099,764.160,-14.160,-20.020,756.348,0.000
1604236585.103,-604.492,-44.922,-39.062,-611.328,0.000
1604236585.107,-1000.000,-43.457,-41.992,-1000.000,0.000
1604236585.111,-189.453,-13.184,-21.973,-189.453,0.000
1604236585.115,-970.703,0.488,0.488,-968.750,0.000
1604236585.119,966.309,-10.254,-6.348,962.402,0.000
1604236585.123,-289.551,-39.551,-29.785,-290.527,0.000
1604236585.126,-1000.000,-53.711,-31.738,-1000.000,0.000
1604236585.130,-177.246,-19.043,-6.348,-201.660,0.000
1604236585.134,999.023,5.371,12.207,991.699,0.000
1604236585.138,-954.102,-18.555,-3.418,-950.684,0.000
1604236585.142,-47.852,-45.410,-34.180,-48.828,0.000
1604236585.146,-1000.000,-63.965,-42.969,-1000.000,0.000
1604236585.150,-356.445,-49.316,-21.973,-367.188,0.000
1604236585.154,922.363,-18.066,-9.277,916.016,0.000
1604236585.158,-902.832,-16.113,-22.461,-898.926,0.000
1604236585.162,122.070,-43.457,-35.645,132.812,0.000
1604236585.165,-1000.000,-68.359,-41.504,-1000.000,0.000
1604236585.169,-554.688,-45.898,-25.879,-577.148,0.000
1604236585.173,823.730,-13.184,-9.277,799.805,0.000
1604236585.177,-859.863,-14.648,-22.949,-854.492,0.000
1604236585.181,187.012,-45.410,-41.504,185.547,0.000
1604236585.185,-1000.000,-66.406,-45.410,-1000.000,0.000
1604236585.189,-827.148,-57.129,-39.551,-837.402,0.000
1604236585.193,531.738,-26.367,-20.996,514.160,0.000
1604236585.197,-803.711,-14.648,-15.625,-801.270,0.000
1604236585.201,152.344,-54.688,-38.574,153.320,0.000
1604236585.205,-1000.000,-81.543,-51.758,-1000.000,0.000
1604236585.208,-1000.000,-60.547,-30.762,-1000.000,0.000
1604236585.212,195.801,-31.738,-5.371,203.125,0.000
1604236585.216,-766.113,-24.414,-14.648,-765.625,0.000
1604236585.220,199.219,-47.363,-36.621,199.219,0.000
1604236585.224,-1000.000,-65.918,-40.039,-1000.000,0.000
1604236585.228,-1000.000,-56.641,-31.738,-1000.000,0.000
1604236585.232,-27.344,-32.227,-11.230,-23.438,0.000
1604236585.236,-785.645,-17.578,0.488,-784.668,0.000
1604236585.240,395.996,-31.250,-20.996,391.113,0.000
1604236585.244,-916.504,-55.664,-51.270,-918.945,0.000
1604236585.248,-1000.000,-60.059,-35.156,-1000.000,0.000
1604236585.251,-207.520,-36.621,0.000,-201.660,0.000
1604236585.255,-860.840,-21.973,-2.930,-859.863,0.000
1604236585.259,609.863,-37.598,-23.926,610.840,0.000
1604236585.263,-780.762,-62.012,-44.434,-776.367,0.000
1604236585.267,-1000.000,-53.711,-38.086,-1000.000,0.000
1604236585.271,-208.984,-21.973,-9.766,-208.496,0.000
1604236585.275,-937.012,-10.254,0.000,-935.547,0.000
1604236585.279,855.957,-21.484,-17.578,854.492,0.000
1604236585.283,-474.121,-49.316,-47.852,-474.121,0.000
1604236585.287,-1000.000,-58.594,-47.363,-1000.000,0.000
1604236585.290,-177.734,-30.273,-8.789,-178.711,0.000
1604236585.294,-991.211,-13.184,6.348,-987.793,0.000
1604236585.298,-975.098,-34.668,-10.742,-983.398,0.000
1604236585.302,-148.438,-62.500,-36.133,-157.227,0.000
1604236585.306,-1000.000,-68.848,-47.363,-1000.000,0.000
1604236585.310,-276.855,-44.922,-21.484,-286.621,0.000
1604236585.314,957.520,-18.555,3.418,953.125,0.000
1604236585.318,-923.828,-20.508,-5.371,-921.387,0.000
1604236585.322,42.480,-50.781,-41.016,46.875,0.000
1604236585.326,-1000.000,-66.406,-47.363,-1000.000,0.000
1604236585.330,-450.684,-36.621,-19.043,-453.613,0.000
1604236585.333,875.977,-11.230,6.836,875.977,0.000
1604236585.337,-879.883,-27.344,-1.953,-878.906,0.000
1604236585.341,197.266,-61.523,-40.039,187.500,0.000
1604236585.345,-1000.000,-75.195,-51.270,-1000.000,0.000
1604236585.349,-694.824,-47.852,-28.809,-699.219,0.000
1604236585.353,696.777,-17.578,-6.836,687.500,0.000
1604236585.357,-833.008,-13.672,-10.254,-830.566,0.000
1604236585.361,169.434,-46.875,-28.809,169.922,0.000
1604236585.365,-1000.000,-65.918,-29.785,-1000.000,0.000
1604236585.369,-931.641,-41.016,-16.602,-929.199,0.000
1604236585.373,375.000,-14.648,-6.348,375.000,0.000
1604236585.376,-782.227,-3.418,0.977,-781.250,0.000
1604236585.380,142.090,-29.297,-17.090,158.691,0.000
1604236585.384,-1000.000,-37.598,-45.898,-1000.000,0.000
1604236585.388,-1000.000,-22.949,-42.480,-1000.000,0.000
1604236585.392,63.965,-12.207,-9.766,66.895,0.000
1604236585.396,-768.555,2.930,3.418,-768.555,0.000
1604236585.400,303.223,-25.391,-26.855,299.316,0.000
1604236585.404,-963.379,-58.594,-56.641,-965.820,0.000
1604236585.408,-1000.000,-51.758,-43.945,-1000.000,0.000
1604236585.412,-117.188,-18.555,-4.883,-112.305,0.000
1604236585.415,-813.965,-6.348,2.930,-812.012,0.000
1604236585.419,486.816,-26.367,-15.625,483.887,0.000
1604236585.423,-872.559,-56.641,-36.621,-874.023,0.000
1604236585.427,-1000.000,-59.082,-41.504,-1000.000,0.000
1604236585.431,-227.539,-31.250,-15.137,-221.680,0.000
1604236585.435,-901.855,-19.531,-3.418,-898.926,0.000
1604236585.439,733.887,-28.809,-20.508,730.469,0.000
1604236585.443,-644.043,-34.180,-35.645,-644.043,0.000
1604236585.447,-1000.000,-38.574,-43.457,-1000.000,0.000
1604236585.451,-192.383,-27.832,-29.785,-192.383,0.000
1604236585.455,-965.820,-1.465,-10.742,-964.844,0.000
1604236585.458,950.195,-3.418,-23.926,948.730,0.000
1604236585.462,-317.871,-43.945,-47.852,-313.965,0.000
1604236585.466,-1000.000,-64.453,-32.227,-1000.000,0.000
1604236585.470,-186.035,-29.297,0.977,-207.031,0.000
1604236585.474,997.559,-0.488,4.883,990.234,0.000
1604236585.478,-956.543,-24.414,-16.602,-951.660,0.000
1604236585.482,-64.453,-60.059,-35.645,-55.664,0.000
1604236585.486,-1000.000,-64.941,-35.645,-1000.000,0.000
1604236585.490,-361.328,-35.156,-10.742,-379.395,0.000
1604236585.494,918.457,-15.625,12.695,909.180,0.000
1604236585.498,-901.367,-30.762,-3.906,-896.484,0.000
1604236585.501,120.605,-55.664,-37.109,130.371,0.000
1604236585.505,-1000.000,-69.336,-40.039,-1000.000,0.000
1604236585.509,-547.363,-47.363,-22.461,-555.176,0.000
1604236585.513,828.125,-18.555,-7.324,821.289,0.000
1604236585.517,-861.816,-33.203,-0.488,-859.863,0.000
1604236585.521,189.453,-68.359,-13.184,190.430,0.000
1604236585.525,-1000.000,-76.172,-40.039,-1000.000,0.000
1604236585.529,-804.688,-55.664,-31.250,-802.246,0.000
1604236585.533,561.035,-28.320,-5.371,564.453,0.000
1604236585.537,-809.082,-19.043,-10.742,-808.594,0.000
1604236585.540,156.250,-46.875,-36.133,156.738,0.000
1604236585.544,-1000.000,-59.570,-39.062,-1000.000,0.000
1604236585.548,-1000.000,-45.898,-24.902,-1000.000,0.000
1604236585.552,242.676,-25.391,-12.695,242.676,0.000
1604236585.556,-769.043,-25.391,-7.812,-768.555,0.000
1604236585.560,181.641,-50.293,-32.715,187.988,0.000
1604236585.564,-1000.000,-74.219,-50.293,-1000.000,0.000
1604236585.568,-1000.000,-71.289,-42.969,-1000.000,0.000
1604236585.572,-38.574,-33.203,-19.531,-40.039,0.000
1604236585.576,-786.133,-12.695,-11.230,-786.133,0.000
1604236585.580,381.348,-34.668,-31.250,378.906,0.000
1604236585.583,-924.805,-65.918,-48.828,-926.270,0.000
1604236585.587,-1000.000,-61.035,-39.551,-1000.000,0.000
1604236585.591,-211.426,-18.066,-24.414,-209.473,0.000
1604236585.595,-858.887,-6.348,-15.625,-858.398,0.000
1604236585.599,598.633,-39.551,-20.996,599.609,0.000
1604236585.603,-792.969,-63.477,-40.527,-788.086,0.000
1604236585.607,-1000.000,-68.848,-40.039,-1000.000,0.000
1604236585.611,-208.984,-35.156,-10.742,-209.473,0.000
1604236585.615,-937.500,-6.348,2.441,-935.059,0.000
1604236585.619,856.445,-30.762,-21.973,851.562,0.000
1604236585.623,-473.145,-62.500,-41.992,-478.027,0.000
1604236585.626,-1000.000,-67.383,-44.434,-1000.000,0.000
1604236585.630,-177.246,-31.250,-15.625,-178.223,0.000
1604236585.634,-992.676,1.953,6.348,-989.258,0.000
1604236585.638,-971.191,-18.066,-13.184,-979.004,0.000
1604236585.642,-139.648,-50.781,-37.109,-151.367,0.000
1604236585.646,-1000.000,-55.664,-33.203,-1000.000,0.000
1604236585.650,-249.512,-29.785,-15.625,-254.883,0.000
1604236585.654,965.332,-9.766,-2.930,963.379,0.000
1604236585.658,-924.805,-16.602,-9.766,-923.828,0.000
1604236585.662,72.266,-42.480,-26.855,68.359,0.000
1604236585.665,-1000.000,-69.824,-43.457,-1000.000,0.000
1604236585.669,-462.891,-60.059,-28.809,-475.586,0.000
1604236585.673,873.535,-21.484,1.465,865.723,0.000
1604236585.677,-878.906,-20.508,-5.371,-875.488,0.000
1604236585.681,192.383,-46.875,-32.715,181.641,0.000
1604236585.685,-1000.000,-61.035,-40.527,-1000.000,0.000
1604236585.689,-704.590,-44.922,-18.555,-721.191,0.000
1604236585.693,685.547,-18.066,-0.977,659.668,0.000
1604236585.697,-830.566,-22.949,-10.742,-825.684,0.000
1604236585.701,167.480,-59.082,-25.879,166.504,0.000
1604236585.705,-1000.000,-60.547,-30.273,-1000.000,0.000
1604236585.708,-940.918,-36.621,-19.043,-949.707,0.000
1604236585.712,359.863,-20.020,4.395,341.797,0.000
1604236585.716,-780.273,-19.531,-4.883,-779.297,0.000
1604236585.720,141.602,-51.270,-39.551,142.578,0.000
1604236585.724,-1000.000,-69.336,-49.805,-1000.000,0.000
1604236585.728,-1000.000,-54.199,-32.715,-1000.000,0.000
1604236585.732,59.082,-22.949,0.488,54.199,0.000
1604236585.736,-768.066,-4.883,15.137,-769.043,0.000
1604236585.740,278.809,-27.832,-13.184,277.344,0.000
1604236585.744,-973.145,-56.641,-46.875,-974.121,0.000
1604236585.748,-1000.000,-48.828,-39.551,-1000.000,0.000
1604236585.751,-130.371,-16.602,-6.348,-128.906,0.000
1604236585.755,-812.988,2.441,1.953,-812.500,0.000
1604236585.759,470.215,-17.090,-16.113,470.703,0.000
1604236585.763,-884.766,-54.688,-39.062,-883.789,0.000
1604236585.767,-1000.000,-64.453,-41.016,-1000.000,0.000
1604236585.771,-232.422,-27.344,-9.766,-230.469,0.000
1604236585.775,-890.625,-8.789,11.719,-893.066,0.000
1604236585.779,692.383,-26.855,-9.277,704.102,0.000
1604236585.783,-695.801,-49.805,-40.039,-678.223,0.000
1604236585.787,-1000.000,-49.316,-35.645,-1000.000,0.000
1604236585.790,-194.336,-18.555,-18.555,-193.848,0.000
1604236585.794,-964.844,-3.906,-13.184,-963.867,0.000
1604236585.798,943.359,-12.695,-15.625,943.359,0.000
1604236585.802,-325.684,-41.016,-32.227,-320.801,0.000
1604236585.806,-1000.000,-60.059,-34.180,-1000.000,0.000
1604236585.810,-218.750,-26.367,-7.812,-225.586,0.000
1604236585.814,989.746,-2.930,1.465,987.793,0.000
1604236585.818,-958.008,-23.926,-18.555,-955.078,0.000
1604236585.822,-91.797,-51.758,-45.898,-83.984,0.000
1604236585.826,-1000.000,-61.523,-44.922,-1000.000,0.000
1604236585.830,-393.066,-34.180,-26.855,-394.043,0.000
1604236585.833,901.855,-15.137,-4.883,901.367,0.000
1604236585.837,-896.484,-19.531,-0.488,-895.020,0.000
1604236585.841,101.562,-52.246,-40.039,110.840,0.000
1604236585.845,-1000.000,-80.078,-59.082,-1000.000,0.000
1604236585.849,-552.246,-54.199,-30.762,-562.500,0.000
1604236585.853,822.266,-17.090,-7.324,815.918,0.000
1604236585.857,-859.863,-11.719,-4.883,-856.445,0.000
1604236585.861,187.012,-42.969,-26.367,185.547,0.000
1604236585.865,-1000.000,-68.848,-47.363,-1000.000,0.000
1604236585.869,-825.684,-56.152,-33.691,-834.961,0.000
1604236585.873,533.691,-22.949,-9.277,517.578,0.000
1604236585.876,-805.664,-20.996,-16.113,-803.223,0.000
1604236585.880,159.180,-53.711,-42.480,160.156,0.000
1604236585.884,-1000.000,-70.801,-46.875,-1000.000,0.000
1604236585.888,-971.191,-58.105,-29.297,-967.285,0.000
1604236585.892,281.738,-17.090,-1.465,287.598,0.000
1604236585.896,-776.855,-6.836,-1.953,-776.855,0.000
1604236585.900,202.637,-48.340,-33.691,201.660,0.000
1604236585.904,-1000.000,-65.430,-41.992,-1000.000,0.000
1604236585.908,-1000.000,-57.129,-31.738,-1000.000,0.000
1604236585.912,-16.113,-36.621,-14.160,-13.672,0.000
1604236585.915,-784.668,-15.625,-8.789,-783.691,0.000
1604236585.919,394.043,-33.691,-23.926,389.648,0.000
1604236585.923,-917.969,-62.988,-44.922,-919.922,0.000
1604236585.927,-1000.000,-62.012,-40.527,-1000.000,0.000
1604236585.931,-191.406,-28.320,-12.695,-189.453,0.000
1604236585.935,-861.816,-10.742,-2.930,-859.375,0.000
1604236585.939,626.465,-29.297,-13.184,620.605,0.000
1604236585.943,-758.789,-53.223,-31.738,-763.184,0.000
1604236585.947,-1000.000,-53.223,-30.273,-1000.000,0.000
1604236585.951,-208.008,-29.785,-10.254,-208.008,0.000
1604236585.955,-938.477,-19.531,-2.930,-937.012,0.000
1604236585.958,862.793,-32.715,-12.695,860.352,0.000
1604236585.962,-492.676,-61.523,-35.156,-494.141,0.000
1604236585.966,-1000.000,-63.965,-34.668,-1000.000,0.000
1604236585.970,-91.309,-33.203,-8.301,-91.309,0.000
1604236585.974,-998.535,-8.301,3.418,-997.070,0.000
1604236585.978,-983.887,-24.414,-23.438,-987.305,0.000
1604236585.982,-169.434,-57.617,-45.898,-166.992,0.000
1604236585.986,-1000.000,-50.293,-23.926,-1000.000,0.000
1604236585.990,-263.672,-27.344,-2.441,-280.273,0.000
1604236585.994,964.355,-12.695,4.395,956.543,0.000
1604236585.998,-929.688,-18.555,-11.230,-924.805,0.000
1604236586.001,22.949,-51.270,-36.133,33.691,0.000
1604236586.005,-1000.000,-67.383,-41.992,-1000.000,0.000
1604236586.009,-453.613,-37.598,-20.996,-464.844,0.000
1604236586.013,872.070,-10.254,-1.953,867.676,0.000
1604236586.017,-878.906,-13.672,-12.695,-876.465,0.000
1604236586.021,194.824,-43.457,-40.039,184.082,0.000
1604236586.025,-1000.000,-64.941,-52.246,-1000.000,0.000
1604236586.029,-696.289,-48.828,-22.461,-701.660,0.000
1604236586.033,695.312,-18.066,0.488,683.594,0.000
1604236586.037,-832.520,-8.301,-16.602,-830.078,0.000
1604236586.040,169.434,-40.527,-34.668,169.922,0.000
1604236586.044,-1000.000,-69.336,-43.457,-1000.000,0.000
1604236586.048,-930.176,-54.688,-29.785,-927.246,0.000
1604236586.052,377.441,-22.949,3.906,380.859,0.000
1604236586.056,-782.715,-20.020,6.348,-782.715,0.000
1604236586.060,143.066,-45.898,-30.273,143.555,0.000
1604236586.064,-1000.000,-70.312,-41.504,-1000.000,0.000
1604236586.068,-1000.000,-64.453,-20.996,-1000.000,0.000
1604236586.072,75.684,-35.156,-9.277,78.125,0.000
1604236586.076,-768.066,-26.367,-7.324,-767.090,0.000
1604236586.080,306.641,-47.363,-23.926,298.340,0.000
1604236586.083,-961.426,-68.848,-45.410,-965.820,0.000
1604236586.087,-1000.000,-64.453,-40.039,-1000.000,0.000
1604236586.091,-111.816,-27.832,-8.789,-106.934,0.000
1604236586.095,-811.523,-6.836,0.000,-809.570,0.000
1604236586.099,474.121,-18.555,-22.949,472.168,0.000
1604236586.103,-879.883,-40.039,-40.039,-880.371,0.000
1604236586.107,-1000.000,-47.852,-31.250,-1000.000,0.000
1604236586.111,-228.027,-23.926,3.906,-223.633,0.000
1604236586.115,-902.344,-10.254,8.301,-899.902,0.000
1604236586.119,737.793,-30.762,-20.020,733.398,0.000
1604236586.123,-638.672,-55.664,-46.875,-641.602,0.000
1604236586.126,-1000.000,-57.129,-55.176,-1000.000,0.000
1604236586.130,-195.801,-27.832,-23.926,-193.848,0.000
1604236586.134,-957.520,-15.137,-0.488,-959.961,0.000
1604236586.138,926.758,-35.645,-20.020,935.059,0.000
1604236586.142,-360.352,-58.105,-43.945,-338.867,0.000
1604236586.146,-1000.000,-62.500,-42.480,-1000.000,0.000
1604236586.150,-178.223,-37.598,-18.066,-202.148,0.000
1604236586.154,999.023,-23.926,-3.418,991.211,0.000
1604236586.158,-958.008,-27.344,-10.254,-952.637,0.000
1604236586.162,-67.383,-46.387,-28.320,-59.082,0.000
1604236586.165,-1000.000,-64.453,-39.062,-1000.000,0.000
1604236586.169,-356.445,-51.758,-20.996,-371.094,0.000
1604236586.173,919.922,-30.762,-11.719,913.086,0.000
1604236586.177,-901.855,-28.809,-28.809,-897.949,0.000
1604236586.181,123.047,-53.223,-43.457,132.812,0.000
1604236586.185,-1000.000,-69.824,-44.434,-1000.000,0.000
1604236586.189,-549.316,-45.410,-21.973,-557.617,0.000
1604236586.193,827.148,-20.996,1.953,819.336,0.000
1604236586.197,-861.328,-30.762,-5.859,-859.375,0.000
1604236586.201,189.453,-52.734,-28.320,190.430,0.000
1604236586.205,-1000.000,-63.477,-41.992,-1000.000,0.000
1604236586.208,-804.688,-43.457,-27.832,-799.316,0.000
1604236586.212,560.547,-15.137,6.836,567.871,0.000
1604236586.216,-809.082,-17.578,1.953,-809.082,0.000
1604236586.220,155.273,-53.223,-33.203,156.250,0.000
1604236586.224,-1000.000,-60.547,-43.457,-1000.000,0.000
1604236586.228,-1000.000,-41.016,-27.344,-1000.000,0.000
1604236586.232,230.469,-20.508,-0.977,236.816,0.000
1604236586.236,-768.555,-18.066,-0.488,-768.555,0.000
1604236586.240,203.125,-45.410,-35.645,202.637,0.000
1604236586.244,-1000.000,-59.570,-47.852,-1000.000,0.000
1604236586.248,-1000.000,-46.875,-20.508,-1000.000,0.000
1604236586.251,-7.324,-21.484,4.883,-5.371,0.000
1604236586.255,-784.180,-4.883,2.441,-783.203,0.000
1604236586.259,399.902,-35.156,-26.855,398.926,0.000
1604236586.263,-918.457,-65.918,-40.527,-918.457,0.000
1604236586.267,-1000.000,-59.082,-30.762,-1000.000,0.000
1604236586.271,-150.391,-27.832,-4.883,-159.668,0.000
1604236586.275,-846.191,-7.812,5.371,-850.098,0.000
1604236586.279,599.609,-32.715,-12.207,605.469,0.000
1604236586.283,-778.320,-65.430,-40.527,-771.973,0.000
1604236586.287,-1000.000,-71.289,-41.992,-1000.000,0.000
1604236586.290,-209.473,-37.598,-14.648,-208.984,0.000
1604236586.294,-934.570,-12.695,-8.789,-934.570,0.000
1604236586.298,848.633,-35.156,-20.996,850.098,0.000
1604236586.302,-485.352,-57.129,-32.227,-480.469,0.000
1604236586.306,-1000.000,-57.617,-31.738,-1000.000,0.000
1604236586.310,-177.246,-35.645,-8.789,-177.734,0.000
1604236586.314,-993.164,-8.301,3.906,-991.211,0.000
1604236586.318,-970.703,-14.648,-23.926,-976.074,0.000
1604236586.322,-136.719,-50.781,-45.898,-142.090,0.000
1604236586.326,-1000.000,-65.430,-43.457,-1000.000,0.000
1604236586.330,-261.230,-36.133,-35.156,-272.461,0.000
1604236586.333,966.309,-9.277,-17.090,960.449,0.000
1604236586.337,-928.223,-16.113,-15.137,-924.316,0.000
1604236586.341,35.156,-46.875,-41.016,44.922,0.000
1604236586.345,-1000.000,-65.430,-49.316,-1000.000,0.000
1604236586.349,-450.195,-38.086,-19.531,-454.102,0.000
1604236586.353,875.488,-16.113,-0.488,875.977,0.000
1604236586.357,-880.371,-21.973,-12.695,-879.395,0.000
1604236586.361,191.406,-46.387,-39.551,184.082,0.000
1604236586.365,-1000.000,-60.547,-48.828,-1000.000,0.000
1604236586.369,-687.500,-40.527,-28.320,-686.523,0.000
1604236586.373,703.125,-11.230,-8.301,701.660,0.000
1604236586.376,-834.473,-8.301,-20.020,-833.008,0.000
1604236586.380,169.434,-29.785,-42.480,170.410,0.000
1604236586.384,-1000.000,-46.387,-43.945,-1000.000,0.000
1604236586.388,-930.176,-44.434,-35.645,-928.223,0.000
1604236586.392,376.465,-25.391,-18.066,378.906,0.000
1604236586.396,-783.203,-14.648,-0.977,-782.715,0.000
1604236586.400,143.066,-43.945,-25.879,144.043,0.000
1604236586.404,-1000.000,-73.730,-50.781,-1000.000,0.000
1604236586.408,-1000.000,-51.758,-28.809,-1000.000,0.000
1604236586.412,79.590,-9.766,2.930,80.566,0.000
1604236586.415,-766.602,-3.906,-4.395,-766.113,0.000
1604236586.419,276.367,-46.387,-35.645,275.391,0.000
1604236586.423,-974.609,-76.172,-46.387,-975.098,0.000
1604236586.427,-1000.000,-69.336,-35.156,-1000.000,0.000
1604236586.431,-111.328,-35.156,-5.371,-107.910,0.000
1604236586.435,-809.570,-12.207,8.789,-809.082,0.000
1604236586.439,470.215,-32.227,-9.277,470.703,0.000
1604236586.443,-881.836,-52.734,-37.109,-881.348,0.000
1604236586.447,-1000.000,-49.805,-34.180,-1000.000,0.000
1604236586.451,-230.957,-23.926,0.488,-223.145,0.000
1604236586.455,-894.531,4.395,9.766,-894.043,0.000
1604236586.458,707.031,-13.672,-19.531,712.402,0.000
1604236586.462,-677.734,-58.594,-51.758,-666.016,0.000
1604236586.466,-1000.000,-65.430,-43.945,-1000.000,0.000
1604236586.470,-195.801,-34.180,-10.742,-194.336,0.000
1604236586.474,-959.961,-13.184,-0.977,-962.402,0.000
1604236586.478,931.641,-18.066,-21.484,939.941,0.000
1604236586.482,-351.562,-43.945,-44.434,-330.566,0.000
1604236586.486,-1000.000,-56.641,-41.992,-1000.000,0.000
1604236586.490,-173.340,-32.227,-13.672,-199.219,0.000
1604236586.494,-998.047,-8.301,-2.441,993.652,0.000
1604236586.498,-959.961,-17.090,-19.043,-953.125,0.000
1604236586.501,-72.266,-48.828,-41.504,-62.500,0.000
1604236586.505,-1000.000,-63.477,-49.805,-1000.000,0.000
1604236586.509,-350.098,-37.109,-26.855,-353.516,0.000
1604236586.513,924.316,-9.277,-2.930,922.852,0.000
1604236586.517,-904.297,-21.973,-19.043,-902.344,0.000
1604236586.521,106.934,-50.781,-37.598,120.605,0.000
1604236586.525,-1000.000,-67.871,-43.457,-1000.000,0.000
1604236586.529,-537.598,-44.434,-36.133,-537.109,0.000
1604236586.533,831.543,-19.531,-11.230,835.449,0.000
1604236586.537,-862.793,-29.297,-6.348,-863.281,0.000
1604236586.540,190.918,-51.270,-30.273,191.895,0.000
1604236586.544,-1000.000,-71.289,-41.992,-1000.000,0.000
1604236586.548,-799.316,-55.664,-25.391,-792.480,0.000
1604236586.552,567.383,-25.879,-7.324,576.172,0.000
1604236586.556,-809.082,-20.508,-8.301,-809.570,0.000
1604236586.560,153.320,-41.992,-35.645,154.297,0.000
1604236586.564,-1000.000,-64.941,-52.246,-1000.000,0.000
1604236586.568,-1000.000,-54.199,-32.715,-1000.000,0.000
1604236586.572,199.707,-16.602,-6.348,208.496,0.000
1604236586.576,-766.113,-9.277,-1.465,-765.625,0.000
1604236586.580,203.125,-37.109,-20.508,201.660,0.000
1604236586.583,-1000.000,-50.781,-46.387,-1000.000,0.000
1604236586.587,-1000.000,-50.293,-34.180,-1000.000,0.000
1604236586.591,-25.391,-25.879,-7.812,-21.973,0.000
1604236586.595,-786.133,-4.883,-6.348,-784.668,0.000
1604236586.599,396.484,-28.320,-20.020,392.090,0.000
1604236586.603,-916.992,-63.477,-45.410,-919.434,0.000
1604236586.607,-1000.000,-62.988,-43.945,-1000.000,0.000
1604236586.611,-197.266,-34.180,-17.090,-192.383,0.000
1604236586.615,-856.934,-16.113,-12.207,-856.445,0.000
1604236586.619,601.562,-31.738,-17.090,604.492,0.000
1604236586.623,-787.109,-62.988,-26.855,-780.273,0.000
1604236586.626,-1000.000,-69.336,-32.715,-1000.000,0.000
1604236586.630,-213.867,-35.156,-8.301,-211.914,0.000
1604236586.634,-922.852,-8.301,2.930,-927.246,0.000
1604236586.638,809.082,-23.438,-10.742,825.195,0.000
1604236586.642,-543.457,-59.082,-25.879,-517.090,0.000
1604236586.646,-1000.000,-74.219,-31.250,-1000.000,0.000
1604236586.650,-178.711,-41.504,-7.324,-179.199,0.000
1604236586.654,-992.676,-10.742,17.090,-988.770,0.000
1604236586.658,-974.609,-21.973,4.395,-981.934,0.000
1604236586.662,-153.320,-50.781,-29.297,-161.133,0.000
1604236586.665,-1000.000,-67.383,-34.668,-1000.000,0.000
1604236586.669,-246.094,-46.387,-11.230,-245.117,0.000
1604236586.673,965.820,-11.719,9.277,967.285,0.000
1604236586.677,-924.805,-6.348,11.719,-924.805,0.000
1604236586.681,68.848,-30.762,-2.930,66.895,0.000
1604236586.685,-1000.000,-52.246,-27.832,-1000.000,0.000
1604236586.689,-440.918,-29.785,-10.742,-439.941,0.000
1604236586.693,884.766,13.672,17.578,886.719,0.000
1604236586.697,-883.301,18.066,15.625,-883.301,0.000
1604236586.701,193.848,-26.855,-14.648,187.012,0.000
1604236586.705,-1000.000,-62.012,-25.879,-1000.000,0.000
1604236586.708,-677.246,-38.086,-1.465,-671.875,0.000
1604236586.712,714.844,14.648,19.043,719.727,0.000
1604236586.716,-836.914,33.691,20.508,-836.914,0.000
1604236586.720,171.875,0.488,-9.766,172.852,0.000
1604236586.724,-1000.000,-32.227,-32.715,-1000.000,0.000
1604236586.728,-914.062,-4.883,-9.766,-909.180,0.000
1604236586.732,401.855,20.996,13.672,406.738,0.000
1604236586.736,-785.645,23.926,7.324,-785.156,0.000
1604236586.740,143.066,14.160,-9.766,162.109,0.000
1604236586.744,-1000.000,-16.602,-20.996,-1000.000,0.000
1604236586.748,-1000.000,-13.672,-18.066,-1000.000,0.000
1604236586.751,79.590,23.926,-4.395,89.355,0.000
1604236586.755,-767.578,37.598,1.465,-767.578,0.000
1604236586.759,297.852,11.719,-14.648,293.457,0.000
1604236586.763,-967.773,-13.672,-35.156,-969.238,0.000
1604236586.767,-1000.000,-8.789,-27.832,-1000.000,0.000
1604236586.771,-91.797,12.695,-5.859,-91.309,0.000
1604236586.775,-808.105,27.344,-1.465,-808.105,0.000
1604236586.779,478.516,7.812,-15.137,478.027,0.000
1604236586.783,-874.023,-21.973,-32.227,-875.000,0.000
1604236586.787,-1000.000,-17.578,-28.809,-1000.000,0.000
1604236586.790,-227.051,11.719,-13.672,-216.797,0.000
1604236586.794,-903.809,17.090,-9.766,-899.902,0.000
1604236586.798,741.211,-4.883,-20.996,737.305,0.000
1604236586.802,-633.789,-30.273,-42.969,-634.277,0.000
1604236586.806,-1000.000,-34.180,-42.480,-1000.000,0.000
1604236586.810,-192.871,0.488,-35.156,-192.383,0.000
1604236586.814,-963.867,12.207,-45.410,-963.867,0.000
1604236586.818,945.312,-17.090,-36.621,946.289,0.000
1604236586.822,-327.148,-49.805,-40.527,-318.359,0.000
1604236586.826,-1000.000,-62.988,-39.062,-1000.000,0.000
1604236586.830,-183.105,-38.086,-4.395,-204.590,0.000
1604236586.833,-998.535,-28.809,4.395,993.652,0.000
1604236586.837,-962.891,-44.434,-21.973,-956.055,0.000
1604236586.841,-86.914,-56.641,-47.852,-72.754,0.000
1604236586.845,-1000.000,-69.336,-51.270,-1000.000,0.000
1604236586.849,-379.395,-52.246,-34.668,-387.207,0.000
1604236586.853,909.180,-29.297,-13.184,906.738,0.000
1604236586.857,-899.902,-45.898,-15.137,-897.461,0.000
1604236586.861,97.168,-76.660,-35.156,101.562,0.000
1604236586.865,-1000.000,-86.914,-35.645,-1000.000,0.000
1604236586.869,-560.547,-72.754,-15.137,-585.938,0.000
1604236586.873,813.965,-53.711,1.953,785.156,0.000
1604236586.876,-857.422,-61.035,-4.883,-851.074,0.000
1604236586.880,186.035,-80.566,-24.902,184.082,0.000
1604236586.884,-1000.000,-99.121,-40.039,-1000.000,0.000
1604236586.888,-832.031,-96.191,-35.156,-843.750,0.000
1604236586.892,525.391,-64.453,-13.184,504.883,0.000
1604236586.896,-804.199,-49.316,-3.906,-801.758,0.000
1604236586.900,158.203,-67.871,-30.762,159.180,0.000
1604236586.904,-1000.000,-90.332,-55.664,-1000.000,0.000
1604236586.908,-976.074,-83.008,-45.410,-972.656,0.000
1604236586.912,272.949,-50.293,-27.344,274.902,0.000
1604236586.915,-776.367,-44.922,-31.250,-776.855,0.000
1604236586.919,195.801,-76.660,-54.688,198.242,0.000
1604236586.923,-1000.000,-83.008,-57.617,-1000.000,0.000
1604236586.927,-1000.000,-67.871,-40.039,-1000.000,0.000
1604236586.931,-26.367,-53.223,-32.227,-23.438,0.000
1604236586.935,-784.668,-43.945,-37.109,-783.203,0.000
1604236586.939,376.465,-59.570,-53.711,374.512,0.000
1604236586.943,-926.758,-71.777,-58.105,-927.246,0.000
1604236586.947,-1000.000,-68.848,-48.340,-1000.000,0.000
1604236586.951,-208.984,-53.711,-28.809,-204.590,0.000
1604236586.955,-855.957,-43.945,-21.973,-856.445,0.000
1604236586.958,589.844,-55.176,-38.086,594.727,0.000
1604236586.962,-801.758,-78.125,-55.176,-792.480,0.000
1604236586.966,-1000.000,-79.102,-44.434,-1000.000,0.000
1604236586.970,-210.449,-47.852,-12.695,-210.449,0.000
1604236586.974,-935.059,-24.414,-0.977,-933.594,0.000
1604236586.978,849.121,-35.156,-15.625,846.680,0.000
1604236586.982,-483.887,-64.941,-33.203,-485.352,0.000
1604236586.986,-1000.000,-84.961,-35.645,-1000.000,0.000
1604236586.990,-182.617,-56.152,-15.625,-182.617,0.000
1604236586.994,-981.445,-31.738,-3.906,-979.980,0.000
1604236586.998,999.512,-44.922,-15.137,996.582,0.000
1604236587.001,-207.520,-62.988,-32.227,-206.543,0.000
1604236587.005,-1000.000,-75.684,-34.180,-1000.000,0.000
1604236587.009,-297.852,-58.594,-12.695,-300.293,0.000
1604236587.013,949.219,-31.250,0.000,946.777,0.000
1604236587.017,-924.805,-27.344,-8.789,-922.363,0.000
1604236587.021,10.742,-59.570,-25.391,25.391,0.000
1604236587.025,-1000.000,-80.566,-36.133,-1000.000,0.000
1604236587.029,-463.867,-42.969,-12.207,-479.492,0.000
1604236587.033,866.211,-11.230,12.207,859.375,0.000
1604236587.037,-877.441,-23.926,-10.254,-874.023,0.000
1604236587.040,179.199,-54.199,-34.668,170.898,0.000
1604236587.044,-1000.000,-73.730,-35.645,-1000.000,0.000
1604236587.048,-700.195,-49.805,-25.391,-719.727,0.000
1604236587.052,687.012,-20.020,-12.207,658.691,0.000
1604236587.056,-831.055,-20.020,-6.348,-825.684,0.000
1604236587.060,168.945,-57.129,-16.602,168.945,0.000
1604236587.064,-1000.000,-81.543,-38.086,-1000.000,0.000
1604236587.068,-931.641,-59.570,-28.320,-933.594,0.000
1604236587.072,374.512,-33.203,-0.488,370.117,0.000
1604236587.076,-782.715,-30.273,0.977,-781.738,0.000
1604236587.080,143.066,-50.293,-26.855,144.043,0.000
1604236587.083,-1000.000,-71.777,-45.898,-1000.000,0.000
1604236587.087,-1000.000,-66.406,-30.273,-1000.000,0.000
1604236587.091,79.590,-33.691,-7.324,80.566,0.000
1604236587.095,-767.090,-19.043,-0.977,-766.602,0.000
1604236587.099,288.574,-40.527,-14.648,283.691,0.000
1604236587.103,-968.262,-62.012,-42.969,-970.703,0.000
1604236587.107,-1000.000,-59.082,-33.203,-1000.000,0.000
1604236587.111,-119.141,-30.762,5.371,-115.234,0.000
1604236587.115,-812.012,-13.672,4.395,-810.547,0.000
1604236587.119,472.168,-37.598,-30.273,469.727,0.000
1604236587.123,-881.836,-56.641,-43.945,-882.324,0.000
1604236587.126,-1000.000,-64.453,-36.621,-1000.000,0.000
1604236587.130,-231.934,-42.480,-14.648,-227.051,0.000
1604236587.134,-891.113,-18.066,-4.883,-892.578,0.000
1604236587.138,693.848,-34.180,-20.996,704.590,0.000
1604236587.142,-693.359,-61.035,-41.992,-676.758,0.000
1604236587.146,-1000.000,-59.570,-49.316,-1000.000,0.000
1604236587.150,-193.359,-27.832,-22.461,-193.359,0.000
1604236587.154,-967.773,-18.066,-2.441,-965.332,0.000
1604236587.158,952.637,-37.109,-24.414,948.242,0.000
1604236587.162,-311.523,-55.664,-43.457,-313.477,0.000
1604236587.165,-1000.000,-56.641,-37.109,-1000.000,0.000
1604236587.169,-198.242,-35.156,-10.742,-215.332,0.000
1604236587.173,997.559,-20.020,9.277,991.211,0.000
1604236587.177,-960.449,-28.809,-9.766,-955.566,0.000
1604236587.181,-89.844,-60.059,-42.480,-79.590,0.000
1604236587.185,-1000.000,-69.824,-49.805,-1000.000,0.000
1604236587.189,-371.582,-35.645,-27.832,-386.230,0.000
1604236587.193,913.086,-8.789,-4.395,906.738,0.000
1604236587.197,-900.879,-16.602,-9.766,-897.949,0.000
1604236587.201,99.121,-40.039,-31.250,99.609,0.000
1604236587.205,-1000.000,-55.664,-44.922,-1000.000,0.000
1604236587.208,-547.363,-48.828,-34.180,-562.988,0.000
1604236587.212,824.707,-34.668,-12.207,806.641,0.000
1604236587.216,-860.352,-21.973,-18.555,-855.957,0.000
1604236587.220,187.500,-36.621,-35.645,186.035,0.000
1604236587.224,-1000.000,-64.941,-35.645,-1000.000,0.000
1604236587.228,-825.195,-57.129,-25.879,-836.426,0.000
1604236587.232,533.691,-24.902,-7.812,515.137,0.000
1604236587.236,-804.199,-13.184,2.441,-801.270,0.000
1604236587.240,151.367,-42.969,-20.508,152.344,0.000
1604236587.244,-1000.000,-60.547,-42.969,-1000.000,0.000
1604236587.248,-1000.000,-46.387,-33.203,-1000.000,0.000
1604236587.251,187.988,-16.602,-11.230,186.523,0.000
1604236587.255,-765.625,0.000,-6.348,-765.625,0.000
1604236587.259,193.359,-37.598,-21.484,195.312,0.000
1604236587.263,-1000.000,-72.266,-41.504,-1000.000,0.000
1604236587.267,-1000.000,-56.641,-39.062,-1000.000,0.000
1604236587.271,-28.809,-17.090,-12.695,-25.879,0.000
1604236587.275,-783.203,-4.883,-12.207,-782.715,0.000
1604236587.279,357.422,-33.691,-27.344,359.375,0.000
1604236587.283,-936.035,-62.988,-39.062,-934.082,0.000
1604236587.287,-1000.000,-56.152,-34.180,-1000.000,0.000
1604236587.290,-220.215,-37.598,-11.719,-215.820,0.000
1604236587.294,-857.910,-18.555,-14.160,-857.910,0.000
1604236587.298,591.797,-29.785,-30.762,594.238,0.000
1604236587.302,-802.246,-51.758,-29.297,-794.922,0.000
1604236587.306,-1000.000,-44.434,-22.461,-1000.000,0.000
1604236587.310,-211.914,-16.113,-3.906,-211.426,0.000
1604236587.314,-930.664,-1.953,-2.441,-929.688,0.000
1604236587.318,833.984,-13.672,-28.320,833.984,0.000
1604236587.322,-507.324,-37.109,-39.551,-503.906,0.000
1604236587.326,-1000.000,-45.410,-26.855,-1000.000,0.000
1604236587.330,-178.223,-24.414,-19.043,-179.199,0.000
1604236587.333,-992.188,-4.883,-13.672,-987.793,0.000
1604236587.337,-974.121,-14.160,-15.137,-983.398,0.000
1604236587.341,-149.902,-46.875,-28.809,-163.086,0.000
1604236587.345,-1000.000,-63.965,-32.227,-1000.000,0.000
1604236587.349,-253.906,-33.691,-17.578,-259.766,0.000
1604236587.353,970.703,-6.348,-6.348,966.797,0.000
1604236587.357,-933.105,-17.090,-18.066,-930.176,0.000
1604236587.361,11.719,-50.293,-48.828,23.926,0.000
1604236587.365,-1000.000,-63.965,-57.129,-1000.000,0.000
1604236587.369,-449.219,-42.969,-25.391,-458.984,0.000
1604236587.373,872.559,-13.672,-0.977,869.629,0.000
1604236587.376,-879.395,-20.996,-14.648,-877.441,0.000
1604236587.380,194.336,-56.641,-46.875,185.547,0.000
1604236587.384,-1000.000,-66.895,-43.457,-1000.000,0.000
1604236587.388,-683.105,-42.969,-9.277,-679.199,0.000
1604236587.392,709.473,-13.672,5.859,710.938,0.000
1604236587.396,-835.938,-7.812,-10.742,-834.961,0.000
1604236587.400,171.387,-44.434,-39.551,172.363,0.000
1604236587.404,-1000.000,-83.008,-42.969,-1000.000,0.000
1604236587.408,-916.016,-72.266,-19.531,-912.598,0.000
1604236587.412,398.926,-33.691,2.441,403.320,0.000
1604236587.415,-785.645,-17.578,-1.465,-785.645,0.000
1604236587.419,144.043,-42.480,-18.555,145.508,0.000
1604236587.423,-1000.000,-66.406,-36.621,-1000.000,0.000
1604236587.427,-1000.000,-50.781,-36.621,-1000.000,0.000
1604236587.431,92.285,-23.926,-14.648,100.098,0.000
1604236587.435,-767.090,-16.602,-17.090,-767.578,0.000
1604236587.439,311.035,-35.645,-25.879,311.523,0.000
1604236587.443,-960.938,-68.359,-30.762,-960.938,0.000
1604236587.447,-1000.000,-71.777,-35.156,-1000.000,0.000
1604236587.451,-88.867,-36.621,-14.648,-88.379,0.000
1604236587.455,-809.570,-19.531,2.930,-808.594,0.000
1604236587.458,488.281,-36.621,-11.719,484.863,0.000
1604236587.462,-867.676,-62.012,-36.133,-870.605,0.000
1604236587.466,-1000.000,-61.035,-28.320,-1000.000,0.000
1604236587.470,-226.074,-29.785,0.000,-216.797,0.000
1604236587.474,-904.297,1.465,3.418,-899.902,0.000
1604236587.478,741.699,-20.020,-21.484,736.816,0.000
1604236587.482,-633.301,-61.523,-45.410,-635.254,0.000
1604236587.486,-1000.000,-67.383,-43.945,-1000.000,0.000
1604236587.490,-192.871,-35.156,-13.672,-192.383,0.000
1604236587.494,-963.867,-15.625,-5.859,-963.379,0.000
1604236587.498,945.312,-30.273,-21.973,945.312,0.000
1604236587.501,-328.613,-57.129,-42.969,-320.801,0.000
1604236587.505,-1000.000,-72.754,-47.852,-1000.000,0.000
1604236587.509,-174.316,-41.992,-17.578,-199.707,0.000
1604236587.513,-998.047,-13.672,1.953,993.164,0.000
1604236587.517,-958.984,-22.461,-9.766,-953.125,0.000
1604236587.521,-68.359,-47.852,-23.926,-58.594,0.000
1604236587.525,-1000.000,-67.871,-35.156,-1000.000,0.000
1604236587.529,-355.469,-49.316,-24.902,-367.188,0.000
1604236587.533,920.410,-18.555,-7.812,914.551,0.000
1604236587.537,-902.344,-22.949,-9.766,-898.438,0.000
1604236587.540,124.023,-61.035,-33.691,136.230,0.000
1604236587.544,-1000.000,-85.938,-52.246,-1000.000,0.000
1604236587.548,-548.340,-60.059,-32.715,-554.688,0.000
1604236587.552,827.637,-20.996,-4.395,822.754,0.000
1604236587.556,-861.816,-19.043,-9.277,-860.352,0.000
1604236587.560,189.453,-47.852,-30.273,190.430,0.000
1604236587.564,-1000.000,-65.918,-38.574,-1000.000,0.000
1604236587.568,-807.129,-48.828,-24.414,-803.223,0.000
1604236587.572,557.617,-27.832,3.906,563.477,0.000
1604236587.576,-808.105,-23.438,2.441,-808.105,0.000
1604236587.580,153.809,-41.992,-29.297,154.785,0.000
1604236587.583,-1000.000,-67.871,-45.898,-1000.000,0.000
1604236587.587,-1000.000,-61.523,-31.738,-1000.000,0.000
1604236587.591,209.961,-31.738,-5.859,219.727,0.000
1604236587.595,-767.090,-15.625,7.812,-767.090,0.000
1604236587.599,200.195,-41.016,-12.695,201.172,0.000
1604236587.603,-1000.000,-65.918,-37.109,-1000.000,0.000
1604236587.607,-1000.000,-43.457,-33.691,-1000.000,0.000
1604236587.611,-9.277,-12.207,-18.066,-7.812,0.000
1604236587.615,-784.180,-11.719,-9.277,-783.203,0.000
1604236587.619,398.438,-36.621,-28.809,394.043,0.000
1604236587.623,-917.969,-57.129,-51.270,-919.922,0.000
1604236587.626,-1000.000,-49.316,-44.922,-1000.000,0.000
1604236587.630,-163.086,-22.949,-21.484,-167.969,0.000
1604236587.634,-843.262,-10.742,-14.160,-847.656,0.000
1604236587.638,578.613,-35.645,-36.621,586.914,0.000
1604236587.642,-804.199,-65.430,-57.129,-792.480,0.000
1604236587.646,-1000.000,-63.477,-48.340,-1000.000,0.000
1604236587.650,-212.402,-30.273,-20.020,-211.426,0.000
1604236587.654,-931.152,-19.531,-10.254,-930.664,0.000
1604236587.658,834.473,-42.969,-25.879,836.914,0.000
1604236587.662,-505.859,-59.082,-36.133,-499.512,0.000
1604236587.665,-1000.000,-51.270,-28.809,-1000.000,0.000
1604236587.669,-178.711,-26.367,-10.254,-179.688,0.000
1604236587.673,-991.211,-11.230,-14.160,-987.793,0.000
1604236587.677,-976.074,-16.602,-23.438,-984.863,0.000
1604236587.681,-156.250,-39.551,-28.320,-164.062,0.000
1604236587.685,-1000.000,-55.664,-38.086,-1000.000,0.000
1604236587.689,-261.230,-25.391,-22.461,-277.832,0.000
1604236587.693,967.773,3.906,-0.488,959.473,0.000
1604236587.697,-932.129,-13.672,-6.836,-926.758,0.000
1604236587.701,10.254,-49.316,-39.062,23.438,0.000
1604236587.705,-1000.000,-61.523,-48.828,-1000.000,0.000
1604236587.708,-449.219,-34.668,-19.043,-458.008,0.000
1604236587.712,874.023,-15.625,0.000,871.094,0.000
1604236587.716,-880.371,-22.461,-10.742,-878.418,0.000
1604236587.720,183.594,-47.852,-35.156,177.734,0.000
1604236587.724,-1000.000,-59.082,-41.992,-1000.000,0.000
1604236587.728,-683.105,-42.480,-25.879,-682.129,0.000
1604236587.732,706.543,-22.461,-8.789,705.566,0.000
1604236587.736,-834.961,-18.066,-13.184,-833.984,0.000
1604236587.740,170.410,-47.363,-38.574,171.387,0.000
1604236587.744,-1000.000,-73.242,-43.457,-1000.000,0.000
1604236587.748,-925.293,-60.059,-29.785,-922.363,0.000
1604236587.751,384.277,-29.297,-15.625,389.648,0.000
1604236587.755,-784.180,-19.531,-6.836,-783.691,0.000
1604236587.759,144.531,-43.457,-22.461,145.508,0.000
1604236587.763,-1000.000,-61.035,-43.457,-1000.000,0.000
1604236587.767,-1000.000,-38.574,-27.832,-1000.000,0.000
1604236587.771,96.680,-14.160,-0.488,103.027,0.000
1604236587.775,-766.113,-15.137,-0.977,-767.090,0.000
1604236587.779,282.227,-24.414,-19.531,280.762,0.000
1604236587.783,-972.656,-47.363,-38.574,-973.145,0.000
1604236587.787,-1000.000,-52.734,-36.133,-1000.000,0.000
1604236587.790,-94.238,-20.508,-13.184,-95.215,0.000
1604236587.794,-806.641,-1.465,-8.301,-806.641,0.000
1604236587.798,467.773,-28.809,-30.762,469.238,0.000
1604236587.802,-880.859,-53.711,-46.875,-880.859,0.000
1604236587.806,-1000.000,-53.711,-42.969,-1000.000,0.000
1604236587.810,-228.027,-35.645,-17.090,-216.309,0.000
1604236587.814,-902.344,-12.695,-1.465,-898.438,0.000
1604236587.818,736.816,-20.020,-18.555,734.375,0.000
1604236587.822,-639.648,-46.875,-39.062,-637.695,0.000
1604236587.826,-1000.000,-54.688,-40.527,-1000.000,0.000
1604236587.830,-195.801,-18.555,-9.277,-193.848,0.000
1604236587.833,-956.543,0.000,13.184,-959.961,0.000
1604236587.837,924.316,-28.809,-10.254,936.035,0.000
1604236587.841,-365.723,-58.105,-41.504,-336.914,0.000
1604236587.845,-1000.000,-65.918,-40.039,-1000.000,0.000
1604236587.849,-174.805,-39.551,-14.648,-200.684,0.000
1604236587.853,-997.070,-4.883,-4.395,993.652,0.000
1604236587.857,-962.891,-12.695,-9.766,-955.078,0.000
1604236587.861,-86.426,-48.828,-29.785,-69.824,0.000
1604236587.865,-1000.000,-74.219,-44.922,-1000.000,0.000
1604236587.869,-353.027,-52.734,-25.879,-367.188,0.000
1604236587.873,922.852,-18.555,2.441,917.969,0.000
1604236587.876,-905.273,-21.973,-0.488,-901.855,0.000
1604236587.880,96.680,-52.246,-28.809,96.680,0.000
1604236587.884,-1000.000,-72.266,-39.551,-1000.000,0.000
1604236587.888,-548.828,-42.969,-22.949,-564.941,0.000
1604236587.892,823.242,-15.625,-11.719,804.199,0.000
1604236587.896,-860.352,-16.602,-14.648,-855.957,0.000
1604236587.900,189.941,-41.016,-29.297,189.941,0.000
1604236587.904,-1000.000,-62.988,-41.504,-1000.000,0.000
1604236587.908,-796.875,-45.898,-30.762,-792.969,0.000
1604236587.912,570.801,-21.484,-8.301,575.684,0.000
1604236587.915,-810.059,-17.090,-7.324,-810.059,0.000
1604236587.919,155.273,-44.922,-35.156,156.250,0.000
1604236587.923,-1000.000,-67.871,-44.922,-1000.000,0.000
1604236587.927,-1000.000,-53.711,-25.879,-1000.000,0.000
1604236587.931,228.516,-19.531,-9.277,231.445,0.000
1604236587.935,-768.555,-6.348,-14.160,-768.066,0.000
1604236587.939,192.383,-37.109,-43.945,195.801,0.000
1604236587.943,-1000.000,-57.617,-45.410,-1000.000,0.000
1604236587.947,-1000.000,-43.457,-26.855,-1000.000,0.000
1604236587.951,-2.930,-7.812,-11.719,-3.906,0.000
1604236587.955,-783.203,5.371,-7.812,-783.203,0.000
1604236587.958,379.395,-35.156,-29.785,380.859,0.000
1604236587.962,-949.219,-72.754,-54.199,-947.754,0.000
1604236587.966,-1000.000,-55.664,-40.039,-1000.000,0.000
1604236587.970,-81.055,-14.160,0.977,-86.914,0.000
1604236587.974,-853.516,-4.395,-1.465,-858.398,0.000
1604236587.978,572.754,-27.832,-23.438,583.008,0.000
1604236587.982,-809.082,-57.129,-33.203,-794.922,0.000
1604236587.986,-1000.000,-57.129,-35.156,-1000.000,0.000
1604236587.990,-216.309,-26.855,-12.695,-213.379,0.000
1604236587.994,-919.922,-21.973,-1.953,-925.293,0.000
1604236587.998,798.340,-41.992,-24.902,819.336,0.000
1604236588.001,-559.082,-56.641,-41.504,-525.879,0.000
1604236588.005,-1000.000,-59.570,-32.227,-1000.000,0.000
1604236588.009,-182.617,-28.809,-6.348,-182.129,0.000
1604236588.013,-983.887,-6.348,8.301,-982.910,0.000
1604236588.017,-996.582,-29.297,-5.371,-998.047,0.000
1604236588.021,-206.055,-52.246,-28.320,-198.730,0.000
1604236588.025,-1000.000,-58.594,-28.809,-1000.000,0.000
1604236588.029,-256.836,-30.273,0.000,-270.508,0.000
1604236588.033,966.797,-6.348,0.488,961.426,0.000
1604236588.037,-932.617,-20.020,-10.254,-928.711,0.000
1604236588.040,5.859,-42.480,-22.461,13.184,0.000
1604236588.044,-1000.000,-61.523,-36.621,-1000.000,0.000
1604236588.048,-438.965,-39.551,-17.090,-435.059,0.000
1604236588.052,878.906,-0.977,4.395,883.301,0.000
1604236588.056,-882.324,-11.719,-11.719,-882.812,0.000
1604236588.060,180.664,-38.574,-36.133,178.223,0.000
1604236588.064,-1000.000,-60.059,-44.922,-1000.000,0.000
1604236588.068,-673.828,-48.828,-27.344,-669.922,0.000
1604236588.072,715.332,-13.672,-1.465,719.727,0.000
1604236588.076,-836.914,-17.578,-4.395,-836.426,0.000
1604236588.080,172.852,-46.387,-38.574,173.340,0.000
1604236588.083,-1000.000,-53.711,-46.387,-1000.000,0.000
1604236588.087,-907.227,-31.738,-25.879,-905.273,0.000
1604236588.091,412.109,-6.348,-13.184,414.551,0.000
1604236588.095,-787.109,-4.395,-10.254,-786.621,0.000
1604236588.099,144.043,-34.180,-29.297,145.020,0.000
1604236588.103,-1000.000,-62.988,-50.781,-1000.000,0.000
1604236588.107,-1000.000,-66.406,-46.875,-1000.000,0.000
1604236588.111,90.332,-36.621,-27.832,96.680,0.000
1604236588.115,-766.602,-15.625,-22.949,-767.090,0.000
1604236588.119,281.250,-41.992,-37.598,279.297,0.000
1604236588.123,-974.609,-68.359,-49.316,-974.609,0.000
1604236588.126,-1000.000,-59.570,-40.039,-1000.000,0.000
1604236588.130,-87.402,-29.785,-11.230,-89.844,0.000
1604236588.134,-804.199,-16.602,4.395,-805.176,0.000
1604236588.138,459.961,-27.344,-10.742,462.891,0.000
1604236588.142,-886.230,-50.293,-41.992,-884.766,0.000
1604236588.146,-1000.000,-59.570,-41.016,-1000.000,0.000
1604236588.150,-224.609,-28.320,-9.766,-213.867,0.000
1604236588.154,-882.324,-9.766,0.977,-885.254,0.000
1604236588.158,669.922,-35.156,-17.578,689.941,0.000
1604236588.162,-721.191,-65.918,-44.922,-690.918,0.000
1604236588.165,-1000.000,-65.430,-40.039,-1000.000,0.000
1604236588.169,-199.707,-33.691,-13.184,-196.777,0.000
1604236588.173,-953.613,-15.137,-0.488,-957.520,0.000
1604236588.177,911.621,-29.785,-15.137,926.270,0.000
1604236588.181,-387.695,-56.641,-37.598,-356.934,0.000
1604236588.185,-1000.000,-64.453,-43.945,-1000.000,0.000
1604236588.189,-174.316,-33.691,-26.855,-190.430,0.000
1604236588.193,-995.605,-8.301,-5.371,-999.512,0.000
1604236588.197,-965.820,-21.973,-16.113,-962.402,0.000
1604236588.201,-97.168,-51.270,-41.016,-95.703,0.000
1604236588.205,-1000.000,-73.730,-40.039,-1000.000,0.000
1604236588.208,-350.098,-60.059,-20.020,-358.887,0.000
1604236588.212,924.316,-20.020,-2.441,920.898,0.000
1604236588.216,-906.738,-15.137,-16.113,-904.297,0.000
1604236588.220,86.426,-42.480,-45.410,83.984,0.000
1604236588.224,-1000.000,-53.223,-44.922,-1000.000,0.000
1604236588.228,-536.133,-31.738,-20.508,-533.691,0.000
1604236588.232,830.078,-5.859,3.418,831.543,0.000
1604236588.236,-862.305,-1.953,-6.836,-861.816,0.000
1604236588.240,189.453,-32.227,-36.621,190.430,0.000
1604236588.244,-1000.000,-65.430,-44.922,-1000.000,0.000
1604236588.248,-812.500,-59.570,-30.762,-810.059,0.000
1604236588.251,550.781,-27.344,-6.348,554.199,0.000
1604236588.255,-807.617,-13.672,-7.324,-807.129,0.000
1604236588.259,155.762,-43.457,-44.434,156.250,0.000
1604236588.263,-1000.000,-64.941,-54.688,-1000.000,0.000
1604236588.267,-1000.000,-45.898,-16.602,-1000.000,0.000
1604236588.271,239.746,-19.043,4.883,239.746,0.000
1604236588.275,-770.020,-21.973,-11.719,-769.531,0.000
1604236588.279,186.523,-45.898,-28.809,192.871,0.000
1604236588.283,-1000.000,-60.059,-38.086,-1000.000,0.000
1604236588.287,-1000.000,-53.223,-29.785,-1000.000,0.000
1604236588.290,18.066,-33.203,-3.906,13.672,0.000
1604236588.294,-777.344,-25.391,-3.418,-778.809,0.000
1604236588.298,364.258,-48.340,-27.832,365.723,0.000
1604236588.302,-932.129,-73.730,-42.969,-931.152,0.000
1604236588.306,-1000.000,-65.918,-30.762,-1000.000,0.000
1604236588.310,-172.852,-35.645,-13.184,-173.828,0.000
1604236588.314,-835.938,-18.066,0.488,-843.262,0.000
1604236588.318,541.016,-40.039,-15.137,566.895,0.000
1604236588.322,-842.773,-66.406,-42.969,-812.988,0.000
1604236588.326,-1000.000,-67.383,-44.922,-1000.000,0.000
1604236588.330,-218.750,-40.039,-21.484,-216.309,0.000
1604236588.333,-917.969,-20.020,-7.324,-919.434,0.000
1604236588.337,790.039,-34.180,-27.344,799.805,0.000
1604236588.341,-570.312,-58.105,-49.805,-554.688,0.000
1604236588.345,-1000.000,-67.871,-49.805,-1000.000,0.000
1604236588.349,-183.594,-23.438,-13.672,-183.105,0.000
1604236588.353,-983.398,4.395,2.441,-981.445,0.000
1604236588.357,-999.512,-17.578,-18.555,998.047,0.000
1604236588.361,-212.891,-49.805,-34.668,-211.426,0.000
1604236588.365,-1000.000,-62.500,-40.039,-1000.000,0.000
1604236588.369,-250.977,-36.133,-25.879,-257.812,0.000
1604236588.373,968.262,-7.812,-7.324,964.844,0.000
1604236588.376,-933.105,-15.625,-12.695,-930.176,0.000
1604236588.380,9.766,-46.387,-36.621,20.020,0.000
1604236588.384,-1000.000,-58.105,-47.852,-1000.000,0.000
1604236588.388,-447.754,-48.828,-24.414,-454.590,0.000
1604236588.392,875.977,-22.461,-3.418,873.047,0.000
1604236588.396,-881.348,-16.602,-12.695,-879.395,0.000
1604236588.400,174.805,-44.434,-37.109,172.852,0.000
1604236588.404,-1000.000,-59.570,-46.875,-1000.000,0.000
1604236588.408,-662.109,-47.363,-25.391,-659.180,0.000
1604236588.412,727.051,-22.461,-6.348,729.004,0.000
1604236588.415,-838.867,-14.648,-11.230,-838.867,0.000
1604236588.419,172.852,-39.551,-30.273,173.828,0.000
1604236588.423,-1000.000,-62.500,-41.504,-1000.000,0.000
1604236588.427,-912.109,-46.875,-26.367,-909.668,0.000
1604236588.431,404.785,-15.625,-12.695,408.203,0.000
1604236588.435,-786.621,-8.301,-14.160,-786.133,0.000
1604236588.439,144.531,-40.527,-37.598,145.508,0.000
1604236588.443,-1000.000,-59.570,-48.828,-1000.000,0.000
1604236588.447,-1000.000,-48.828,-31.738,-1000.000,0.000
1604236588.451,99.609,-27.832,-9.277,104.492,0.000
1604236588.455,-765.625,-15.625,-8.301,-766.602,0.000
1604236588.458,274.414,-35.156,-28.809,273.926,0.000
1604236588.462,-978.516,-54.688,-43.457,-977.539,0.000
1604236588.466,-1000.000,-48.340,-33.203,-1000.000,0.000
1604236588.470,-74.219,-22.949,-4.883,-80.566,0.000
1604236588.474,-801.270,-11.230,1.953,-803.711,0.000
1604236588.478,457.520,-33.691,-18.066,460.938,0.000
1604236588.482,-885.254,-53.223,-33.203,-883.789,0.000
1604236588.486,-1000.000,-38.574,-29.785,-1000.000,0.000
1604236588.490,-229.004,-13.672,-14.648,-218.750,0.000
1604236588.494,-882.812,-6.836,-3.418,-884.277,0.000
1604236588.498,667.480,-28.320,-16.602,683.105,0.000
1604236588.501,-724.609,-57.129,-40.039,-701.172,0.000
1604236588.505,-1000.000,-57.129,-33.691,-1000.000,0.000
1604236588.509,-199.707,-41.504,-10.742,-196.777,0.000
1604236588.513,-954.102,-26.855,-5.371,-958.984,0.000
1604236588.517,913.086,-29.297,-16.602,929.688,0.000
1604236588.521,-385.742,-50.293,-45.410,-351.074,0.000
1604236588.525,-1000.000,-61.523,-47.852,-1000.000,0.000
1604236588.529,-174.316,-39.062,-7.812,-190.918,0.000
1604236588.533,-996.094,-8.789,12.207,999.512,0.000
1604236588.537,-964.355,-5.859,-3.418,-960.449,0.000
1604236588.540,-93.750,-45.898,-27.344,-88.867,0.000
1604236588.544,-1000.000,-62.500,-41.016,-1000.000,0.000
1604236588.548,-343.262,-34.668,-29.297,-344.238,0.000
1604236588.552,926.758,-19.043,-2.441,927.246,0.000
1604236588.556,-906.738,-28.320,-7.812,-905.762,0.000
1604236588.560,96.191,-48.828,-40.039,98.633,0.000
1604236588.564,-1000.000,-53.223,-45.410,-1000.000,0.000
1604236588.568,-529.785,-31.250,-20.508,-527.832,0.000
1604236588.572,834.961,-17.578,-0.977,837.891,0.000
1604236588.576,-864.258,-23.926,-4.395,-864.258,0.000
1604236588.580,191.895,-42.969,-22.461,187.012,0.000
1604236588.583,-1000.000,-59.570,-38.574,-1000.000,0.000
1604236588.587,-791.992,-53.223,-18.066,-790.527,0.000
1604236588.591,577.637,-32.715,6.836,578.125,0.000
1604236588.595,-811.035,-19.043,-3.418,-810.547,0.000
1604236588.599,155.273,-36.621,-26.855,155.762,0.000
1604236588.603,-1000.000,-59.570,-39.062,-1000.000,0.000
1604236588.607,-1000.000,-48.828,-29.297,-1000.000,0.000
1604236588.611,227.051,-10.742,0.488,229.492,0.000
1604236588.615,-768.555,-1.465,8.301,-768.555,0.000
1604236588.619,185.059,-31.738,-19.531,191.406,0.000
1604236588.623,-1000.000,-64.941,-35.156,-1000.000,0.000
1604236588.626,-1000.000,-78.613,-30.762,-1000.000,0.000
1604236588.630,0.000,-41.016,-3.418,0.488,0.000
1604236588.634,-780.273,-16.602,0.000,-780.273,0.000
1604236588.638,367.676,-40.039,-29.297,367.676,0.000
1604236588.642,-933.594,-64.941,-46.387,-931.641,0.000
1604236588.646,-1000.000,-49.805,-30.762,-1000.000,0.000
1604236588.650,-139.160,-19.531,-4.883,-153.320,0.000
1604236588.654,-880.371,-5.371,-3.906,-878.418,0.000
1604236588.658,501.953,-25.391,-23.926,527.344,0.000
1604236588.662,-803.223,-51.758,-40.527,-790.527,0.000
1604236588.665,-1000.000,-66.895,-39.062,-1000.000,0.000
1604236588.669,-216.797,-51.758,-18.555,-214.355,0.000
1604236588.673,-924.316,-20.020,-0.488,-927.734,0.000
1604236588.677,812.500,-24.414,-13.184,827.637,0.000
1604236588.681,-538.574,-53.711,-36.133,-513.672,0.000
1604236588.685,-1000.000,-57.129,-42.480,-1000.000,0.000
1604236588.689,-183.105,-20.996,-21.484,-183.105,0.000
1604236588.693,-982.422,-3.418,-0.977,-980.469,0.000
1604236588.697,-999.512,-24.902,-24.902,998.535,0.000
1604236588.701,-213.379,-51.758,-46.875,-210.938,0.000
1604236588.705,-1000.000,-55.664,-41.504,-1000.000,0.000
1604236588.708,-249.512,-31.250,-20.996,-255.371,0.000
1604236588.712,970.215,-12.695,5.859,968.262,0.000
1604236588.716,-935.059,-20.020,0.977,-933.105,0.000
1604236588.720,0.977,-47.852,-23.438,2.930,0.000
1604236588.724,-1000.000,-68.359,-30.762,-1000.000,0.000
1604236588.728,-440.430,-39.062,-10.254,-439.453,0.000
1604236588.732,878.418,-7.812,7.812,879.883,0.000
1604236588.736,-882.324,-23.926,-2.930,-881.836,0.000
1604236588.740,176.270,-50.781,-28.320,174.805,0.000
1604236588.744,-1000.000,-60.547,-33.203,-1000.000,0.000
1604236588.748,-672.363,-35.645,-16.113,-667.969,0.000
1604236588.751,716.309,-1.465,1.953,720.703,0.000
1604236588.755,-836.914,-3.906,-2.930,-836.914,0.000
1604236588.759,172.363,-41.016,-35.645,173.828,0.000
1604236588.763,-1000.000,-70.801,-44.434,-1000.000,0.000
1604236588.767,-910.156,-68.359,-21.484,-906.250,0.000
1604236588.771,407.715,-28.320,0.000,412.598,0.000
1604236588.775,-786.621,-6.836,-3.906,-786.621,0.000
1604236588.779,145.020,-35.645,-34.668,145.996,0.000
1604236588.783,-1000.000,-62.988,-50.781,-1000.000,0.000
1604236588.787,-1000.000,-49.316,-38.086,-1000.000,0.000
1604236588.790,103.027,-16.113,-13.184,108.887,0.000
1604236588.794,-765.625,-2.930,-3.418,-766.602,0.000
1604236588.798,275.391,-24.414,-23.438,274.902,0.000
1604236588.802,-976.562,-54.199,-41.504,-976.074,0.000
1604236588.806,-1000.000,-61.523,-34.668,-1000.000,0.000
1604236588.810,-84.473,-26.367,-7.324,-87.402,0.000
1604236588.814,-802.246,-9.277,-6.348,-804.199,0.000
1604236588.818,444.336,-33.203,-29.297,455.566,0.000
1604236588.822,-894.531,-51.758,-46.875,-888.184,0.000
1604236588.826,-1000.000,-50.293,-40.527,-1000.000,0.000
1604236588.830,-228.516,-21.484,-15.625,-218.750,0.000
1604236588.833,-886.719,-3.906,-6.348,-888.672,0.000
1604236588.837,684.082,-30.273,-25.391,699.219,0.000
1604236588.841,-704.590,-63.477,-45.410,-680.664,0.000
1604236588.845,-1000.000,-67.383,-37.109,-1000.000,0.000
1604236588.849,-200.684,-32.715,-16.113,-199.707,0.000
1604236588.853,-949.707,-6.348,-6.836,-948.730,0.000
1604236588.857,899.414,-21.973,-13.184,900.391,0.000
1604236588.861,-406.738,-50.293,-37.109,-401.367,0.000
1604236588.865,-1000.000,-62.500,-46.387,-1000.000,0.000
1604236588.869,-174.316,-44.434,-24.414,-191.406,0.000
1604236588.873,-996.582,-19.043,-12.695,998.047,0.000
1604236588.876,-964.844,-25.879,-23.438,-960.938,0.000
1604236588.880,-94.727,-48.340,-33.691,-92.773,0.000
1604236588.884,-1000.000,-62.012,-36.133,-1000.000,0.000
1604236588.888,-344.238,-38.574,-22.461,-347.656,0.000
1604236588.892,926.270,-9.277,-3.906,925.781,0.000
1604236588.896,-906.738,-15.137,-11.719,-905.762,0.000
1604236588.900,93.262,-46.387,-33.203,92.773,0.000
1604236588.904,-1000.000,-72.266,-41.992,-1000.000,0.000
1604236588.908,-531.738,-60.059,-25.391,-531.738,0.000
1604236588.912,833.496,-20.020,-0.977,834.473,0.000
1604236588.915,-863.770,-16.113,-12.695,-863.281,0.000
1604236588.919,190.918,-46.387,-45.898,187.988,0.000
1604236588.923,-1000.000,-72.754,-55.664,-1000.000,0.000
1604236588.927,-798.828,-51.758,-34.668,-792.969,0.000
1604236588.931,568.848,-13.672,-10.254,574.707,0.000
1604236588.935,-810.547,-16.602,-13.184,-810.547,0.000
1604236588.939,156.738,-46.387,-39.551,157.227,0.000
1604236588.943,-1000.000,-57.617,-47.852,-1000.000,0.000
1604236588.947,-1000.000,-50.293,-29.297,-997.559,0.000
1604236588.951,248.047,-30.762,-5.859,249.023,0.000
1604236588.955,-770.020,-15.625,0.977,-770.020,0.000
1604236588.958,180.664,-36.133,-27.832,188.965,0.000
1604236588.962,-1000.000,-56.152,-51.270,-1000.000,0.000
1604236588.966,-1000.000,-52.734,-38.574,-1000.000,0.000
1604236588.970,5.371,-27.344,-7.324,4.883,0.000
1604236588.974,-778.809,-4.395,-1.465,-779.785,0.000
1604236588.978,358.887,-28.809,-29.297,361.328,0.000
1604236588.982,-940.430,-57.129,-39.062,-936.523,0.000
1604236588.986,-1000.000,-47.852,-29.297,-1000.000,0.000
1604236588.990,-139.648,-23.438,-11.230,-155.762,0.000
1604236588.994,-825.684,-11.230,1.953,-837.402,0.000
1604236588.998,527.344,-22.949,-17.090,558.105,0.000
1604236589.001,-849.609,-48.828,-41.504,-817.383,0.000
1604236589.005,-1000.000,-52.246,-33.203,-1000.000,0.000
1604236589.009,-218.750,-22.461,-5.859,-215.332,0.000
1604236589.013,-921.387,-2.930,5.859,-927.246,0.000
1604236589.017,803.223,-21.973,-9.277,827.148,0.000
1604236589.021,-580.566,-47.363,-29.785,-572.266,0.000
1604236589.025,-1000.000,-45.410,-27.344,-1000.000,0.000
1604236589.029,-94.238,-16.113,-1.465,-0.488,0.000
1604236589.033,-995.117,-2.930,6.348,999.023,0.000
1604236589.037,-994.629,-15.137,-1.465,-998.047,0.000
1604236589.040,-202.148,-43.945,-29.785,-191.895,0.000
1604236589.044,-1000.000,-54.199,-46.387,-1000.000,0.000
1604236589.048,-252.441,-24.902,-17.578,-259.766,0.000
1604236589.052,969.727,-4.883,-0.488,967.773,0.000
1604236589.056,-934.570,-13.184,-12.207,-932.129,0.000
1604236589.060,-2.441,-41.992,-32.227,-2.441,0.000
1604236589.064,-1000.000,-61.523,-40.039,-1000.000,0.000
1604236589.068,-420.410,-34.668,-20.996,-408.203,0.000
1604236589.072,885.742,-11.230,-6.836,891.113,0.000
1604236589.076,-883.301,-25.391,-15.625,-881.836,0.000
1604236589.080,204.590,-41.504,-32.227,216.309,0.000
1604236589.083,-1000.000,-59.082,-36.621,-1000.000,0.000
1604236589.087,-525.879,-42.480,-27.832,-468.750,0.000
1604236589.091,856.445,-14.648,-11.719,892.090,0.000
1604236589.095,-872.559,-28.320,-14.648,-883.301,0.000
1604236589.099,202.637,-44.434,-35.645,213.379,0.000
1604236589.103,-1000.000,-54.199,-45.898,-1000.000,0.000
1604236589.107,-684.082,-45.410,-27.832,-553.223,0.000
1604236589.111,710.938,-20.020,-7.324,822.266,0.000
1604236589.115,-835.938,-15.625,-10.254,-860.840,0.000
1604236589.119,169.434,-48.828,-39.551,323.730,0.000
1604236589.123,-1000.000,-69.336,-49.805,-1000.000,0.000
1604236589.126,-926.270,-46.387,-26.855,-833.496,0.000
1604236589.130,363.770,-22.949,-15.625,503.906,0.000
1604236589.134,-781.250,-20.996,-23.926,-809.570,0.000
1604236589.138,284.180,-45.410,-45.410,416.016,0.000
1604236589.142,-976.562,-81.055,-60.059,-921.387,0.000
1604236589.146,-1000.000,-88.379,-48.828,-1000.000,0.000
1604236589.150,34.668,-50.293,-23.926,111.328,0.000
1604236589.154,-788.086,-30.762,-22.461,-803.223,0.000
1604236589.158,457.520,-55.176,-44.922,552.246,0.000
1604236589.162,-873.047,-71.777,-58.105,-789.062,0.000
1604236589.165,-1000.000,-62.500,-53.223,-1000.000,0.000
1604236589.169,-196.777,-38.574,-27.832,-145.020,0.000
1604236589.173,-885.254,-25.391,-14.160,-889.648,0.000
1604236589.177,700.195,-39.062,-35.156,751.465,0.000
1604236589.181,-675.781,-63.965,-54.199,-602.051,0.000
1604236589.185,-1000.000,-73.730,-50.781,-1000.000,0.000
1604236589.189,-200.684,-33.691,-28.320,-199.707,0.000
1604236589.193,-947.754,2.441,-14.648,-943.359,0.000
1604236589.197,894.043,-10.254,-26.367,885.742,0.000
1604236589.201,-413.574,-40.527,-45.898,-421.875,0.000
1604236589.205,-1000.000,-45.898,-47.363,-1000.000,0.000
1604236589.208,-193.848,-12.695,-19.531,-234.863,0.000
1604236589.212,-987.305,0.000,-6.348,-988.770,0.000
1604236589.216,-993.164,-15.625,-26.855,980.957,0.000
1604236589.220,-188.965,-36.133,-43.945,-246.094,0.000
1604236589.224,-1000.000,-45.898,-59.082,-1000.000,0.000
1604236589.228,-389.648,-34.180,-50.781,-464.355,0.000
1604236589.232,909.668,-19.531,-23.926,876.465,0.000
1604236589.236,-913.086,-19.531,-19.043,-909.180,0.000
1604236589.240,-16.113,-39.062,-40.039,-81.055,0.000
1604236589.244,-1000.000,-58.594,-46.387,-1000.000,0.000
1604236589.248,-575.195,-41.016,-20.996,-687.988,0.000
1604236589.251,778.320,-11.230,-0.977,655.762,0.000
1604236589.255,-852.539,-10.742,-0.977,-829.590,0.000
1604236589.259,159.180,-46.875,-29.785,92.285,0.000
1604236589.263,-1000.000,-69.824,-44.922,-1000.000,0.000
1604236589.267,-805.176,-51.758,-26.855,-897.461,0.000
1604236589.271,553.223,-16.113,-14.648,403.809,0.000
1604236589.275,-806.641,-7.324,-12.695,-784.180,0.000
1604236589.279,153.320,-34.668,-36.621,145.508,0.000
1604236589.283,-1000.000,-60.547,-52.246,-1000.000,0.000
1604236589.287,-1000.000,-53.223,-28.809,-1000.000,0.000
1604236589.290,206.543,-13.184,-2.930,109.863,0.000
1604236589.294,-768.066,1.465,-3.418,-766.602,0.000
1604236589.298,139.160,-31.250,-24.414,141.113,0.000
1604236589.302,-1000.000,-56.152,-39.551,-1000.000,0.000
1604236589.306,-1000.000,-36.133,-34.180,-1000.000,0.000
1604236589.310,-16.113,-10.254,-17.578,-76.172,0.000
1604236589.314,-777.832,-3.418,-6.836,-785.645,0.000
1604236589.318,318.848,-27.832,-28.320,290.039,0.000
1604236589.322,-954.102,-61.523,-50.293,-970.703,0.000
1604236589.326,-1000.000,-68.848,-36.133,-1000.000,0.000
1604236589.330,-208.008,-43.945,-7.812,-238.281,0.000
1604236589.333,-836.426,-7.324,-5.371,-838.379,0.000
1604236589.337,502.441,-20.020,-22.461,473.633,0.000
1604236589.341,-877.441,-54.199,-45.898,-898.926,0.000
1604236589.345,-1000.000,-55.176,-50.781,-1000.000,0.000
1604236589.349,-224.609,-25.879,-20.508,-230.469,0.000
1604236589.353,-910.156,-10.254,-9.277,-896.484,0.000
1604236589.357,763.184,-27.832,-26.367,717.285,0.000
1604236589.361,-605.469,-48.828,-46.387,-661.133,0.000
1604236589.365,-1000.000,-61.035,-49.316,-1000.000,0.000
1604236589.369,-187.012,-37.109,-22.461,-191.895,0.000
1604236589.373,-977.051,-4.883,-3.906,-967.285,0.000
1604236589.376,980.469,-20.020,-26.367,952.148,0.000
1604236589.380,-250.000,-48.340,-42.969,-295.898,0.000
1604236589.384,-1000.000,-57.129,-37.109,-1000.000,0.000
1604236589.388,-249.023,-37.109,-17.090,-288.574,0.000
1604236589.392,970.703,-10.742,-11.719,957.031,0.000
1604236589.396,-937.500,-17.090,-27.832,-935.547,0.000
1604236589.400,-14.648,-57.129,-44.922,-39.551,0.000
1604236589.404,-1000.000,-76.172,-51.758,-1000.000,0.000
1604236589.408,-428.223,-47.852,-32.227,-440.918,0.000
1604236589.412,884.766,-12.695,-3.906,878.418,0.000
1604236589.415,-885.254,-20.020,-13.184,-883.789,0.000
1604236589.419,163.086,-52.734,-43.945,141.113,0.000
1604236589.423,-1000.000,-65.430,-45.410,-1000.000,0.000
1604236589.427,-648.926,-47.363,-26.855,-667.480,0.000
1604236589.431,738.281,-13.672,-10.742,714.355,0.000
1604236589.435,-841.797,-8.301,-21.973,-834.961,0.000
1604236589.439,175.293,-38.574,-43.457,172.363,0.000
1604236589.443,-1000.000,-55.176,-42.480,-1000.000,0.000
1604236589.447,-893.066,-43.945,-23.438,-917.480,0.000
1604236589.451,434.082,-20.508,-3.906,397.461,0.000
1604236589.455,-790.039,-13.672,-3.906,-784.180,0.000
1604236589.458,144.531,-37.109,-20.020,143.555,0.000
1604236589.462,-1000.000,-58.594,-40.527,-1000.000,0.000
1604236589.466,-1000.000,-52.246,-33.203,-1000.000,0.000
1604236589.470,100.098,-20.996,-10.742,81.055,0.000
1604236589.474,-765.625,-3.418,-8.301,-766.113,0.000
1604236589.478,268.066,-25.879,-32.715,249.512,0.000
1604236589.482,-984.375,-50.781,-49.805,-987.793,0.000
1604236589.486,-1000.000,-46.875,-36.133,-1000.000,0.000
1604236589.490,-55.176,-12.695,-11.230,-92.285,0.000
1604236589.494,-795.898,4.395,-7.324,-801.758,0.000
1604236589.498,434.570,-23.926,-23.438,435.547,0.000
1604236589.501,-897.461,-42.969,-36.621,-900.879,0.000
1604236589.505,-1000.000,-40.039,-33.203,-1000.000,0.000
1604236589.509,-221.191,-20.996,-13.672,-221.191,0.000
1604236589.513,-879.395,-8.789,-4.883,-876.953,0.000
1604236589.517,663.574,-29.297,-27.832,657.715,0.000
1604236589.521,-726.562,-54.688,-47.363,-731.445,0.000
1604236589.525,-1000.000,-66.406,-37.598,-1000.000,0.000
1604236589.529,-200.195,-48.340,-10.742,-200.195,0.000
1604236589.533,-953.125,-19.531,2.441,-951.660,0.000
1604236589.537,908.691,-18.066,-12.207,908.203,0.000
1604236589.540,-392.578,-45.898,-43.457,-391.113,0.000
1604236589.544,-1000.000,-62.500,-41.992,-1000.000,0.000
1604236589.548,-174.805,-28.320,-15.625,-175.293,0.000
1604236589.552,-995.605,-1.465,-3.418,-993.652,0.000
1604236589.556,-965.820,-21.484,-16.113,-966.797,0.000
1604236589.560,-100.586,-59.570,-49.316,-107.422,0.000
1604236589.564,-1000.000,-80.078,-47.363,-1000.000,0.000
1604236589.568,-339.355,-52.734,-16.602,-336.914,0.000
1604236589.572,929.688,-17.090,-8.789,931.641,0.000
1604236589.576,-909.668,-22.949,-20.020,-909.668,0.000
1604236589.580,80.078,-52.734,-41.016,75.684,0.000
1604236589.583,-1000.000,-65.918,-42.480,-1000.000,0.000
1604236589.587,-526.855,-39.062,-17.578,-521.973,0.000
1604236589.591,834.473,-21.973,3.906,837.402,0.000
1604236589.595,-864.258,-28.320,-0.488,-864.258,0.000
1604236589.599,192.871,-42.480,-32.227,194.336,0.000
1604236589.603,-1000.000,-60.547,-46.387,-1000.000,0.000
1604236589.607,-784.668,-57.617,-25.391,-774.414,0.000
1604236589.611,586.914,-22.461,0.488,598.633,0.000
1604236589.615,-813.477,-8.789,-10.742,-814.453,0.000
1604236589.619,157.715,-35.156,-38.574,159.668,0.000
1604236589.623,-1000.000,-52.734,-43.457,-1000.000,0.000
1604236589.626,-997.070,-42.480,-30.762,-987.305,0.000
1604236589.630,257.324,-17.090,-15.137,268.066,0.000
1604236589.634,-771.484,-9.277,-8.789,-771.973,0.000
1604236589.638,160.645,-31.738,-25.879,184.082,0.000
1604236589.642,-1000.000,-53.711,-37.598,-1000.000,0.000
1604236589.646,-1000.000,-61.035,-24.902,-1000.000,0.000
1604236589.650,14.160,-31.250,-2.930,21.973,0.000
1604236589.654,-775.391,-9.277,2.930,-777.344,0.000
1604236589.658,331.055,-33.203,-25.391,357.422,0.000
1604236589.662,-950.684,-52.246,-40.039,-936.523,0.000
1604236589.665,-1000.000,-44.434,-33.203,-1000.000,0.000
1604236589.669,-159.180,-21.484,-15.137,-154.297,0.000
1604236589.673,-830.078,-9.766,4.395,-840.820,0.000
1604236589.677,533.203,-28.809,-12.695,575.684,0.000
1604236589.681,-846.191,-60.059,-34.668,-799.805,0.000
1604236589.685,-1000.000,-60.059,-28.320,-1000.000,0.000
1604236589.689,-219.727,-25.391,-14.648,-214.844,0.000
1604236589.693,-916.016,-4.883,-7.812,-922.852,0.000
1604236589.697,783.691,-16.113,-19.043,810.547,0.000
1604236589.701,-578.613,-45.898,-40.039,-539.062,0.000
1604236589.705,-1000.000,-69.336,-43.457,-1000.000,0.000
1604236589.708,-187.012,-49.805,-23.438,-185.059,0.000
1604236589.712,-975.098,-24.902,-11.230,-977.051,0.000
1604236589.716,978.027,-34.180,-20.508,988.281,0.000
1604236589.720,-256.348,-49.316,-35.156,-239.258,0.000
1604236589.724,-1000.000,-51.270,-36.621,-1000.000,0.000
1604236589.728,-242.188,-29.297,-19.043,-232.910,0.000
1604236589.732,971.680,-7.324,6.348,974.609,0.000
1604236589.736,-937.500,-11.719,3.418,-935.547,0.000
1604236589.740,-6.348,-37.598,-33.691,5.859,0.000
1604236589.744,-1000.000,-71.777,-49.316,-1000.000,0.000
1604236589.748,-435.059,-65.918,-25.879,-423.828,0.000
1604236589.751,882.324,-19.531,0.000,889.160,0.000
1604236589.755,-884.766,-12.695,-8.301,-885.742,0.000
1604236589.759,158.203,-35.645,-35.645,167.480,0.000
1604236589.763,-1000.000,-60.059,-46.387,-1000.000,0.000
1604236589.767,-649.414,-49.805,-27.832,-641.113,0.000
1604236589.771,736.328,-19.531,-6.348,745.605,0.000
