timestamps,TP9,AF7,AF8,TP10,Right AUX
1606136023.949,0.000,0.000,0.000,0.000,0.000
1606136023.953,-0.488,0.000,-0.488,-0.488,0.000
1606136023.957,-3.418,-1.465,-0.977,-9.277,0.000
1606136023.961,8.301,1.953,1.465,27.344,0.000
1606136023.964,-40.527,-12.695,-11.230,-121.582,0.000
1606136023.968,-80.566,-33.203,-28.320,-221.191,0.000
1606136023.972,5.371,-28.320,-32.227,111.816,0.000
1606136023.976,46.875,-24.902,-27.344,284.668,0.000
1606136023.980,-24.902,-32.715,-23.926,41.504,0.000
1606136023.984,-107.910,-39.062,-32.227,-265.137,0.000
1606136023.988,-94.238,-36.133,-34.180,-262.695,0.000
1606136023.992,4.395,-29.785,-25.391,61.523,0.000
1606136023.996,47.363,-24.414,-17.090,257.812,0.000
1606136024.000,-20.996,-26.367,-26.367,49.805,0.000
1606136024.004,-113.281,-36.133,-35.156,-271.484,0.000
1606136024.007,-120.605,-39.062,-33.691,-310.547,0.000
1606136024.011,-26.855,-35.645,-28.320,10.254,0.000
1606136024.015,38.574,-29.785,-26.855,245.117,0.000
1606136024.019,-8.789,-26.855,-27.832,99.121,0.000
1606136024.023,-108.887,-37.109,-37.598,-239.746,0.000
1606136024.027,-130.371,-46.387,-41.992,-343.262,0.000
1606136024.031,-37.598,-44.434,-36.133,-42.480,0.000
1606136024.035,47.852,-34.668,-32.715,236.816,0.000
1606136024.039,20.020,-29.785,-25.391,149.414,0.000
1606136024.043,-78.613,-38.086,-33.203,-189.453,0.000
1606136024.047,-113.281,-40.039,-37.109,-323.242,0.000
1606136024.050,-28.320,-33.691,-24.414,-38.086,0.000
1606136024.054,62.988,-26.855,-20.996,271.484,0.000
1606136024.058,40.039,-25.879,-29.297,213.867,0.000
1606136024.062,-62.500,-30.762,-30.762,-136.719,0.000
1606136024.066,-108.398,-20.508,-31.250,-312.988,0.000
1606136024.070,-41.504,-1.953,-29.785,-87.402,0.000
1606136024.074,50.293,-16.113,-25.391,229.004,0.000
1606136024.078,47.363,-33.691,-18.555,235.840,0.000
1606136024.082,-53.223,-34.668,-16.602,-113.281,0.000
1606136024.086,-118.164,-41.992,-29.785,-346.680,0.000
1606136024.089,-58.594,-41.016,-26.855,-158.691,0.000
1606136024.093,39.551,-34.180,-19.531,187.012,0.000
1606136024.097,45.410,-36.133,-23.438,248.047,0.000
1606136024.101,-52.246,-40.039,-27.832,-77.637,0.000
1606136024.105,-121.582,-36.621,-29.785,-333.008,0.000
1606136024.109,-75.684,-34.180,-26.855,-184.082,0.000
1606136024.113,25.879,-20.508,-22.949,166.016,0.000
1606136024.117,42.969,-14.160,-18.555,254.395,0.000
1606136024.121,-47.363,-35.156,-24.414,-44.434,0.000
1606136024.125,-121.094,-39.062,-34.668,-328.613,0.000
1606136024.129,-85.938,-30.273,-26.855,-238.281,0.000
1606136024.132,15.137,-30.762,-21.973,120.605,0.000
1606136024.136,55.176,-24.414,-20.996,272.461,0.000
1606136024.140,-24.414,-27.344,-23.926,3.418,0.000
1606136024.144,-118.164,-46.387,-29.785,-314.453,0.000
1606136024.148,-108.398,-49.805,-27.832,-279.297,0.000
1606136024.152,-5.371,-42.480,-20.996,69.336,0.000
1606136024.156,41.992,-33.691,-25.391,264.648,0.000
1606136024.160,-28.809,-31.250,-28.320,52.246,0.000
1606136024.164,-119.629,-30.762,-21.973,-283.691,0.000
1606136024.168,-122.559,-29.297,-32.715,-319.824,0.000
1606136024.172,-14.160,-32.715,-26.855,22.949,0.000
1606136024.175,54.688,-32.715,-22.949,270.996,0.000
1606136024.179,7.324,-27.832,-29.785,98.633,0.000
1606136024.183,-80.078,-32.715,-29.297,-249.023,0.000
1606136024.187,-90.332,-42.480,-30.762,-324.707,0.000
1606136024.191,16.113,-32.715,-24.414,0.977,0.000
1606136024.195,88.379,-23.926,-18.555,280.762,0.000
1606136024.199,35.645,-30.762,-27.344,156.250,0.000
1606136024.203,-69.824,-39.551,-29.297,-201.172,0.000
1606136024.207,-99.121,-37.598,-22.949,-320.801,0.000
1606136024.211,-14.160,-30.273,-20.996,-28.809,0.000
1606136024.214,58.594,-13.184,-19.043,259.277,0.000
1606136024.218,20.996,-15.137,-21.973,176.270,0.000
1606136024.222,-83.984,-32.227,-26.367,-186.035,0.000
1606136024.226,-130.371,-39.551,-28.320,-360.840,0.000
1606136024.230,-48.340,-40.527,-22.461,-96.191,0.000
1606136024.234,42.969,-33.203,-14.648,242.188,0.000
1606136024.238,22.949,-32.227,-10.254,226.562,0.000
1606136024.242,-85.449,-38.574,-15.625,-129.395,0.000
1606136024.246,-148.926,-44.922,-17.090,-344.727,0.000
1606136024.250,-76.660,-34.668,-10.742,-136.719,0.000
1606136024.254,28.809,-20.508,-5.859,215.332,0.000
1606136024.257,21.484,-21.973,-3.418,250.977,0.000
1606136024.261,-79.102,-38.574,-7.812,-87.402,0.000
1606136024.265,-151.855,-26.367,-19.531,-363.281,0.000
1606136024.269,-108.398,-15.137,-16.113,-224.121,0.000
1606136024.273,1.953,-24.414,-8.301,150.391,0.000
1606136024.277,23.438,-20.020,-11.719,249.023,0.000
1606136024.281,-67.383,-21.973,-19.043,-71.777,0.000
1606136024.285,-125.488,-24.414,-24.902,-346.680,0.000
1606136024.289,-78.125,-20.996,-27.344,-228.027,0.000
1606136024.293,32.715,-10.254,-30.273,133.789,0.000
1606136024.297,75.195,-7.812,-27.344,292.969,0.000
1606136024.300,0.000,-16.602,-31.250,28.320,0.000
1606136024.304,-77.637,-15.137,-42.480,-307.129,0.000
1606136024.308,-44.922,-11.719,-43.457,-250.488,0.000
1606136024.312,76.172,-7.812,-39.551,124.023,0.000
1606136024.316,128.906,-1.465,-41.016,309.082,0.000
1606136024.320,55.664,-8.301,-44.922,69.336,0.000
1606136024.324,-26.367,-12.695,-49.316,-256.348,0.000
1606136024.328,-13.672,-9.766,-51.758,-251.953,0.000
1606136024.332,89.355,-2.930,-47.852,121.094,0.000
1606136024.336,152.344,3.418,-43.457,352.539,0.000
1606136024.339,106.445,2.441,-46.387,163.086,0.000
1606136024.343,24.902,-4.883,-51.758,-160.156,0.000
1606136024.347,26.855,-4.883,-49.316,-200.195,0.000
1606136024.351,128.418,-1.953,-43.457,133.301,0.000
1606136024.355,193.848,0.488,-46.875,390.625,0.000
1606136024.359,154.785,-2.930,-62.988,250.977,0.000
1606136024.363,58.105,-7.812,-62.988,-97.168,0.000
1606136024.367,28.809,2.441,-59.082,-212.891,0.000
1606136024.371,126.465,2.930,-51.270,105.469,0.000
1606136024.375,208.496,-5.859,-40.039,421.875,0.000
1606136024.379,169.434,-12.695,-38.086,337.891,0.000
1606136024.382,66.406,-18.066,-39.551,-24.414,0.000
1606136024.386,35.645,-17.090,-42.969,-162.598,0.000
1606136024.390,119.141,-14.648,-38.574,109.863,0.000
1606136024.394,196.289,-11.719,-31.738,402.344,0.000
1606136024.398,180.176,-13.184,-32.715,360.840,0.000
1606136024.402,76.660,-22.461,-34.668,-6.348,0.000
1606136024.406,6.836,-32.227,-39.062,-221.680,0.000
1606136024.410,63.965,-26.367,-32.715,-5.859,0.000
1606136024.414,154.297,-17.578,-22.461,338.379,0.000
1606136024.418,141.113,-23.926,-29.297,346.680,0.000
1606136024.422,36.133,-29.297,-40.527,-12.207,0.000
1606136024.425,-24.902,-26.367,-40.039,-252.930,0.000
1606136024.429,26.855,-18.066,-32.227,-80.566,0.000
1606136024.433,123.047,-11.719,-28.809,264.160,0.000
1606136024.437,136.719,-14.160,-29.785,339.355,0.000
1606136024.441,35.156,-24.902,-36.621,19.531,0.000
1606136024.445,-43.945,-17.578,-44.434,-259.766,0.000
1606136024.449,-1.465,-9.766,-41.016,-145.020,0.000
1606136024.453,100.586,-21.973,-30.762,212.402,0.000
1606136024.457,125.000,-20.020,-28.320,340.820,0.000
1606136024.461,32.715,-23.438,-28.320,48.828,0.000
1606136024.464,-52.734,-31.738,-28.809,-258.301,0.000
1606136024.468,-25.391,-25.879,-27.344,-193.359,0.000
1606136024.472,68.848,-17.578,-20.508,163.574,0.000
1606136024.476,104.980,-22.461,-24.414,337.402,0.000
1606136024.480,31.250,-29.785,-27.832,84.961,0.000
1606136024.484,-61.035,-33.691,-32.715,-241.699,0.000
1606136024.488,-45.410,-30.273,-34.668,-229.492,0.000
1606136024.492,54.688,-25.391,-21.973,121.582,0.000
1606136024.496,101.562,-27.832,-16.113,325.684,0.000
1606136024.500,31.250,-31.250,-22.949,113.281,0.000
1606136024.504,-62.012,-25.879,-22.461,-214.844,0.000
1606136024.507,-62.500,-24.902,-18.555,-252.441,0.000
1606136024.511,22.949,-24.902,-19.043,73.730,0.000
1606136024.515,85.938,-21.484,-7.324,321.289,0.000
1606136024.519,41.504,-24.902,-6.348,174.805,0.000
1606136024.523,-60.059,-31.738,-18.066,-189.453,0.000
1606136024.527,-90.332,-38.086,-19.531,-297.852,0.000
1606136024.531,-5.371,-34.180,-13.184,15.625,0.000
1606136024.535,71.289,-24.902,-13.672,301.270,0.000
1606136024.539,39.551,-22.461,-17.578,198.242,0.000
1606136024.543,-66.406,-28.809,-20.508,-167.969,0.000
1606136024.547,-112.305,-27.832,-26.855,-319.824,0.000
1606136024.550,-25.879,-25.391,-22.461,-48.340,0.000
1606136024.554,62.012,-23.438,-13.184,249.023,0.000
1606136024.558,38.574,-27.344,-14.160,196.777,0.000
1606136024.562,-51.270,-33.691,-18.555,-141.113,0.000
1606136024.566,-89.844,-30.273,-22.461,-319.824,0.000
1606136024.570,-22.461,-23.438,-20.996,-96.680,0.000
1606136024.574,65.918,-21.484,-18.066,224.121,0.000
1606136024.578,60.059,-21.973,-20.508,236.816,0.000
1606136024.582,-39.551,-24.902,-22.949,-95.703,0.000
1606136024.586,-96.680,-24.414,-23.926,-316.406,0.000
1606136024.589,-35.645,-24.414,-21.484,-127.441,0.000
1606136024.593,58.594,-24.902,-18.555,207.520,0.000
1606136024.597,65.918,-20.996,-17.090,270.508,0.000
1606136024.601,-30.762,-27.344,-20.020,-43.457,0.000
1606136024.605,-97.168,-33.691,-21.973,-289.551,0.000
1606136024.609,-48.340,-31.738,-19.043,-150.879,0.000
1606136024.613,45.898,-24.414,-17.090,200.684,0.000
1606136024.617,62.988,-23.438,-18.555,311.035,0.000
1606136024.621,-21.973,-31.250,-20.020,12.695,0.000
1606136024.625,-95.703,-36.621,-23.438,-264.648,0.000
1606136024.629,-65.918,-35.645,-26.855,-188.477,0.000
1606136024.632,28.320,-31.738,-21.973,142.578,0.000
1606136024.636,49.805,-33.203,-15.625,285.645,0.000
1606136024.640,-38.086,-36.133,-15.137,30.273,0.000
1606136024.644,-110.352,-39.062,-25.391,-263.184,0.000
1606136024.648,-88.379,-36.133,-26.367,-230.469,0.000
1606136024.652,2.441,-32.715,-11.230,84.473,0.000
1606136024.656,51.270,-28.809,-9.766,249.023,0.000
1606136024.660,-8.789,-31.250,-22.461,41.504,0.000
1606136024.664,-91.797,-42.480,-28.809,-244.141,0.000
1606136024.668,-83.984,-41.992,-24.902,-236.816,0.000
1606136024.672,3.906,-34.180,-24.902,45.898,0.000
1606136024.675,52.246,-26.367,-26.367,206.055,0.000
1606136024.679,0.000,-21.484,-21.484,33.203,0.000
1606136024.683,-85.938,-24.902,-23.438,-262.207,0.000
1606136024.687,-102.539,-30.273,-26.367,-315.430,0.000
1606136024.691,-24.414,-26.855,-20.508,-23.438,0.000
1606136024.695,35.645,-22.949,-19.531,207.031,0.000
1606136024.699,-7.812,-29.297,-22.949,84.961,0.000
1606136024.703,-91.309,-37.598,-22.461,-217.285,0.000
1606136024.707,-101.074,-35.156,-21.484,-294.434,0.000
1606136024.711,-23.926,-27.344,-20.020,-35.156,0.000
1606136024.714,39.062,-26.367,-15.137,202.637,0.000
1606136024.718,9.766,-32.715,-14.648,138.184,0.000
1606136024.722,-77.637,-40.039,-22.461,-154.297,0.000
1606136024.726,-113.281,-51.758,-27.344,-293.945,0.000
1606136024.730,-47.852,-46.875,-21.484,-75.684,0.000
1606136024.734,25.879,-40.527,-16.602,197.266,0.000
1606136024.738,9.277,-42.480,-20.020,181.152,0.000
1606136024.742,-74.219,-42.480,-22.949,-117.676,0.000
1606136024.746,-117.676,-48.340,-25.391,-292.480,0.000
1606136024.750,-63.477,-42.480,-27.832,-107.422,0.000
1606136024.754,20.508,-26.367,-26.367,177.246,0.000
1606136024.757,16.113,-26.855,-25.391,193.848,0.000
1606136024.761,-69.336,-37.598,-24.414,-93.750,0.000
1606136024.765,-114.746,-31.738,-27.344,-294.922,0.000
1606136024.769,-65.918,-22.461,-25.391,-146.973,0.000
1606136024.773,13.672,-24.902,-17.090,137.695,0.000
1606136024.777,22.461,-27.344,-12.207,196.289,0.000
1606136024.781,-50.293,-31.250,-17.578,-68.848,0.000
1606136024.785,-111.816,-40.527,-28.320,-294.434,0.000
1606136024.789,-82.520,-38.086,-28.320,-199.707,0.000
1606136024.793,0.977,-27.344,-20.020,95.215,0.000
1606136024.797,25.879,-25.391,-15.137,212.891,0.000
1606136024.800,-39.062,-32.227,-15.137,-22.461,0.000
1606136024.804,-100.586,-35.645,-21.484,-268.066,0.000
1606136024.808,-76.172,-34.668,-23.438,-217.773,0.000
1606136024.812,13.184,-30.762,-19.531,73.242,0.000
1606136024.816,57.129,-17.578,-15.625,229.980,0.000
1606136024.820,-11.719,-19.043,-20.508,29.297,0.000
1606136024.824,-100.586,-32.227,-30.273,-255.859,0.000
1606136024.828,-90.820,-32.227,-30.273,-253.906,0.000
1606136024.832,-0.977,-25.879,-22.949,43.945,0.000
1606136024.836,42.969,-25.391,-22.949,220.215,0.000
1606136024.839,-14.648,-28.809,-26.367,44.434,0.000
1606136024.843,-83.008,-32.227,-24.414,-228.516,0.000
1606136024.847,-85.938,-32.715,-17.578,-257.812,0.000
1606136024.851,-12.695,-26.367,-12.695,11.719,0.000
1606136024.855,41.016,-18.555,-17.578,215.820,0.000
1606136024.859,0.000,-16.113,-19.531,97.168,0.000
1606136024.863,-79.590,-20.996,-27.832,-190.918,0.000
1606136024.867,-104.980,-26.855,-33.691,-283.203,0.000
1606136024.871,-34.180,-26.367,-30.762,-17.090,0.000
1606136024.875,26.855,-22.461,-26.367,214.355,0.000
1606136024.879,-4.395,-25.879,-26.367,122.559,0.000
1606136024.882,-80.078,-31.250,-33.203,-165.527,0.000
1606136024.886,-106.934,-32.715,-38.086,-291.016,0.000
1606136024.890,-42.969,-33.203,-31.250,-70.312,0.000
1606136024.894,28.809,-28.809,-20.020,181.641,0.000
1606136024.898,14.160,-27.344,-25.391,139.648,0.000
1606136024.902,-65.918,-28.320,-34.180,-145.508,0.000
1606136024.906,-107.422,-28.320,-34.180,-298.828,0.000
1606136024.910,-57.129,-30.273,-34.668,-116.699,0.000
1606136024.914,8.301,-30.273,-35.645,151.855,0.000
1606136024.918,-2.930,-36.621,-32.715,148.926,0.000
1606136024.922,-79.102,-39.551,-32.715,-141.602,0.000
1606136024.925,-116.699,-17.578,-35.156,-319.336,0.000
1606136024.929,-64.941,-16.602,-31.250,-150.879,0.000
1606136024.933,9.766,-36.621,-30.273,138.184,0.000
1606136024.937,14.160,-38.574,-31.250,191.406,0.000
1606136024.941,-60.547,-39.062,-29.785,-70.801,0.000
1606136024.945,-111.328,-38.086,-34.668,-280.762,0.000
1606136024.949,-73.242,-35.645,-36.621,-174.316,0.000
1606136024.953,14.160,-24.414,-27.344,133.301,0.000
1606136024.957,36.621,-20.996,-21.484,226.562,0.000
1606136024.961,-38.086,-36.133,-25.391,-43.457,0.000
1606136024.964,-103.516,-26.367,-26.855,-286.133,0.000
1606136024.968,-75.684,-17.090,-22.949,-217.285,0.000
1606136024.972,4.883,-27.832,-19.531,81.543,0.000
1606136024.976,34.180,-23.438,-18.555,216.797,0.000
1606136024.980,-27.832,-24.902,-20.996,-0.488,0.000
1606136024.984,-98.633,-28.809,-26.367,-263.672,0.000
1606136024.988,-88.379,-29.297,-26.367,-237.305,0.000
1606136024.992,-10.742,-30.762,-24.902,45.898,0.000
1606136024.996,30.273,-28.320,-20.508,201.660,0.000
1606136025.000,-17.578,-33.203,-18.555,30.273,0.000
1606136025.004,-85.938,-12.207,-26.855,-237.305,0.000
1606136025.007,-88.867,19.043,-31.738,-266.602,0.000
1606136025.011,-16.113,-13.672,-31.250,-5.859,0.000
1606136025.015,32.715,-34.668,-24.902,185.547,0.000
1606136025.019,-6.836,-31.250,-19.531,63.477,0.000
1606136025.023,-83.008,-36.133,-28.320,-210.449,0.000
1606136025.027,-90.820,-38.574,-28.320,-267.578,0.000
1606136025.031,-17.090,-35.156,-25.391,-4.883,0.000
1606136025.035,38.086,-26.855,-22.461,211.426,0.000
1606136025.039,4.395,-32.715,-27.832,107.422,0.000
1606136025.043,-74.707,-34.180,-34.180,-187.500,0.000
1606136025.047,-90.820,-32.227,-32.227,-277.344,0.000
1606136025.050,-17.090,-34.180,-32.227,-31.738,0.000
1606136025.054,46.875,-32.715,-27.344,208.008,0.000
1606136025.058,26.367,-35.645,-24.902,151.367,0.000
1606136025.062,-56.641,-32.227,-29.785,-144.531,0.000
1606136025.066,-93.750,-20.508,-32.715,-275.391,0.000
1606136025.070,-31.250,-28.320,-25.879,-63.965,0.000
1606136025.074,44.922,-28.320,-20.996,197.266,0.000
1606136025.078,31.250,-23.438,-25.879,189.453,0.000
1606136025.082,-54.199,-32.227,-28.809,-94.238,0.000
1606136025.086,-99.609,-38.574,-30.273,-271.484,0.000
1606136025.089,-52.246,-37.598,-28.809,-105.469,0.000
1606136025.093,17.090,-32.227,-24.902,178.223,0.000
1606136025.097,18.555,-33.203,-25.391,215.332,0.000
1606136025.101,-57.129,-43.457,-31.250,-77.148,0.000
1606136025.105,-112.305,-23.926,-38.086,-301.758,0.000
1606136025.109,-70.312,-9.277,-33.691,-169.922,0.000
1606136025.113,13.672,-25.391,-21.484,130.371,0.000
1606136025.117,31.250,-23.926,-19.531,205.078,0.000
1606136025.121,-37.598,-26.855,-25.879,-47.363,0.000
1606136025.125,-102.051,-28.320,-33.203,-278.809,0.000
1606136025.129,-72.266,-25.391,-34.180,-185.059,0.000
1606136025.132,16.602,-22.461,-26.855,124.512,0.000
1606136025.136,38.086,-21.973,-23.438,234.375,0.000
1606136025.140,-33.203,-29.297,-23.438,2.930,0.000
1606136025.144,-106.445,-15.137,-28.320,-249.512,0.000
1606136025.148,-97.168,-15.625,-35.156,-214.355,0.000
1606136025.152,-12.695,-37.598,-25.879,81.543,0.000
1606136025.156,24.414,-34.180,-19.043,235.352,0.000
1606136025.160,-35.645,-34.668,-24.414,43.945,0.000
1606136025.164,-104.492,-39.062,-27.344,-225.098,0.000
1606136025.168,-97.168,-42.969,-31.250,-240.234,0.000
1606136025.172,-11.719,-39.062,-28.320,43.457,0.000
1606136025.175,36.133,-30.762,-24.414,230.469,0.000
1606136025.179,-16.113,-35.156,-26.367,67.383,0.000
1606136025.183,-93.262,-36.621,-26.367,-212.402,0.000
1606136025.187,-89.844,-33.691,-24.902,-240.723,0.000
1606136025.191,-6.348,-31.250,-18.555,37.598,0.000
1606136025.195,43.945,-29.297,-18.555,233.398,0.000
1606136025.199,4.883,-35.645,-24.902,117.676,0.000
1606136025.203,-75.684,-32.715,-31.250,-162.598,0.000
1606136025.207,-84.961,0.977,-33.203,-249.023,0.000
1606136025.211,-4.883,-5.371,-22.949,-0.488,0.000
1606136025.214,38.086,-35.645,-17.090,220.215,0.000
1606136025.218,-8.301,-41.992,-15.625,145.996,0.000
1606136025.222,-78.613,-46.875,-19.531,-124.512,0.000
1606136025.226,-101.074,-50.293,-25.879,-247.559,0.000
1606136025.230,-39.062,-47.363,-25.391,-30.273,0.000
1606136025.234,26.855,-34.668,-22.949,218.750,0.000
1606136025.238,0.977,-37.598,-20.508,173.828,0.000
1606136025.242,-78.125,-42.480,-21.973,-116.699,0.000
1606136025.246,-105.957,-33.203,-28.320,-271.484,0.000
1606136025.250,-47.363,-39.551,-28.809,-86.426,0.000
1606136025.254,25.391,-36.621,-27.344,189.453,0.000
1606136025.257,27.344,-31.250,-26.855,208.984,0.000
1606136025.261,-46.387,-36.621,-30.273,-75.684,0.000
1606136025.265,-97.656,-33.691,-37.109,-269.043,0.000
1606136025.269,-50.781,-31.250,-32.227,-121.094,0.000
1606136025.273,27.832,-32.715,-23.926,152.344,0.000
1606136025.277,31.250,-33.691,-24.414,197.754,0.000
1606136025.281,-33.691,-37.109,-23.926,-47.363,0.000
1606136025.285,-78.125,-14.648,-28.809,-243.652,0.000
1606136025.289,-52.246,-11.719,-38.086,-163.574,0.000
1606136025.293,25.879,-34.180,-37.598,91.797,0.000
1606136025.297,48.828,-30.273,-31.738,189.453,0.000
1606136025.300,-22.461,-33.691,-32.715,-36.621,0.000
1606136025.304,-93.262,-40.039,-36.133,-277.344,0.000
1606136025.308,-73.730,-43.945,-36.621,-203.613,0.000
1606136025.312,6.836,-40.527,-29.785,91.797,0.000
1606136025.316,33.203,-33.203,-25.879,218.750,0.000
1606136025.320,-32.715,-40.527,-30.273,7.812,0.000
1606136025.324,-104.492,-46.387,-35.156,-263.672,0.000
1606136025.328,-86.426,-40.039,-39.062,-239.746,0.000
1606136025.332,-3.418,-30.273,-28.809,49.805,0.000
1606136025.336,33.691,-22.949,-22.461,198.730,0.000
1606136025.339,-24.414,-32.715,-27.832,27.344,0.000
1606136025.343,-104.980,-21.973,-33.203,-239.258,0.000
1606136025.347,-104.980,-12.695,-35.156,-270.020,0.000
1606136025.351,-22.461,-29.785,-26.367,12.207,0.000
1606136025.355,28.320,-29.785,-15.137,221.191,0.000
1606136025.359,-4.395,-30.762,-14.648,97.168,0.000
1606136025.363,-80.566,-33.203,-23.926,-185.547,0.000
1606136025.367,-99.121,-37.109,-26.855,-264.648,0.000
1606136025.371,-24.414,-34.180,-23.926,-20.020,0.000
1606136025.375,37.598,-30.762,-22.461,216.797,0.000
1606136025.379,6.348,-33.203,-19.043,148.926,0.000
1606136025.382,-82.031,-34.668,-20.996,-143.555,0.000
1606136025.386,-116.699,-28.809,-31.738,-276.855,0.000
1606136025.390,-46.387,-29.785,-31.738,-56.641,0.000
1606136025.394,34.180,-28.320,-20.996,220.215,0.000
1606136025.398,11.719,-33.203,-20.508,184.082,0.000
1606136025.402,-77.148,-36.621,-26.367,-122.559,0.000
1606136025.406,-112.793,-34.180,-28.320,-270.020,0.000
1606136025.410,-41.992,-34.668,-24.902,-61.035,0.000
1606136025.414,42.969,-26.855,-15.625,229.492,0.000
1606136025.418,43.457,-22.949,-13.672,235.840,0.000
1606136025.422,-40.039,-23.438,-18.555,-63.965,0.000
1606136025.425,-93.750,-22.949,-25.391,-245.117,0.000
1606136025.429,-46.387,-26.367,-29.297,-82.520,0.000
1606136025.433,33.691,-33.203,-25.879,198.242,0.000
1606136025.437,42.480,-33.203,-21.484,249.512,0.000
1606136025.441,-40.527,-31.738,-34.180,-48.828,0.000
1606136025.445,-102.539,-35.645,-37.598,-302.246,0.000
1606136025.449,-59.082,-32.715,-25.391,-186.035,0.000
1606136025.453,28.809,-30.273,-24.414,141.113,0.000
1606136025.457,51.758,-29.297,-30.273,267.578,0.000
1606136025.461,-27.344,-34.180,-33.691,22.949,0.000
1606136025.464,-98.633,-37.109,-15.625,-237.305,0.000
1606136025.468,-73.242,-34.180,-5.371,-192.871,0.000
1606136025.472,-7.324,-20.020,4.883,85.938,0.000
1606136025.476,-3.906,-19.531,-2.441,202.637,0.000
1606136025.480,-97.656,-40.039,-21.973,-53.711,0.000
1606136025.484,-197.754,-36.621,-14.160,-355.957,0.000
1606136025.488,-212.891,-31.738,-4.883,-351.074,0.000
1606136025.492,-137.695,-24.902,20.996,-43.945,0.000
1606136025.496,-124.512,-26.367,30.762,114.746,0.000
1606136025.500,-205.566,-34.668,11.230,-104.980,0.000
1606136025.504,-305.664,-38.574,9.277,-425.293,0.000
1606136025.507,-334.961,-42.480,16.602,-468.262,0.000
1606136025.511,-258.301,-43.457,17.090,-159.180,0.000
1606136025.515,-212.891,-47.363,16.113,47.852,0.000
1606136025.519,-277.344,-46.875,20.508,-124.512,0.000
1606136025.523,-372.070,-36.133,29.297,-454.590,0.000
1606136025.527,-398.926,-33.203,29.785,-552.246,0.000
1606136025.531,-330.078,-46.387,14.160,-282.715,0.000
1606136025.535,-243.164,-55.664,8.789,-13.672,0.000
1606136025.539,-272.949,-61.035,10.254,-124.512,0.000
1606136025.543,-371.582,-56.641,3.418,-472.168,0.000
1606136025.547,-383.301,-39.062,3.906,-592.285,0.000
1606136025.550,-310.059,-34.668,14.160,-329.102,0.000
1606136025.554,-240.234,-36.133,26.855,-41.992,0.000
1606136025.558,-258.789,-41.992,18.555,-96.680,0.000
1606136025.562,-357.910,-55.176,12.207,-421.875,0.000
1606136025.566,-400.391,-51.270,20.996,-576.172,0.000
1606136025.570,-312.500,-65.918,35.645,-322.754,0.000
1606136025.574,-210.449,-74.707,37.598,2.930,0.000
1606136025.578,-199.219,-57.617,29.297,-16.602,0.000
1606136025.582,-279.785,-46.387,7.812,-360.840,0.000
1606136025.586,-336.914,-36.133,-7.324,-557.617,0.000
1606136025.589,-264.648,-41.992,1.465,-346.191,0.000
1606136025.593,-151.367,-59.570,5.859,7.812,0.000
1606136025.597,-131.348,-60.547,14.160,72.266,0.000
1606136025.601,-209.961,-63.965,0.000,-242.188,0.000
1606136025.605,-253.418,-66.406,-20.508,-458.496,0.000
1606136025.609,-179.688,-59.082,-13.672,-285.645,0.000
1606136025.613,-49.805,-52.246,-0.488,77.148,0.000
1606136025.617,-11.230,-53.711,-11.719,184.570,0.000
1606136025.621,-89.844,-57.617,-16.113,-104.492,0.000
1606136025.625,-155.762,-60.059,-21.484,-366.699,0.000
1606136025.629,-101.074,-60.547,-42.969,-248.047,0.000
1606136025.632,17.578,-46.387,-48.340,127.930,0.000
1606136025.636,59.082,-43.945,-25.391,283.203,0.000
1606136025.640,-8.301,-49.316,-24.414,20.020,0.000
1606136025.644,-83.008,-48.828,-34.180,-271.973,0.000
1606136025.648,-56.152,-53.711,-33.203,-218.262,0.000
1606136025.652,64.453,-51.270,-32.227,131.348,0.000
1606136025.656,120.605,-45.898,-34.180,316.895,0.000
1606136025.660,46.875,-45.410,-35.645,92.773,0.000
1606136025.664,-43.457,-43.945,-38.086,-222.168,0.000
1606136025.668,-37.598,-36.133,-42.969,-232.910,0.000
1606136025.672,63.477,-41.504,-39.551,103.516,0.000
1606136025.675,121.094,-42.480,-28.320,332.520,0.000
1606136025.679,63.477,-48.828,-47.363,136.719,0.000
1606136025.683,-31.250,-57.617,-64.453,-203.613,0.000
1606136025.687,-40.039,-43.945,-44.922,-243.164,0.000
1606136025.691,57.617,-38.574,-25.879,79.590,0.000
1606136025.695,133.301,-38.086,-21.973,323.730,0.000
1606136025.699,84.473,-41.016,-30.762,183.594,0.000
1606136025.703,-17.090,-40.039,-45.410,-158.203,0.000
1606136025.707,-34.668,-31.250,-46.875,-258.789,0.000
1606136025.711,44.922,-37.598,-37.598,30.273,0.000
1606136025.714,118.164,-37.109,-30.273,308.105,0.000
1606136025.718,89.355,-38.574,-33.691,219.727,0.000
1606136025.722,-16.113,-38.574,-37.598,-121.094,0.000
1606136025.726,-61.523,-41.504,-37.109,-266.602,0.000
1606136025.730,17.090,-48.340,-31.738,-9.766,0.000
1606136025.734,107.910,-39.551,-30.273,290.527,0.000
1606136025.738,89.844,-32.227,-40.527,254.395,0.000
1606136025.742,-8.789,-37.109,-45.410,-89.844,0.000
1606136025.746,-53.223,-37.109,-43.457,-302.734,0.000
1606136025.750,18.066,-29.297,-36.133,-90.332,0.000
1606136025.754,109.863,-21.973,-40.039,261.230,0.000
1606136025.757,101.074,-26.855,-42.480,273.438,0.000
1606136025.761,-4.395,-41.504,-44.922,-80.078,0.000
1606136025.765,-68.848,-43.457,-49.805,-317.871,0.000
1606136025.769,-6.836,-28.809,-42.969,-147.949,0.000
1606136025.773,95.703,-20.020,-37.598,210.449,0.000
1606136025.777,104.004,-21.973,-38.574,280.273,0.000
1606136025.781,7.324,-28.809,-41.016,-50.781,0.000
1606136025.785,-56.152,-30.762,-43.945,-309.570,0.000
1606136025.789,-17.578,-29.297,-36.621,-182.617,0.000
1606136025.793,78.125,-26.855,-29.297,175.293,0.000
1606136025.797,103.516,-27.832,-29.785,309.570,0.000
1606136025.800,10.742,-41.504,-31.250,21.973,0.000
1606136025.804,-68.359,-25.391,-32.227,-272.461,0.000
1606136025.808,-42.969,-12.207,-27.832,-193.848,0.000
1606136025.812,63.477,-28.809,-25.391,168.457,0.000
1606136025.816,101.562,-24.414,-25.879,342.285,0.000
1606136025.820,17.578,-31.250,-26.855,92.773,0.000
1606136025.824,-75.684,-41.504,-32.227,-233.887,0.000
1606136025.828,-65.430,-39.551,-27.832,-225.586,0.000
1606136025.832,43.945,-37.109,-29.297,138.672,0.000
1606136025.836,95.703,-37.109,-35.645,351.074,0.000
1606136025.839,24.414,-42.480,-35.645,127.930,0.000
1606136025.843,-76.172,-33.691,-39.062,-218.750,0.000
1606136025.847,-74.219,-21.973,-31.250,-249.023,0.000
1606136025.851,22.949,-27.832,-14.648,87.891,0.000
1606136025.855,83.008,-27.832,-9.277,325.684,0.000
1606136025.859,31.250,-35.645,-13.672,163.574,0.000
1606136025.863,-69.336,-29.297,-22.949,-189.941,0.000
1606136025.867,-82.520,-11.719,-26.855,-277.344,0.000
1606136025.871,15.625,-17.090,-26.367,26.855,0.000
1606136025.875,96.680,-20.020,-24.414,291.504,0.000
1606136025.879,56.641,-20.020,-23.926,189.941,0.000
1606136025.882,-55.664,-26.855,-29.785,-168.945,0.000
1606136025.886,-93.750,-33.691,-39.062,-317.871,0.000
1606136025.890,-4.883,-27.344,-34.668,-24.902,0.000
1606136025.894,79.590,-20.020,-24.902,290.039,0.000
1606136025.898,49.805,-23.926,-22.949,218.262,0.000
1606136025.902,-59.082,-29.785,-27.344,-146.973,0.000
1606136025.906,-114.746,-17.090,-35.156,-336.426,0.000
1606136025.910,-41.016,-19.043,-32.715,-97.168,0.000
1606136025.914,54.199,-22.949,-22.949,249.512,0.000
1606136025.918,46.387,-20.020,-19.043,248.047,0.000
1606136025.922,-63.477,-29.297,-38.086,-118.652,0.000
1606136025.925,-129.883,-36.133,-47.363,-333.008,0.000
1606136025.929,-64.453,-33.203,-32.715,-119.141,0.000
1606136025.933,45.410,-17.578,-18.555,234.863,0.000
1606136025.937,51.758,-13.184,-18.555,283.203,0.000
1606136025.941,-47.363,-23.926,-26.855,-59.082,0.000
1606136025.945,-113.770,-18.555,-27.832,-325.684,0.000
1606136025.949,-67.383,-20.508,-25.879,-185.059,0.000
1606136025.953,39.062,-31.250,-27.344,178.711,0.000
1606136025.957,61.035,-26.855,-20.996,296.875,0.000
1606136025.961,-36.621,-27.344,-20.996,-2.441,0.000
1606136025.964,-113.281,-32.227,-33.691,-307.617,0.000
1606136025.968,-75.195,-27.832,-36.133,-228.027,0.000
1606136025.972,36.133,-22.461,-31.738,139.648,0.000
1606136025.976,68.359,-24.414,-22.949,282.715,0.000
1606136025.980,-30.762,-30.762,-24.414,-9.766,0.000
1606136025.984,-112.793,-31.250,-32.227,-311.035,0.000
1606136025.988,-86.426,-31.738,-31.738,-255.859,0.000
1606136025.992,10.742,-25.391,-32.227,82.520,0.000
1606136025.996,54.688,-15.625,-28.320,264.648,0.000
1606136026.000,-14.648,-23.926,-26.855,49.316,0.000
1606136026.004,-101.562,-27.832,-32.227,-263.672,0.000
1606136026.007,-93.262,-24.414,-37.598,-291.504,0.000
1606136026.011,7.812,-21.484,-34.668,33.691,0.000
1606136026.015,61.035,-24.902,-30.762,261.719,0.000
1606136026.019,-9.277,-28.320,-29.297,83.496,0.000
1606136026.023,-103.516,-28.809,-33.691,-256.836,0.000
1606136026.027,-111.328,-36.133,-38.574,-327.148,0.000
1606136026.031,-19.531,-30.762,-40.039,-11.230,0.000
1606136026.035,50.293,-24.902,-36.133,255.371,0.000
1606136026.039,5.371,-29.785,-40.527,134.277,0.000
1606136026.043,-94.727,-33.203,-45.898,-204.102,0.000
1606136026.047,-125.000,-29.297,-46.875,-317.383,0.000
1606136026.050,-38.574,-20.508,-41.504,-37.598,0.000
1606136026.054,48.828,-21.973,-35.645,254.883,0.000
1606136026.058,24.902,-30.273,-34.180,195.801,0.000
1606136026.062,-75.195,-33.203,-28.320,-141.113,0.000
1606136026.066,-107.910,-35.156,-32.715,-294.922,0.000
1606136026.070,-26.367,-36.133,-34.180,-43.457,0.000
1606136026.074,55.664,-30.273,-30.273,255.371,0.000
1606136026.078,47.363,-25.879,-31.738,236.816,0.000
1606136026.082,-44.922,-30.762,-25.879,-84.473,0.000
1606136026.086,-103.027,-36.621,-24.902,-287.109,0.000
1606136026.089,-38.574,-39.062,-22.461,-91.309,0.000
1606136026.093,52.246,-38.574,-18.066,227.539,0.000
1606136026.097,42.480,-35.156,-24.414,250.000,0.000
1606136026.101,-57.129,-36.133,-27.344,-86.914,0.000
1606136026.105,-106.445,-35.156,-24.902,-328.125,0.000
1606136026.109,-54.199,-37.109,-27.832,-170.898,0.000
1606136026.113,30.273,-38.574,-33.691,159.668,0.000
1606136026.117,40.039,-42.480,-36.621,239.258,0.000
1606136026.121,-51.270,-47.852,-37.109,-54.199,0.000
1606136026.125,-119.629,-40.527,-36.133,-305.176,0.000
1606136026.129,-80.078,-35.645,-39.062,-190.918,0.000
1606136026.132,14.160,-34.180,-34.180,136.230,0.000
1606136026.136,40.039,-31.250,-25.391,252.930,0.000
1606136026.140,-39.551,-37.598,-28.809,-31.250,0.000
1606136026.144,-119.141,-31.250,-41.992,-330.566,0.000
1606136026.148,-92.773,-12.207,-46.387,-262.207,0.000
1606136026.152,14.648,-21.973,-39.062,79.590,0.000
1606136026.156,48.828,-31.738,-39.551,234.863,0.000
1606136026.160,-25.879,-26.367,-34.180,19.531,0.000
1606136026.164,-108.887,-32.715,-24.414,-261.230,0.000
1606136026.168,-106.934,-38.086,-29.785,-265.625,0.000
1606136026.172,-9.277,-29.785,-26.855,58.105,0.000
1606136026.175,53.711,-20.996,-19.043,263.672,0.000
1606136026.179,-6.348,-25.391,-21.484,64.941,0.000
1606136026.183,-99.609,-25.391,-24.902,-244.629,0.000
1606136026.187,-100.586,-18.555,-25.391,-283.691,0.000
1606136026.191,-9.277,-28.809,-28.320,23.926,0.000
1606136026.195,52.734,-28.809,-27.832,259.277,0.000
1606136026.199,11.230,-29.785,-30.273,117.188,0.000
1606136026.203,-82.031,-33.203,-33.203,-205.078,0.000
1606136026.207,-100.098,-30.762,-32.227,-290.527,0.000
1606136026.211,-13.184,-24.414,-26.367,-5.371,0.000
1606136026.214,58.105,-23.438,-20.020,245.117,0.000
1606136026.218,23.926,-33.203,-21.484,145.996,0.000
1606136026.222,-72.266,-35.645,-25.879,-166.992,0.000
1606136026.226,-105.957,-27.344,-35.645,-304.688,0.000
1606136026.230,-28.809,-32.715,-35.156,-67.871,0.000
1606136026.234,52.734,-28.320,-19.531,219.727,0.000
1606136026.238,36.133,-18.555,-21.484,186.523,0.000
1606136026.242,-69.336,-30.273,-35.645,-135.742,0.000
1606136026.246,-118.652,-38.086,-34.180,-307.129,0.000
1606136026.250,-47.852,-34.668,-27.344,-104.980,0.000
1606136026.254,36.621,-27.344,-28.809,193.359,0.000
1606136026.257,26.855,-25.391,-33.691,205.566,0.000
1606136026.261,-71.289,-32.715,-30.762,-109.863,0.000
1606136026.265,-121.094,-32.227,-27.832,-321.289,0.000
1606136026.269,-61.035,-26.367,-30.762,-152.344,0.000
1606136026.273,31.250,-26.367,-29.297,169.434,0.000
1606136026.277,31.250,-29.785,-31.250,216.309,0.000
1606136026.281,-67.383,-38.574,-37.109,-97.168,0.000
1606136026.285,-125.488,-29.297,-43.457,-329.590,0.000
1606136026.289,-76.660,-23.438,-40.527,-178.711,0.000
1606136026.293,24.414,-32.227,-29.785,155.762,0.000
1606136026.297,42.969,-26.367,-25.391,247.559,0.000
1606136026.300,-45.898,-28.809,-26.855,-32.227,0.000
1606136026.304,-121.094,-36.133,-30.762,-306.152,0.000
1606136026.308,-90.332,-38.086,-29.785,-232.910,0.000
1606136026.312,20.508,-25.391,-17.578,119.629,0.000
1606136026.316,52.734,-17.090,-19.043,270.020,0.000
1606136026.320,-21.973,-25.391,-23.926,24.902,0.000
1606136026.324,-100.586,-28.320,-27.832,-264.160,0.000
1606136026.328,-93.262,-27.832,-36.133,-259.766,0.000
1606136026.332,15.137,-23.926,-23.926,72.754,0.000
1606136026.336,75.195,-14.160,-18.555,270.996,0.000
1606136026.339,16.113,-20.996,-27.832,70.801,0.000
1606136026.343,-71.777,-37.109,-33.691,-236.328,0.000
1606136026.347,-81.543,-34.180,-34.668,-256.348,0.000
1606136026.351,8.301,-23.438,-22.461,62.500,0.000
1606136026.355,63.477,-22.461,-16.602,265.137,0.000
1606136026.359,3.906,-21.484,-23.438,104.004,0.000
1606136026.363,-100.098,-17.578,-34.668,-219.727,0.000
1606136026.367,-111.816,-23.438,-35.156,-275.879,0.000
1606136026.371,-7.324,-29.785,-21.973,33.691,0.000
1606136026.375,53.223,-25.879,-17.090,247.559,0.000
1606136026.379,8.301,-23.926,-24.414,122.070,0.000
1606136026.382,-89.844,-27.832,-41.504,-206.055,0.000
1606136026.386,-112.793,-33.691,-48.340,-312.988,0.000
1606136026.390,-25.879,-30.273,-34.180,-54.688,0.000
1606136026.394,51.270,-21.973,-16.602,224.121,0.000
1606136026.398,27.344,-28.320,-16.602,171.387,0.000
1606136026.402,-71.289,-26.855,-25.879,-155.762,0.000
1606136026.406,-105.957,-20.020,-28.320,-304.688,0.000
1606136026.410,-23.438,-19.043,-21.973,-67.871,0.000
1606136026.414,57.129,-17.578,-27.832,212.402,0.000
1606136026.418,34.668,-21.484,-35.645,187.012,0.000
1606136026.422,-62.012,-30.273,-35.645,-135.254,0.000
1606136026.425,-109.863,-38.086,-39.062,-334.961,0.000
1606136026.429,-43.945,-29.297,-42.969,-138.672,0.000
1606136026.433,54.199,-20.508,-40.527,190.430,0.000
1606136026.437,53.711,-30.762,-37.109,226.074,0.000
1606136026.441,-46.387,-38.086,-37.598,-94.238,0.000
1606136026.445,-105.957,-37.109,-38.574,-312.988,0.000
1606136026.449,-54.688,-31.250,-33.691,-161.621,0.000
1606136026.453,37.109,-26.855,-26.367,154.297,0.000
1606136026.457,50.781,-26.367,-21.973,241.211,0.000
1606136026.461,-42.480,-28.809,-25.879,-49.316,0.000
1606136026.464,-117.676,-36.133,-36.133,-308.105,0.000
1606136026.468,-85.938,-34.180,-33.203,-210.449,0.000
1606136026.472,4.395,-27.832,-30.273,116.699,0.000
1606136026.476,39.062,-27.344,-29.785,247.070,0.000
1606136026.480,-34.668,-34.180,-28.320,-1.953,0.000
1606136026.484,-107.910,-44.922,-28.320,-272.461,0.000
1606136026.488,-80.566,-41.992,-24.414,-224.609,0.000
1606136026.492,16.113,-32.227,-22.949,87.891,0.000
1606136026.496,49.316,-35.156,-18.555,249.023,0.000
1606136026.500,-28.320,-39.062,-20.508,24.414,0.000
1606136026.504,-109.863,-35.645,-25.879,-268.555,0.000
1606136026.507,-104.004,-33.691,-30.762,-267.578,0.000
1606136026.511,-8.789,-31.738,-29.785,31.738,0.000
1606136026.515,46.875,-25.879,-22.461,230.469,0.000
1606136026.519,-19.043,-25.391,-24.414,57.617,0.000
1606136026.523,-110.840,-30.762,-30.273,-251.953,0.000
1606136026.527,-117.676,-36.133,-38.574,-294.922,0.000
1606136026.531,-27.344,-30.762,-37.598,7.324,0.000
1606136026.535,37.598,-22.461,-22.949,243.164,0.000
1606136026.539,-11.719,-30.273,-23.926,109.863,0.000
1606136026.543,-105.469,-37.109,-29.785,-204.102,0.000
1606136026.547,-124.023,-34.180,-35.645,-291.016,0.000
1606136026.550,-46.875,-28.809,-39.062,-32.227,0.000
1606136026.554,23.926,-29.297,-30.273,208.984,0.000
1606136026.558,-4.883,-36.621,-32.715,113.770,0.000
1606136026.562,-94.238,-36.621,-39.062,-186.035,0.000
1606136026.566,-115.234,-27.344,-37.598,-302.246,0.000
1606136026.570,-28.320,-22.949,-30.273,-67.871,0.000
1606136026.574,57.129,-19.043,-18.555,214.355,0.000
1606136026.578,38.086,-20.020,-17.578,174.805,0.000
1606136026.582,-57.617,-24.414,-30.273,-145.508,0.000
1606136026.586,-97.168,-26.855,-30.273,-297.363,0.000
1606136026.589,-29.785,-23.926,-20.996,-88.379,0.000
1606136026.593,49.805,-16.113,-29.785,190.430,0.000
1606136026.597,41.016,-16.602,-35.156,208.008,0.000
1606136026.601,-46.875,-26.367,-35.156,-83.984,0.000
1606136026.605,-104.980,-21.484,-37.109,-290.527,0.000
1606136026.609,-57.617,-16.602,-38.574,-142.578,0.000
1606136026.613,34.180,-27.344,-33.691,149.902,0.000
1606136026.617,39.551,-29.297,-31.250,213.867,0.000
1606136026.621,-48.828,-32.227,-32.227,-56.641,0.000
1606136026.625,-112.305,-37.598,-30.762,-284.180,0.000
1606136026.629,-71.289,-34.668,-30.762,-169.922,0.000
1606136026.632,19.531,-29.297,-28.809,136.230,0.000
1606136026.636,34.668,-24.902,-28.320,220.215,0.000
1606136026.640,-46.387,-24.902,-33.203,-40.039,0.000
1606136026.644,-114.258,-28.809,-44.922,-286.133,0.000
1606136026.648,-90.332,-30.273,-41.992,-225.098,0.000
1606136026.652,0.000,-29.785,-35.645,71.777,0.000
1606136026.656,37.109,-31.738,-39.062,206.055,0.000
1606136026.660,-38.086,-36.621,-35.156,-6.348,0.000
1606136026.664,-116.699,-38.086,-34.180,-270.508,0.000
1606136026.668,-101.562,-41.504,-31.250,-244.629,0.000
1606136026.672,-13.184,-38.086,-26.855,59.570,0.000
1606136026.675,39.551,-30.273,-32.227,235.840,0.000
1606136026.679,-8.789,-34.668,-36.133,55.176,0.000
1606136026.683,-95.703,-40.527,-36.133,-238.281,0.000
1606136026.687,-99.121,-41.504,-32.227,-254.883,0.000
1606136026.691,-5.859,-34.668,-25.391,51.270,0.000
1606136026.695,45.898,-25.879,-20.508,248.535,0.000
1606136026.699,-6.836,-34.668,-26.855,89.355,0.000
1606136026.703,-103.027,-39.062,-41.504,-208.496,0.000
1606136026.707,-116.699,-27.344,-35.645,-273.438,0.000
1606136026.711,-30.273,-27.832,-24.414,-11.719,0.000
1606136026.714,34.668,-32.715,-22.949,219.727,0.000
1606136026.718,-0.977,-33.203,-25.391,125.977,0.000
1606136026.722,-87.891,-29.785,-30.273,-167.969,0.000
1606136026.726,-100.098,-28.320,-27.832,-261.230,0.000
1606136026.730,-21.973,-28.809,-23.926,-27.832,0.000
1606136026.734,37.598,-26.855,-25.879,226.562,0.000
1606136026.738,13.184,-26.855,-25.879,179.688,0.000
1606136026.742,-70.801,-33.203,-26.367,-132.812,0.000
1606136026.746,-112.305,-26.855,-36.133,-284.180,0.000
1606136026.750,-52.246,-27.344,-30.762,-82.031,0.000
1606136026.754,24.414,-29.297,-18.555,192.383,0.000
1606136026.757,15.137,-21.484,-16.602,186.035,0.000
1606136026.761,-75.195,-31.738,-20.996,-111.816,0.000
1606136026.765,-136.230,-45.898,-33.203,-296.875,0.000
1606136026.769,-84.473,-40.039,-33.203,-134.277,0.000
1606136026.773,11.230,-29.297,-22.461,158.203,0.000
1606136026.777,15.137,-27.344,-27.344,196.777,0.000
1606136026.781,-71.777,-32.715,-41.992,-78.125,0.000
1606136026.785,-120.605,-22.949,-32.227,-273.926,0.000
1606136026.789,-59.082,-6.348,-23.438,-134.766,0.000
1606136026.793,42.969,-13.184,-31.250,162.598,0.000
1606136026.797,62.988,-19.531,-31.250,228.027,0.000
1606136026.800,-12.695,-22.461,-33.203,-36.621,0.000
1606136026.804,-64.453,-19.531,-38.574,-263.672,0.000
1606136026.808,-26.367,-22.461,-38.574,-168.945,0.000
1606136026.812,56.152,-23.926,-27.832,132.812,0.000
1606136026.816,81.543,-19.531,-24.414,249.512,0.000
1606136026.820,3.418,-20.996,-25.879,24.902,0.000
1606136026.824,-78.125,-24.414,-28.320,-237.793,0.000
1606136026.828,-59.082,-26.367,-30.762,-201.660,0.000
1606136026.832,29.297,-23.438,-31.250,91.797,0.000
1606136026.836,52.734,-20.508,-32.227,223.145,0.000
1606136026.839,-11.719,-24.902,-28.320,22.949,0.000
1606136026.843,-83.984,-21.973,-31.738,-246.094,0.000
1606136026.847,-82.031,-14.160,-40.527,-245.605,0.000
1606136026.851,5.859,-15.137,-31.738,53.223,0.000
1606136026.855,59.082,-16.602,-18.555,237.793,0.000
1606136026.859,0.977,-23.438,-21.484,71.777,0.000
1606136026.863,-87.891,-32.227,-31.250,-218.750,0.000
1606136026.867,-98.145,-42.480,-38.086,-274.902,0.000
1606136026.871,-19.531,-47.852,-45.410,-4.883,0.000
1606136026.875,39.062,-32.227,-41.504,213.379,0.000
1606136026.879,-4.883,-23.926,-34.180,106.445,0.000
1606136026.882,-102.539,-37.598,-37.598,-191.895,0.000
1606136026.886,-133.789,-31.250,-43.945,-294.922,0.000
1606136026.890,-57.617,-23.438,-32.715,-46.387,0.000
1606136026.894,17.578,-26.855,-16.113,196.289,0.000
1606136026.898,-8.789,-33.691,-14.160,124.512,0.000
1606136026.902,-94.238,-42.480,-18.555,-166.016,0.000
1606136026.906,-126.953,-41.504,-21.973,-288.574,0.000
1606136026.910,-60.059,-31.738,-19.531,-61.035,0.000
1606136026.914,18.555,-28.320,-17.578,204.102,0.000
1606136026.918,2.441,-36.133,-17.090,165.527,0.000
1606136026.922,-80.566,-39.551,-16.602,-127.441,0.000
1606136026.925,-112.793,-33.203,-31.250,-277.832,0.000
1606136026.929,-53.711,-34.180,-32.715,-99.121,0.000
1606136026.933,31.250,-38.086,-18.066,164.551,0.000
1606136026.937,33.203,-37.598,-19.043,179.199,0.000
1606136026.941,-52.734,-39.062,-25.391,-98.633,0.000
1606136026.945,-102.539,-38.086,-31.738,-284.180,0.000
1606136026.949,-56.641,-33.691,-29.785,-134.277,0.000
1606136026.953,35.645,-28.809,-16.113,155.762,0.000
1606136026.957,50.293,-25.879,-20.508,209.473,0.000
1606136026.961,-28.809,-20.020,-30.273,-57.129,0.000
1606136026.964,-91.309,-25.391,-33.691,-277.832,0.000
1606136026.968,-60.059,-35.645,-33.203,-183.594,0.000
1606136026.972,31.738,-30.273,-22.949,128.906,0.000
1606136026.976,55.176,-28.320,-22.949,236.328,0.000
1606136026.980,-27.832,-35.645,-27.344,-15.625,0.000
1606136026.984,-104.980,-40.527,-34.180,-262.695,0.000
1606136026.988,-79.102,-34.180,-38.574,-190.430,0.000
1606136026.992,16.602,-28.809,-29.785,109.375,0.000
1606136026.996,47.852,-31.250,-20.508,243.652,0.000
1606136027.000,-19.531,-32.227,-21.973,36.133,0.000
1606136027.004,-92.285,-32.227,-33.203,-235.840,0.000
1606136027.007,-80.566,-35.156,-35.156,-230.469,0.000
1606136027.011,-0.977,-28.809,-31.250,60.547,0.000
1606136027.015,41.016,-25.879,-34.668,235.352,0.000
1606136027.019,-10.254,-24.414,-39.062,70.801,0.000
1606136027.023,-92.285,-22.461,-41.016,-210.938,0.000
1606136027.027,-98.633,-27.344,-40.039,-240.723,0.000
1606136027.031,-10.742,-24.414,-28.809,50.781,0.000
1606136027.035,48.828,-20.508,-23.926,238.770,0.000
1606136027.039,1.465,-20.996,-28.320,86.426,0.000
1606136027.043,-87.891,-25.391,-35.156,-204.102,0.000
1606136027.047,-103.516,-27.344,-37.598,-284.180,0.000
1606136027.050,-17.090,-20.508,-29.297,-22.949,0.000
1606136027.054,49.316,-20.996,-21.973,210.449,0.000
1606136027.058,9.277,-28.809,-28.320,120.605,0.000
1606136027.062,-84.473,-29.785,-38.574,-171.875,0.000
1606136027.066,-109.375,-6.836,-41.992,-271.484,0.000
1606136027.070,-35.156,-18.066,-33.691,-40.527,0.000
1606136027.074,33.691,-37.109,-30.273,187.988,0.000
1606136027.078,19.043,-32.227,-29.297,144.531,0.000
1606136027.082,-64.453,-39.551,-27.832,-148.438,0.000
1606136027.086,-104.980,-41.504,-23.926,-306.641,0.000
1606136027.089,-31.738,-27.832,-19.531,-85.449,0.000
1606136027.093,56.152,-23.438,-19.531,198.242,0.000
1606136027.097,44.922,-25.391,-23.926,197.754,0.000
1606136027.101,-52.734,-32.715,-34.180,-101.074,0.000
1606136027.105,-104.492,-37.109,-32.227,-296.875,0.000
1606136027.109,-38.574,-25.879,-22.949,-115.723,0.000
1606136027.113,50.781,-19.043,-18.555,188.965,0.000
1606136027.117,48.340,-23.926,-27.832,213.379,0.000
1606136027.121,-44.922,-33.691,-31.738,-88.867,0.000
1606136027.125,-104.980,-30.273,-28.809,-307.129,0.000
1606136027.129,-54.199,-21.973,-23.438,-170.898,0.000
1606136027.132,38.574,-25.391,-14.648,142.578,0.000
1606136027.136,59.570,-23.926,-18.555,236.328,0.000
1606136027.140,-31.738,-29.785,-31.250,-42.969,0.000
1606136027.144,-101.074,-31.250,-30.762,-294.922,0.000
1606136027.148,-64.453,-29.297,-24.902,-199.707,0.000
1606136027.152,29.785,-26.855,-24.414,123.047,0.000
1606136027.156,65.430,-23.438,-27.344,251.465,0.000
1606136027.160,-9.277,-29.785,-28.320,8.301,0.000
1606136027.164,-96.191,-30.273,-27.832,-273.438,0.000
1606136027.168,-90.820,-16.602,-28.809,-244.141,0.000
1606136027.172,1.465,-20.508,-32.715,73.242,0.000
1606136027.175,54.199,-23.438,-24.902,249.023,0.000
1606136027.179,-11.230,-29.785,-19.043,48.828,0.000
1606136027.183,-110.352,-41.016,-30.762,-250.488,0.000
1606136027.187,-111.816,-38.574,-33.691,-266.113,0.000
1606136027.191,-6.836,-32.227,-25.879,47.852,0.000
1606136027.195,61.035,-25.879,-21.973,261.230,0.000
1606136027.199,3.418,-27.344,-25.879,92.285,0.000
1606136027.203,-91.309,-29.297,-25.879,-224.609,0.000
1606136027.207,-102.051,-30.762,-32.227,-286.621,0.000
1606136027.211,-13.672,-32.715,-29.297,-3.906,0.000
1606136027.214,50.781,-29.785,-23.926,233.398,0.000
1606136027.218,2.441,-33.203,-39.551,105.957,0.000
1606136027.222,-103.027,-40.039,-44.922,-214.844,0.000
1606136027.226,-130.859,-39.062,-43.457,-307.617,0.000
1606136027.230,-46.387,-31.738,-40.039,-38.086,0.000
1606136027.234,21.973,-30.273,-33.203,223.145,0.000
1606136027.238,-7.812,-38.086,-31.250,142.578,0.000
1606136027.242,-101.074,-50.781,-37.598,-192.871,0.000
1606136027.246,-135.742,-46.387,-42.969,-335.938,0.000
1606136027.250,-57.129,-33.691,-33.203,-84.961,0.000
1606136027.254,31.250,-33.203,-25.391,210.449,0.000
1606136027.257,15.137,-35.156,-35.156,175.293,0.000
1606136027.261,-83.008,-42.480,-39.551,-148.926,0.000
1606136027.265,-123.047,-38.086,-29.785,-325.195,0.000
1606136027.269,-53.711,-27.344,-23.926,-125.488,0.000
1606136027.273,41.992,-35.645,-26.367,180.176,0.000
1606136027.277,54.199,-35.156,-24.414,210.938,0.000
1606136027.281,-38.086,-31.738,-27.832,-94.238,0.000
1606136027.285,-93.750,-33.691,-34.180,-298.340,0.000
1606136027.289,-33.203,-30.273,-20.996,-131.836,0.000
1606136027.293,62.012,-25.391,-17.090,188.477,0.000
1606136027.297,69.824,-23.438,-24.902,264.648,0.000
1606136027.300,-29.297,-31.250,-27.832,-24.902,0.000
1606136027.304,-111.816,-35.645,-26.855,-280.762,0.000
1606136027.308,-75.195,-29.785,-22.461,-175.781,0.000
1606136027.312,25.879,-30.762,-20.508,148.926,0.000
1606136027.316,55.176,-28.809,-19.531,262.695,0.000
1606136027.320,-28.809,-31.738,-26.855,-3.418,0.000
1606136027.324,-105.957,-38.086,-27.344,-279.785,0.000
1606136027.328,-75.195,-35.645,-20.020,-228.027,0.000
1606136027.332,19.531,-26.367,-23.926,77.148,0.000
1606136027.336,54.688,-21.973,-32.227,233.398,0.000
1606136027.339,-21.973,-27.344,-35.645,18.555,0.000
1606136027.343,-107.422,-42.969,-32.715,-267.090,0.000
1606136027.347,-84.473,-43.457,-27.832,-238.770,0.000
1606136027.351,18.555,-27.832,-20.020,81.543,0.000
1606136027.355,67.383,-26.367,-15.625,264.160,0.000
1606136027.359,-3.906,-33.203,-24.414,73.242,0.000
1606136027.363,-100.586,-38.086,-20.020,-235.840,0.000
1606136027.367,-94.727,-35.645,-18.066,-270.996,0.000
1606136027.371,3.418,-25.879,-26.367,25.879,0.000
1606136027.375,59.570,-24.414,-23.926,240.723,0.000
1606136027.379,1.953,-36.133,-24.902,89.355,0.000
1606136027.382,-95.703,-43.945,-31.250,-236.816,0.000
1606136027.386,-101.562,-42.480,-35.645,-306.152,0.000
1606136027.390,-6.836,-33.203,-32.227,-16.602,0.000
1606136027.394,56.152,-21.973,-23.926,234.375,0.000
1606136027.398,16.602,-21.484,-23.438,138.184,0.000
1606136027.402,-75.684,-27.832,-31.738,-190.430,0.000
1606136027.406,-108.887,-37.598,-35.645,-316.895,0.000
1606136027.410,-28.320,-28.809,-20.996,-64.941,0.000
1606136027.414,52.246,-22.949,-14.160,209.961,0.000
1606136027.418,27.344,-26.855,-26.855,170.410,0.000
1606136027.422,-72.266,-29.785,-31.738,-140.625,0.000
1606136027.425,-112.305,-35.645,-29.785,-301.758,0.000
1606136027.429,-39.062,-34.180,-22.949,-82.031,0.000
1606136027.433,49.805,-30.762,-17.090,217.773,0.000
1606136027.437,41.016,-25.879,-16.113,220.703,0.000
1606136027.441,-56.152,-30.762,-22.949,-89.844,0.000
1606136027.445,-113.770,-31.738,-32.715,-307.129,0.000
1606136027.449,-53.711,-23.926,-26.855,-155.762,0.000
1606136027.453,46.387,-26.367,-19.043,169.922,0.000
1606136027.457,57.617,-21.484,-21.973,226.074,0.000
1606136027.461,-35.645,-28.320,-28.809,-74.707,0.000
1606136027.464,-104.980,-31.738,-23.438,-301.270,0.000
1606136027.468,-63.965,-25.391,-17.578,-174.805,0.000
1606136027.472,30.762,-23.438,-14.160,150.879,0.000
1606136027.476,51.270,-19.531,-15.137,244.141,0.000
1606136027.480,-42.969,-29.785,-21.973,-32.715,0.000
1606136027.484,-113.770,-45.898,-27.832,-280.762,0.000
1606136027.488,-72.266,-43.945,-31.738,-202.637,0.000
1606136027.492,25.879,-34.180,-30.273,108.887,0.000
1606136027.496,59.570,-32.227,-29.785,240.234,0.000
1606136027.500,-16.602,-27.344,-14.648,2.441,0.000
1606136027.504,-104.492,-27.344,-10.742,-266.602,0.000
1606136027.507,-88.379,-37.598,-19.531,-242.188,0.000
1606136027.511,11.230,-35.156,-16.602,72.754,0.000
1606136027.515,54.199,-26.367,-17.578,248.047,0.000
1606136027.519,-13.672,-27.832,-20.508,57.617,0.000
1606136027.523,-99.609,-41.992,-23.926,-228.516,0.000
1606136027.527,-95.703,-48.828,-23.926,-245.605,0.000
1606136027.531,-2.930,-42.969,-25.879,62.500,0.000
1606136027.535,56.152,-31.250,-15.625,274.902,0.000
1606136027.539,-3.906,-35.645,-15.137,108.887,0.000
1606136027.543,-100.586,-45.410,-26.367,-212.402,0.000
1606136027.547,-115.723,-41.992,-27.832,-280.273,0.000
1606136027.550,-27.344,-35.156,-22.949,-0.488,0.000
1606136027.554,41.992,-27.832,-21.484,231.934,0.000
1606136027.558,-3.906,-27.832,-20.020,119.629,0.000
1606136027.562,-95.215,-30.762,-26.367,-185.547,0.000
1606136027.566,-121.094,-32.227,-32.227,-291.504,0.000
1606136027.570,-41.016,-29.297,-29.785,-31.738,0.000
1606136027.574,42.480,-25.879,-29.297,239.746,0.000
1606136027.578,14.648,-27.344,-30.762,174.805,0.000
1606136027.582,-77.637,-27.832,-27.832,-138.184,0.000
1606136027.586,-114.258,-26.367,-29.785,-298.340,0.000
1606136027.589,-41.016,-24.414,-27.344,-90.820,0.000
1606136027.593,44.434,-19.043,-22.461,195.801,0.000
1606136027.597,33.691,-22.949,-25.391,182.617,0.000
1606136027.601,-64.453,-32.715,-29.297,-129.395,0.000
1606136027.605,-116.699,-31.250,-32.227,-309.082,0.000
1606136027.609,-51.270,-23.438,-31.738,-121.094,0.000
1606136027.613,35.156,-19.043,-30.273,178.223,0.000
1606136027.617,29.785,-28.809,-26.367,205.078,0.000
1606136027.621,-64.941,-38.574,-23.438,-89.844,0.000
1606136027.625,-122.559,-38.574,-24.902,-301.270,0.000
1606136027.629,-71.289,-27.832,-26.367,-151.367,0.000
1606136027.632,21.973,-25.391,-24.902,155.762,0.000
1606136027.636,37.598,-28.320,-20.020,214.355,0.000
1606136027.640,-52.734,-31.250,-22.949,-67.383,0.000
1606136027.644,-120.605,-31.738,-37.109,-307.129,0.000
1606136027.648,-87.402,-34.180,-46.387,-210.938,0.000
1606136027.652,2.930,-34.180,-41.504,104.004,0.000
1606136027.656,30.762,-27.344,-32.227,231.934,0.000
1606136027.660,-42.969,-31.250,-29.297,-3.418,0.000
1606136027.664,-118.164,-38.086,-33.691,-260.254,0.000
1606136027.668,-93.262,-34.668,-31.250,-210.449,0.000
1606136027.672,13.184,-27.832,-23.926,101.562,0.000
1606136027.675,52.734,-24.414,-25.391,261.719,0.000
1606136027.679,-21.484,-34.180,-28.809,49.805,0.000
1606136027.683,-106.445,-33.203,-26.367,-238.281,0.000
1606136027.687,-102.051,-25.879,-28.809,-241.699,0.000
1606136027.691,-8.789,-27.832,-25.879,62.500,0.000
1606136027.695,32.715,-34.180,-24.902,244.629,0.000
1606136027.699,-29.297,-42.969,-29.785,64.453,0.000
1606136027.703,-110.840,-40.527,-24.414,-232.422,0.000
1606136027.707,-113.281,-37.598,-18.555,-270.996,0.000
1606136027.711,-31.738,-38.574,-21.973,17.090,0.000
1606136027.714,17.578,-41.016,-21.484,236.816,0.000
1606136027.718,-17.090,-40.039,-15.625,125.000,0.000
1606136027.722,-99.121,-28.809,-21.973,-182.617,0.000
1606136027.726,-134.766,-11.230,-31.250,-291.992,0.000
1606136027.730,-52.734,-13.672,-32.715,-48.828,0.000
1606136027.734,27.832,-28.320,-28.320,189.453,0.000
1606136027.738,4.883,-25.879,-23.438,125.977,0.000
1606136027.742,-84.961,-24.902,-30.762,-185.059,0.000
1606136027.746,-114.746,-23.438,-35.645,-313.477,0.000
1606136027.750,-38.086,-20.020,-32.715,-78.125,0.000
1606136027.754,48.340,-11.719,-27.832,187.988,0.000
1606136027.757,26.855,-9.766,-35.645,147.461,0.000
1606136027.761,-77.148,-16.113,-47.852,-170.898,0.000
1606136027.765,-100.586,-9.277,-47.852,-308.594,0.000
1606136027.769,-21.973,-6.348,-49.316,-102.051,0.000
1606136027.773,59.082,-10.742,-46.387,187.988,0.000
1606136027.777,55.176,-11.719,-47.852,204.102,0.000
1606136027.781,-29.297,-13.672,-58.105,-91.797,0.000
1606136027.785,-68.359,-19.531,-61.035,-270.020,0.000
1606136027.789,-0.977,-15.137,-60.059,-106.934,0.000
1606136027.793,99.609,-5.371,-60.547,194.336,0.000
1606136027.797,119.629,-6.348,-60.547,270.508,0.000
1606136027.800,43.945,-13.672,-55.664,13.672,0.000
1606136027.804,-20.508,-16.113,-53.711,-208.984,0.000
1606136027.808,11.719,-10.742,-54.199,-103.516,0.000
1606136027.812,109.863,-3.418,-53.223,209.473,0.000
1606136027.816,155.762,3.418,-51.270,326.660,0.000
1606136027.820,78.613,-5.371,-46.387,81.055,0.000
1606136027.824,-1.953,-14.160,-44.922,-181.152,0.000
1606136027.828,27.344,-9.766,-47.852,-121.582,0.000
1606136027.832,134.277,-9.277,-41.504,205.566,0.000
1606136027.836,173.340,-11.719,-37.109,352.539,0.000
1606136027.839,92.285,-16.602,-42.969,123.535,0.000
1606136027.843,11.230,-16.602,-43.945,-141.602,0.000
1606136027.847,24.902,-15.137,-38.574,-116.699,0.000
1606136027.851,117.676,-17.090,-34.668,187.500,0.000
1606136027.855,169.922,-13.184,-33.203,362.793,0.000
1606136027.859,112.793,-12.207,-34.668,177.734,0.000
1606136027.863,24.414,-22.949,-34.668,-115.723,0.000
1606136027.867,29.297,-21.973,-30.762,-145.996,0.000
1606136027.871,120.605,-12.207,-23.926,144.531,0.000
1606136027.875,169.922,-12.695,-23.926,349.121,0.000
1606136027.879,124.512,-13.184,-26.367,211.914,0.000
1606136027.882,24.414,-17.578,-30.762,-94.238,0.000
1606136027.886,-1.465,-22.461,-37.109,-176.758,0.000
1606136027.890,87.402,-18.066,-33.691,85.938,0.000
1606136027.894,151.855,-17.090,-27.832,323.730,0.000
1606136027.898,102.539,-21.973,-26.367,227.539,0.000
1606136027.902,5.371,-24.902,-28.809,-80.078,0.000
1606136027.906,-27.832,-20.508,-32.227,-197.754,0.000
1606136027.910,43.945,-15.625,-22.949,40.039,0.000
1606136027.914,118.164,-17.578,-20.996,291.992,0.000
1606136027.918,88.867,-26.855,-22.461,232.422,0.000
1606136027.922,-11.230,-34.180,-25.879,-81.543,0.000
1606136027.925,-51.758,-26.855,-25.391,-232.422,0.000
1606136027.929,22.461,-20.508,-17.578,-11.719,0.000
1606136027.933,111.816,-22.461,-15.625,271.973,0.000
1606136027.937,93.750,-23.438,-16.602,252.930,0.000
1606136027.941,-10.254,-23.438,-18.066,-57.129,0.000
1606136027.945,-67.871,-31.250,-27.344,-250.488,0.000
1606136027.949,-20.508,-38.574,-37.109,-101.074,0.000
1606136027.953,69.336,-29.297,-29.785,203.613,0.000
1606136027.957,82.031,-24.414,-21.484,265.137,0.000
1606136027.961,-11.230,-30.762,-27.344,-27.344,0.000
1606136027.964,-79.590,-39.551,-32.227,-254.395,0.000
1606136027.968,-40.039,-43.945,-29.785,-135.742,0.000
1606136027.972,54.199,-37.109,-23.926,174.805,0.000
1606136027.976,73.730,-31.738,-18.555,268.555,0.000
1606136027.980,-14.160,-32.715,-16.602,0.000,0.000
1606136027.984,-82.520,-38.574,-16.602,-246.582,0.000
1606136027.988,-51.270,-37.109,-20.996,-165.039,0.000
1606136027.992,47.363,-25.391,-21.484,143.066,0.000
1606136027.996,75.684,-26.367,-23.926,261.230,0.000
1606136028.000,-3.418,-36.621,-29.297,17.578,0.000
1606136028.004,-79.102,-33.203,-32.227,-241.211,0.000
1606136028.007,-62.500,-28.320,-30.762,-208.008,0.000
1606136028.011,24.902,-32.227,-23.438,80.078,0.000
1606136028.015,63.965,-29.785,-16.602,235.840,0.000
1606136028.019,-0.488,-31.738,-16.602,45.898,0.000
1606136028.023,-86.914,-37.109,-19.043,-229.492,0.000
1606136028.027,-82.031,-37.109,-20.020,-242.676,0.000
1606136028.031,11.719,-28.320,-19.531,57.129,0.000
1606136028.035,68.359,-20.996,-20.996,263.184,0.000
1606136028.039,13.184,-27.344,-24.414,112.793,0.000
1606136028.043,-75.195,-32.227,-29.785,-178.223,0.000
1606136028.047,-84.473,-29.785,-27.832,-224.121,0.000
1606136028.050,-1.953,-26.855,-21.484,48.340,0.000
1606136028.054,60.059,-24.414,-21.484,257.324,0.000
1606136028.058,14.160,-23.438,-24.902,139.648,0.000
1606136028.062,-82.520,-23.926,-25.391,-172.363,0.000
1606136028.066,-105.957,-17.578,-23.926,-262.695,0.000
1606136028.070,-22.461,-21.973,-24.414,-10.254,0.000
1606136028.074,55.176,-22.461,-23.926,223.633,0.000
1606136028.078,22.461,-21.973,-28.320,152.832,0.000
1606136028.082,-74.707,-26.855,-28.809,-144.043,0.000
1606136028.086,-107.910,-23.926,-24.902,-271.973,0.000
1606136028.089,-33.203,-23.926,-23.438,-54.199,0.000
1606136028.093,52.246,-20.508,-20.508,213.379,0.000
1606136028.097,40.039,-17.090,-20.508,199.707,0.000
1606136028.101,-60.547,-25.391,-25.879,-105.469,0.000
1606136028.105,-105.957,-28.809,-25.391,-282.715,0.000
1606136028.109,-36.133,-23.926,-13.672,-98.633,0.000
1606136028.113,47.852,-24.902,-11.230,189.453,0.000
1606136028.117,42.969,-26.855,-16.113,218.262,0.000
1606136028.121,-50.293,-26.367,-18.555,-69.336,0.000
1606136028.125,-111.328,-35.156,-22.461,-270.508,0.000
1606136028.129,-55.664,-34.180,-23.438,-122.559,0.000
1606136028.132,37.109,-19.531,-21.484,171.875,0.000
1606136028.136,53.223,-17.090,-25.391,237.793,0.000
1606136028.140,-30.273,-24.414,-28.320,-32.227,0.000
1606136028.144,-99.121,-24.414,-32.227,-263.184,0.000
1606136028.148,-67.871,-23.926,-30.762,-177.246,0.000
1606136028.152,26.855,-20.508,-22.949,122.070,0.000
1606136028.156,47.852,-21.484,-22.949,229.004,0.000
1606136028.160,-41.504,-29.785,-27.344,-15.625,0.000
1606136028.164,-115.723,-31.738,-32.715,-268.066,0.000
1606136028.168,-98.633,-30.273,-30.273,-223.145,0.000
1606136028.172,-12.207,-26.855,-24.414,79.590,0.000
1606136028.175,23.438,-27.344,-24.414,225.098,0.000
1606136028.179,-43.945,-28.809,-26.367,12.207,0.000
1606136028.183,-114.746,-30.762,-28.809,-257.324,0.000
1606136028.187,-98.145,-33.203,-29.297,-237.793,0.000
1606136028.191,2.441,-26.855,-28.320,73.242,0.000
1606136028.195,54.688,-19.043,-24.902,254.395,0.000
1606136028.199,-12.207,-26.855,-24.902,72.266,0.000
1606136028.203,-104.980,-34.668,-32.227,-223.633,0.000
1606136028.207,-100.586,-36.621,-34.668,-254.883,0.000
1606136028.211,-10.254,-37.109,-29.297,17.090,0.000
1606136028.214,52.246,-24.902,-20.996,222.656,0.000
1606136028.218,9.277,-23.926,-20.020,99.121,0.000
1606136028.222,-88.867,-30.762,-33.203,-200.195,0.000
1606136028.226,-108.887,-21.484,-40.039,-285.156,0.000
1606136028.230,-25.879,-26.855,-33.203,-27.832,0.000
1606136028.234,41.992,-30.762,-28.320,212.402,0.000
1606136028.238,11.719,-25.391,-29.297,128.906,0.000
1606136028.242,-79.590,-33.691,-33.203,-177.734,0.000
1606136028.246,-108.887,-26.367,-36.621,-293.457,0.000
1606136028.250,-29.785,-16.113,-34.668,-58.105,0.000
1606136028.254,49.805,-15.137,-29.297,199.219,0.000
1606136028.257,29.785,-19.531,-26.367,161.621,0.000
1606136028.261,-67.383,-26.855,-30.762,-135.254,0.000
1606136028.265,-110.352,-29.785,-38.086,-290.039,0.000
1606136028.269,-41.992,-22.461,-31.738,-92.773,0.000
1606136028.273,39.062,-13.672,-29.297,184.570,0.000
1606136028.277,33.203,-15.137,-29.785,186.035,0.000
1606136028.281,-53.223,-23.438,-30.762,-99.609,0.000
1606136028.285,-108.398,-11.719,-36.133,-275.879,0.000
1606136028.289,-59.082,-0.977,-37.109,-119.141,0.000
1606136028.293,24.414,-22.461,-27.344,165.527,0.000
1606136028.297,28.809,-30.273,-23.926,214.355,0.000
1606136028.300,-58.594,-36.133,-36.133,-63.965,0.000
1606136028.304,-122.559,-44.922,-40.039,-291.504,0.000
1606136028.308,-82.031,-45.410,-37.109,-179.199,0.000
1606136028.312,11.230,-37.109,-29.297,118.164,0.000
1606136028.316,26.855,-34.180,-25.879,213.867,0.000
1606136028.320,-53.223,-37.598,-23.438,-26.367,0.000
1606136028.324,-119.141,-37.598,-23.926,-269.043,0.000
1606136028.328,-86.426,-36.133,-34.180,-206.543,0.000
1606136028.332,14.648,-28.320,-34.180,95.703,0.000
1606136028.336,45.410,-25.879,-32.227,214.844,0.000
1606136028.339,-31.250,-36.133,-30.762,-9.766,0.000
1606136028.343,-102.051,-27.832,-28.809,-252.930,0.000
1606136028.347,-86.914,-16.113,-28.320,-223.145,0.000
1606136028.351,-1.953,-30.273,-27.832,53.223,0.000
1606136028.355,39.551,-35.645,-31.738,203.125,0.000
1606136028.359,-20.996,-34.180,-39.551,17.090,0.000
1606136028.363,-98.145,-32.715,-39.062,-246.582,0.000
1606136028.367,-94.238,-33.203,-36.621,-257.324,0.000
1606136028.371,-5.859,-30.762,-32.715,29.785,0.000
1606136028.375,54.688,-16.602,-22.461,247.070,0.000
1606136028.379,7.324,-15.137,-22.949,114.746,0.000
1606136028.382,-84.473,-25.879,-39.551,-192.871,0.000
1606136028.386,-96.680,-18.066,-43.945,-276.367,0.000
1606136028.390,-15.625,-20.020,-30.762,-16.602,0.000
1606136028.394,39.551,-27.832,-31.250,206.055,0.000
1606136028.398,4.395,-31.738,-36.133,116.211,0.000
1606136028.402,-83.984,-39.551,-26.367,-164.551,0.000
1606136028.406,-126.465,-40.527,-17.090,-285.645,0.000
1606136028.410,-82.031,-37.109,-26.367,-84.961,0.000
1606136028.414,-30.762,-38.574,-22.949,135.742,0.000
1606136028.418,-75.195,-36.133,-7.812,63.477,0.000
1606136028.422,-186.035,-39.062,-0.488,-245.117,0.000
1606136028.425,-225.098,-54.688,-4.883,-388.672,0.000
1606136028.429,-165.527,-53.711,-14.160,-199.219,0.000
1606136028.433,-103.027,-50.781,-23.438,43.945,0.000
1606136028.437,-122.559,-55.176,-9.277,28.809,0.000
1606136028.441,-225.586,-53.223,20.508,-262.695,0.000
1606136028.445,-271.973,-57.617,17.578,-431.641,0.000
1606136028.449,-215.332,-54.199,4.883,-270.020,0.000
1606136028.453,-155.762,-37.598,-9.766,-20.996,0.000
1606136028.457,-139.160,-39.551,-47.852,28.809,0.000
1606136028.461,-219.727,-68.359,-61.035,-237.305,0.000
1606136028.464,-308.105,-85.449,-14.160,-474.121,0.000
1606136028.468,-261.719,-61.035,27.344,-337.891,0.000
1606136028.472,-153.320,-49.316,22.949,-19.531,0.000
1606136028.476,-135.254,-55.176,9.766,53.711,0.000
1606136028.480,-211.914,-61.035,7.324,-197.266,0.000
1606136028.484,-272.461,-55.176,-3.418,-422.363,0.000
1606136028.488,-231.445,-34.668,-12.207,-322.266,0.000
1606136028.492,-107.422,-41.504,-10.254,11.230,0.000
1606136028.496,-65.430,-51.270,-5.371,127.930,0.000
1606136028.500,-126.953,-52.734,-11.230,-99.609,0.000
1606136028.504,-175.293,-52.734,-21.484,-320.801,0.000
1606136028.507,-139.160,-47.852,-20.020,-250.488,0.000
1606136028.511,-42.480,-48.828,-20.996,42.480,0.000
1606136028.515,11.230,-45.410,-21.484,196.777,0.000
1606136028.519,-41.504,-50.293,-25.879,9.277,0.000
1606136028.523,-111.816,-41.992,-28.320,-265.625,0.000
1606136028.527,-95.703,-27.344,-26.855,-264.160,0.000
1606136028.531,-8.301,-38.574,-20.020,21.973,0.000
1606136028.535,46.875,-38.574,-14.160,211.426,0.000
1606136028.539,-2.930,-38.574,-23.438,59.082,0.000
1606136028.543,-91.797,-43.945,-31.738,-228.516,0.000
1606136028.547,-96.680,-41.992,-23.926,-269.043,0.000
1606136028.550,6.348,-35.645,-14.160,17.578,0.000
1606136028.554,73.730,-31.738,-11.719,237.305,0.000
1606136028.558,20.020,-39.062,-16.602,112.793,0.000
1606136028.562,-69.336,-41.992,-21.484,-181.152,0.000
1606136028.566,-83.008,-29.785,-19.531,-262.695,0.000
1606136028.570,-1.953,-34.180,-13.672,-19.043,0.000
1606136028.574,63.477,-41.504,-10.742,214.355,0.000
1606136028.578,35.156,-38.574,-7.812,142.090,0.000
1606136028.582,-58.594,-44.434,-13.184,-156.250,0.000
1606136028.586,-98.633,-38.574,-20.508,-280.762,0.000
1606136028.589,-26.367,-40.039,-17.090,-54.688,0.000
1606136028.593,49.316,-41.992,-14.160,199.707,0.000
1606136028.597,22.949,-41.504,-18.066,166.016,0.000
1606136028.601,-70.312,-48.828,-23.438,-119.629,0.000
1606136028.605,-112.793,-50.781,-28.809,-277.832,0.000
1606136028.609,-54.199,-49.316,-22.461,-99.121,0.000
1606136028.613,25.879,-43.945,-14.648,173.340,0.000
1606136028.617,19.531,-42.969,-20.996,175.293,0.000
1606136028.621,-66.406,-53.711,-29.785,-120.117,0.000
1606136028.625,-121.094,-35.156,-36.621,-312.012,0.000
1606136028.629,-70.801,-25.879,-33.203,-160.645,0.000
1606136028.632,19.043,-42.480,-23.926,130.371,0.000
1606136028.636,34.180,-35.645,-22.949,185.547,0.000
1606136028.640,-50.781,-36.133,-31.738,-81.055,0.000
1606136028.644,-99.609,-29.785,-30.273,-280.762,0.000
1606136028.648,-42.480,-19.043,-30.273,-161.133,0.000
1606136028.652,38.086,-22.461,-30.762,117.676,0.000
1606136028.656,43.945,-20.020,-22.949,205.566,0.000
1606136028.660,-32.715,-30.762,-30.762,-24.902,0.000
1606136028.664,-97.168,-20.508,-39.062,-266.602,0.000
1606136028.668,-79.590,3.906,-42.480,-214.844,0.000
1606136028.672,7.812,-20.020,-42.480,71.289,0.000
1606136028.675,44.434,-29.297,-31.738,208.984,0.000
1606136028.679,-20.508,-30.762,-33.691,6.348,0.000
1606136028.683,-89.355,-40.039,-37.598,-250.977,0.000
1606136028.687,-73.242,-37.109,-31.250,-228.516,0.000
1606136028.691,22.461,-29.785,-30.762,67.383,0.000
1606136028.695,60.547,-30.762,-30.273,224.121,0.000
1606136028.699,-7.324,-40.039,-29.785,41.992,0.000
1606136028.703,-88.379,-35.156,-37.109,-221.680,0.000
1606136028.707,-95.215,-29.785,-38.574,-248.535,0.000
1606136028.711,-14.160,-43.457,-24.414,24.902,0.000
1606136028.714,50.293,-36.133,-15.137,230.957,0.000
1606136028.718,-2.441,-36.133,-19.043,100.098,0.000
1606136028.722,-96.680,-41.504,-23.926,-186.523,0.000
1606136028.726,-111.816,-39.062,-24.414,-250.488,0.000
1606136028.730,-30.273,-42.969,-17.578,-0.977,0.000
1606136028.734,29.297,-39.062,-20.996,210.938,0.000
1606136028.738,-7.812,-33.691,-21.484,128.418,0.000
1606136028.742,-86.914,-33.691,-17.578,-150.879,0.000
1606136028.746,-110.352,-38.086,-16.602,-258.301,0.000
1606136028.750,-34.180,-41.016,-12.695,-33.691,0.000
1606136028.754,51.758,-30.273,-12.207,221.191,0.000
1606136028.757,36.133,-24.902,-15.625,168.945,0.000
1606136028.761,-62.012,-40.527,-20.996,-141.113,0.000
1606136028.765,-93.750,-19.043,-28.809,-283.203,0.000
1606136028.769,-21.973,-0.977,-31.250,-79.590,0.000
1606136028.773,52.734,-24.902,-26.855,174.805,0.000
1606136028.777,39.062,-35.156,-30.273,161.621,0.000
1606136028.781,-53.223,-36.133,-29.297,-110.840,0.000
1606136028.785,-96.680,-32.715,-22.461,-264.648,0.000
1606136028.789,-41.992,-33.691,-31.250,-114.258,0.000
1606136028.793,44.434,-30.273,-33.691,149.902,0.000
1606136028.797,57.129,-24.902,-26.855,199.219,0.000
1606136028.800,-28.809,-32.715,-30.762,-65.430,0.000
1606136028.804,-93.750,-26.855,-38.086,-267.578,0.000
1606136028.808,-58.594,-20.996,-40.039,-153.320,0.000
1606136028.812,24.414,-28.809,-37.109,125.000,0.000
1606136028.816,45.410,-24.414,-31.250,217.773,0.000
1606136028.820,-40.039,-26.855,-33.203,-26.855,0.000
1606136028.824,-110.840,-31.738,-32.715,-258.789,0.000
1606136028.828,-83.008,-36.133,-24.414,-186.035,0.000
1606136028.832,2.930,-35.156,-24.902,104.004,0.000
1606136028.836,36.133,-27.344,-30.273,225.586,0.000
1606136028.839,-35.156,-29.785,-33.691,3.906,0.000
1606136028.843,-104.004,-28.809,-33.691,-242.676,0.000
1606136028.847,-80.566,-24.902,-31.250,-208.984,0.000
1606136028.851,11.230,-26.855,-20.508,80.566,0.000
1606136028.855,47.363,-29.297,-19.043,229.004,0.000
1606136028.859,-14.648,-35.156,-27.344,33.691,0.000
1606136028.863,-90.820,-38.574,-31.250,-224.121,0.000
1606136028.867,-85.938,-40.039,-31.250,-232.422,0.000
1606136028.871,0.488,-35.645,-31.250,40.527,0.000
1606136028.875,50.781,-25.879,-23.926,221.191,0.000
1606136028.879,-2.930,-24.414,-18.555,74.707,0.000
1606136028.882,-93.262,-33.691,-29.785,-208.496,0.000
1606136028.886,-102.539,-37.598,-26.367,-267.090,0.000
1606136028.890,-20.020,-31.250,-23.438,4.395,0.000
1606136028.894,34.180,-23.926,-28.320,217.773,0.000
1606136028.898,-17.578,-34.180,-27.344,94.238,0.000
1606136028.902,-104.004,-44.922,-32.227,-196.777,0.000
1606136028.906,-124.023,-43.945,-31.250,-279.785,0.000
1606136028.910,-51.270,-37.109,-29.785,-42.969,0.000
1606136028.914,20.996,-29.785,-31.250,182.617,0.000
1606136028.918,-8.301,-29.297,-29.785,114.258,0.000
1606136028.922,-100.586,-29.785,-26.855,-169.922,0.000
1606136028.925,-139.160,-30.273,-24.902,-293.457,0.000
1606136028.929,-75.684,-35.645,-26.367,-87.891,0.000
1606136028.933,12.695,-28.809,-31.738,162.598,0.000
1606136028.937,8.301,-15.137,-29.785,144.531,0.000
1606136028.941,-83.008,-19.043,-29.785,-133.301,0.000
1606136028.945,-136.719,-26.855,-35.645,-308.105,0.000
1606136028.949,-77.148,-24.902,-29.785,-141.602,0.000
1606136028.953,15.625,-27.344,-27.832,138.672,0.000
1606136028.957,15.625,-27.344,-40.039,161.133,0.000
1606136028.961,-59.082,-30.762,-45.410,-103.516,0.000
1606136028.964,-104.492,-34.180,-42.969,-282.715,0.000
1606136028.968,-51.758,-34.180,-41.992,-147.461,0.000
1606136028.972,46.387,-26.367,-27.832,138.184,0.000
1606136028.976,60.547,-21.484,-21.484,205.078,0.000
1606136028.980,-20.996,-28.320,-36.621,-48.828,0.000
1606136028.984,-81.543,-29.785,-40.527,-249.512,0.000
1606136028.988,-42.480,-27.832,-36.133,-147.949,0.000
1606136028.992,42.969,-26.367,-31.738,124.023,0.000
1606136028.996,60.547,-23.926,-25.879,223.633,0.000
1606136029.000,-14.160,-27.832,-28.320,0.000,0.000
1606136029.004,-87.891,-32.227,-38.086,-237.793,0.000
1606136029.007,-67.871,-29.297,-33.203,-184.082,0.000
1606136029.011,22.461,-27.344,-20.020,105.469,0.000
1606136029.015,53.711,-25.391,-26.367,236.328,0.000
1606136029.019,-16.113,-27.832,-33.203,37.598,0.000
1606136029.023,-98.633,-31.738,-35.156,-220.703,0.000
1606136029.027,-96.680,-35.645,-38.574,-226.074,0.000
1606136029.031,-4.395,-38.574,-34.180,64.453,0.000
1606136029.035,48.340,-28.809,-29.785,244.141,0.000
1606136029.039,-15.137,-28.809,-37.598,67.871,0.000
1606136029.043,-105.469,-41.992,-43.457,-219.727,0.000
1606136029.047,-105.469,-34.668,-34.180,-256.836,0.000
1606136029.050,-12.207,-21.484,-27.832,20.996,0.000
1606136029.054,44.922,-28.320,-26.855,215.820,0.000
1606136029.058,0.000,-27.832,-36.133,83.496,0.000
1606136029.062,-82.031,-25.391,-43.945,-202.637,0.000
1606136029.066,-102.539,-31.738,-42.969,-284.180,0.000
1606136029.070,-26.855,-25.391,-38.574,-32.227,0.000
1606136029.074,47.852,-13.672,-30.762,197.754,0.000
1606136029.078,26.367,-17.578,-28.809,121.094,0.000
1606136029.082,-61.035,-24.414,-35.156,-154.785,0.000
1606136029.086,-98.145,-24.902,-38.574,-275.391,0.000
1606136029.089,-35.645,-29.785,-30.273,-67.871,0.000
1606136029.093,44.922,-26.367,-18.555,190.430,0.000
1606136029.097,24.902,-22.949,-11.230,155.273,0.000
1606136029.101,-69.824,-27.344,-16.602,-137.207,0.000
1606136029.105,-106.445,-31.738,-23.438,-286.621,0.000
1606136029.109,-43.945,-27.344,-18.066,-92.773,0.000
1606136029.113,37.109,-23.926,-19.531,175.781,0.000
1606136029.117,21.973,-29.785,-23.438,173.828,0.000
1606136029.121,-70.801,-35.156,-20.508,-103.027,0.000
1606136029.125,-115.234,-34.180,-21.973,-271.484,0.000
1606136029.129,-63.477,-31.738,-29.297,-114.258,0.000
1606136029.132,10.742,-32.715,-29.785,148.926,0.000
1606136029.136,15.625,-27.344,-21.973,194.824,0.000
1606136029.140,-65.918,-43.945,-22.949,-68.359,0.000
1606136029.144,-125.488,-40.039,-29.785,-282.715,0.000
1606136029.148,-77.637,-22.949,-30.273,-167.969,0.000
1606136029.152,10.254,-34.668,-25.879,113.281,0.000
1606136029.156,31.250,-40.039,-23.438,202.637,0.000
1606136029.160,-44.434,-42.480,-27.832,-36.621,0.000
1606136029.164,-112.793,-40.527,-32.227,-269.043,0.000
1606136029.168,-79.590,-35.156,-33.203,-198.730,0.000
1606136029.172,11.230,-34.668,-41.016,84.961,0.000
1606136029.175,48.340,-30.762,-39.062,214.355,0.000
1606136029.179,-24.902,-30.273,-35.645,-3.906,0.000
1606136029.183,-104.492,-19.531,-38.086,-263.672,0.000
1606136029.187,-89.844,-11.719,-38.086,-235.352,0.000
1606136029.191,2.441,-25.391,-32.715,53.223,0.000
1606136029.195,52.246,-22.461,-27.832,226.074,0.000
1606136029.199,-6.348,-26.367,-28.809,47.363,0.000
1606136029.203,-93.262,-35.645,-32.715,-230.957,0.000
1606136029.207,-94.727,-33.203,-30.762,-240.234,0.000
1606136029.211,-7.324,-29.785,-25.391,41.016,0.000
1606136029.214,51.758,-25.391,-27.832,219.727,0.000
1606136029.218,1.465,-23.438,-30.762,75.195,0.000
1606136029.222,-82.520,-29.297,-30.273,-194.824,0.000
1606136029.226,-103.516,-15.137,-37.598,-259.766,0.000
1606136029.230,-36.133,-9.277,-33.691,-10.254,0.000
1606136029.234,33.691,-19.531,-24.902,208.008,0.000
1606136029.238,-0.488,-23.926,-24.902,111.328,0.000
1606136029.242,-96.680,-36.133,-29.785,-190.918,0.000
1606136029.246,-125.488,-34.668,-29.785,-303.711,0.000
1606136029.250,-39.551,-28.809,-22.949,-55.176,0.000
1606136029.254,38.574,-26.367,-21.484,200.684,0.000
1606136029.257,3.906,-28.320,-25.391,131.348,0.000
1606136029.261,-93.750,-33.691,-28.809,-174.805,0.000
1606136029.265,-123.535,-28.809,-26.855,-303.223,0.000
1606136029.269,-49.805,-24.902,-24.414,-84.961,0.000
1606136029.273,29.297,-27.832,-22.461,177.246,0.000
1606136029.277,20.508,-26.855,-20.996,164.062,0.000
1606136029.281,-74.707,-33.691,-29.785,-128.906,0.000
1606136029.285,-129.883,-25.391,-37.598,-298.340,0.000
1606136029.289,-67.383,-20.996,-27.832,-114.746,0.000
1606136029.293,22.949,-33.691,-25.391,164.551,0.000
1606136029.297,28.809,-31.250,-23.926,187.012,0.000
1606136029.300,-57.617,-30.273,-21.484,-97.168,0.000
1606136029.304,-115.723,-34.180,-28.809,-311.035,0.000
1606136029.308,-72.266,-28.320,-21.973,-177.246,0.000
1606136029.312,24.902,-21.484,-15.137,131.836,0.000
1606136029.316,43.945,-20.996,-20.020,210.938,0.000
1606136029.320,-50.293,-27.832,-25.879,-57.129,0.000
1606136029.324,-118.652,-26.855,-29.297,-292.480,0.000
1606136029.328,-82.520,-24.902,-27.832,-208.984,0.000
1606136029.332,10.742,-26.855,-19.531,98.145,0.000
1606136029.336,32.227,-29.297,-13.184,211.426,0.000
1606136029.339,-41.992,-44.922,-15.137,-16.602,0.000
1606136029.343,-95.703,-31.250,-21.484,-256.348,0.000
1606136029.347,-72.754,0.000,-22.949,-221.191,0.000
1606136029.351,4.395,-10.742,-22.461,57.617,0.000
1606136029.355,39.062,-20.996,-26.367,197.266,0.000
1606136029.359,-19.043,-14.648,-29.785,4.395,0.000
1606136029.363,-99.121,-11.230,-41.504,-262.695,0.000
1606136029.367,-98.633,-13.184,-45.410,-272.461,0.000
1606136029.371,-5.859,-9.277,-44.434,15.625,0.000
1606136029.375,51.758,-7.324,-43.457,212.402,0.000
1606136029.379,2.441,-10.254,-41.992,52.246,0.000
1606136029.382,-87.891,-11.719,-46.387,-247.070,0.000
1606136029.386,-99.121,-9.277,-51.758,-282.715,0.000
1606136029.390,-8.789,-3.418,-54.199,-0.977,0.000
1606136029.394,68.848,5.371,-50.293,212.402,0.000
1606136029.398,35.156,2.930,-51.270,96.191,0.000
1606136029.402,-52.734,-3.418,-55.664,-197.266,0.000
1606136029.406,-53.711,5.371,-59.570,-267.090,0.000
1606136029.410,43.945,4.883,-56.152,13.672,0.000
1606136029.414,108.398,1.465,-47.852,256.836,0.000
1606136029.418,80.566,8.789,-50.781,174.316,0.000
1606136029.422,8.301,1.465,-55.176,-113.770,0.000
1606136029.425,-14.160,12.207,-60.547,-221.191,0.000
1606136029.429,68.848,21.973,-56.641,17.090,0.000
1606136029.433,166.016,7.324,-44.922,288.086,0.000
1606136029.437,160.645,2.930,-45.898,270.508,0.000
1606136029.441,79.590,-3.906,-49.316,3.418,0.000
1606136029.445,41.992,-6.836,-48.340,-147.949,0.000
1606136029.449,106.445,-5.371,-42.480,36.621,0.000
1606136029.453,193.359,-1.953,-35.156,317.871,0.000
1606136029.457,186.523,0.000,-32.715,334.473,0.000
1606136029.461,81.543,-13.184,-32.227,39.551,0.000
1606136029.464,17.578,-8.789,-37.598,-163.086,0.000
1606136029.468,63.477,-4.395,-34.668,-21.484,0.000
1606136029.472,150.391,-19.043,-11.230,273.438,0.000
1606136029.476,163.086,-25.879,-11.719,321.777,0.000
1606136029.480,73.242,-33.203,-27.832,37.109,0.000
1606136029.484,1.465,-31.738,-30.762,-179.688,0.000
1606136029.488,46.875,-26.367,-26.367,-66.406,0.000
1606136029.492,132.324,-23.926,-21.973,225.586,0.000
1606136029.496,130.859,-26.855,-21.973,303.223,0.000
1606136029.500,45.898,-34.668,-23.926,54.688,0.000
1606136029.504,-20.020,-24.414,-22.949,-166.504,0.000
1606136029.507,4.883,-6.348,-25.879,-112.305,0.000
1606136029.511,88.379,-17.090,-24.414,161.621,0.000
1606136029.515,117.188,-25.879,-15.137,289.551,0.000
1606136029.519,56.152,-22.949,-17.090,81.543,0.000
1606136029.523,-17.578,-31.250,-25.391,-176.270,0.000
1606136029.527,-16.113,-36.133,-26.855,-164.551,0.000
1606136029.531,69.336,-30.273,-24.414,113.281,0.000
1606136029.535,114.258,-27.832,-24.902,276.367,0.000
1606136029.539,49.805,-35.156,-34.668,106.445,0.000
1606136029.543,-38.574,-36.621,-36.133,-164.062,0.000
1606136029.547,-35.645,-29.297,-28.809,-185.059,0.000
1606136029.550,53.711,-23.438,-26.367,89.844,0.000
1606136029.554,103.516,-25.391,-32.227,270.996,0.000
1606136029.558,53.711,-30.762,-32.715,133.301,0.000
1606136029.562,-30.273,-31.250,-31.738,-149.902,0.000
1606136029.566,-48.340,-19.043,-37.598,-232.910,0.000
1606136029.570,19.043,-20.020,-35.645,12.695,0.000
1606136029.574,73.242,-26.855,-30.762,230.469,0.000
1606136029.578,37.109,-25.879,-29.785,132.324,0.000
1606136029.582,-50.781,-28.809,-23.926,-150.879,0.000
1606136029.586,-82.520,-33.691,-32.227,-261.230,0.000
1606136029.589,-16.602,-31.250,-33.203,-43.945,0.000
1606136029.593,61.035,-18.066,-19.043,210.938,0.000
1606136029.597,37.109,-17.090,-19.531,164.551,0.000
1606136029.601,-59.570,-34.180,-23.926,-132.324,0.000
1606136029.605,-98.145,-9.277,-24.414,-277.344,0.000
1606136029.609,-33.203,15.625,-23.438,-85.938,0.000
1606136029.613,46.875,-10.742,-25.391,173.340,0.000
1606136029.617,36.621,-28.320,-35.156,166.016,0.000
1606136029.621,-53.711,-37.598,-39.062,-114.746,0.000
1606136029.625,-104.492,-36.621,-39.551,-280.762,0.000
1606136029.629,-39.062,-27.344,-35.156,-113.770,0.000
1606136029.632,50.781,-22.949,-31.738,159.668,0.000
1606136029.636,51.270,-23.926,-27.344,193.848,0.000
1606136029.640,-31.250,-31.738,-25.879,-64.941,0.000
1606136029.644,-88.867,-17.578,-35.645,-258.789,0.000
1606136029.648,-55.176,-11.719,-33.203,-144.531,0.000
1606136029.652,29.297,-37.109,-18.555,139.648,0.000
1606136029.656,48.828,-41.504,-16.602,215.332,0.000
1606136029.660,-27.832,-39.551,-19.531,-20.020,0.000
1606136029.664,-88.867,-38.574,-19.531,-233.398,0.000
1606136029.668,-57.617,-38.574,-23.438,-166.016,0.000
1606136029.672,23.438,-34.180,-26.367,108.398,0.000
1606136029.675,51.270,-26.367,-20.996,221.191,0.000
1606136029.679,-15.625,-32.715,-23.438,8.301,0.000
1606136029.683,-89.355,-35.645,-31.250,-234.863,0.000
1606136029.687,-71.289,-30.273,-34.180,-203.125,0.000
1606136029.691,8.789,-26.855,-28.320,73.242,0.000
1606136029.695,40.527,-26.367,-19.531,215.332,0.000
1606136029.699,-18.555,-35.156,-19.531,34.180,0.000
1606136029.703,-99.609,-39.062,-26.367,-224.609,0.000
1606136029.707,-96.191,-0.977,-28.809,-229.004,0.000
1606136029.711,-7.324,3.906,-28.320,44.922,0.000
1606136029.714,44.434,-24.414,-23.438,217.285,0.000
1606136029.718,-3.418,-24.414,-23.438,75.684,0.000
1606136029.722,-82.520,-26.367,-27.832,-187.500,0.000
1606136029.726,-90.820,-31.250,-28.809,-236.816,0.000
1606136029.730,-12.207,-33.203,-24.902,16.602,0.000
1606136029.734,45.898,-27.832,-24.902,222.656,0.000
1606136029.738,9.277,-31.250,-27.344,109.863,0.000
1606136029.742,-72.266,-36.621,-27.344,-178.223,0.000
1606136029.746,-97.656,-13.184,-34.180,-266.113,0.000
1606136029.750,-27.832,-18.555,-36.133,-40.527,0.000
1606136029.754,53.711,-36.621,-32.227,186.523,0.000
1606136029.757,24.414,-35.645,-33.691,122.559,0.000
1606136029.761,-74.219,-41.016,-40.039,-168.457,0.000
1606136029.765,-103.516,-42.480,-42.969,-289.062,0.000
1606136029.769,-28.320,-39.062,-33.691,-71.777,0.000
1606136029.773,44.922,-29.297,-28.320,183.594,0.000
1606136029.777,21.484,-25.879,-28.809,162.598,0.000
1606136029.781,-62.012,-30.273,-30.762,-111.816,0.000
1606136029.785,-103.027,-28.809,-34.668,-258.301,0.000
1606136029.789,-46.875,-21.973,-35.645,-88.867,0.000
1606136029.793,33.203,-22.949,-30.762,160.156,0.000
1606136029.797,32.715,-27.832,-30.273,174.316,0.000
1606136029.800,-51.758,-29.785,-33.691,-88.379,0.000
1606136029.804,-110.840,-32.715,-35.645,-276.367,0.000
1606136029.808,-65.918,-38.086,-25.879,-140.137,0.000
1606136029.812,22.461,-32.715,-16.113,143.066,0.000
1606136029.816,33.203,-26.855,-20.020,203.613,0.000
1606136029.820,-53.711,-36.621,-30.762,-49.316,0.000
1606136029.824,-116.211,-37.598,-36.621,-274.414,0.000
1606136029.828,-88.379,-30.273,-28.809,-183.105,0.000
1606136029.832,-2.441,-30.273,-22.949,125.000,0.000
1606136029.836,22.461,-31.250,-21.973,218.262,0.000
1606136029.839,-55.176,-33.691,-22.461,-13.672,0.000
1606136029.843,-122.070,-35.156,-28.809,-248.047,0.000
1606136029.847,-97.168,-33.203,-33.203,-208.496,0.000
1606136029.851,-3.906,-31.250,-24.414,82.031,0.000
1606136029.855,35.645,-35.645,-20.996,217.285,0.000
1606136029.859,-27.832,-39.551,-30.273,20.996,0.000
1606136029.863,-99.609,-37.598,-30.762,-228.027,0.000
1606136029.867,-86.426,-40.527,-26.855,-228.027,0.000
1606136029.871,3.906,-37.109,-22.949,54.199,0.000
1606136029.875,56.152,-33.203,-24.414,228.516,0.000
1606136029.879,5.859,-31.738,-28.809,73.730,0.000
1606136029.882,-76.172,-31.738,-24.902,-194.824,0.000
1606136029.886,-87.891,-22.461,-29.297,-249.512,0.000
1606136029.890,-5.371,-15.625,-27.832,8.789,0.000
1606136029.894,54.199,-21.973,-22.461,214.844,0.000
1606136029.898,10.742,-22.461,-28.320,88.379,0.000
1606136029.902,-73.242,-28.320,-30.762,-195.312,0.000
1606136029.906,-90.332,-34.180,-36.133,-277.832,0.000
1606136029.910,-9.766,-26.855,-30.273,-28.809,0.000
1606136029.914,56.152,-20.996,-22.461,202.637,0.000
1606136029.918,31.250,-25.879,-25.879,118.652,0.000
1606136029.922,-44.434,-26.855,-29.785,-155.762,0.000
1606136029.925,-87.891,-27.832,-33.203,-256.836,0.000
1606136029.929,-30.762,-24.902,-32.715,-59.570,0.000
1606136029.933,41.504,-22.461,-23.438,170.410,0.000
1606136029.937,21.484,-27.344,-23.926,141.113,0.000
1606136029.941,-70.801,-30.273,-26.367,-132.324,0.000
1606136029.945,-120.117,-30.762,-28.320,-281.250,0.000
1606136029.949,-61.523,-31.738,-20.996,-106.445,0.000
1606136029.953,22.461,-34.668,-21.973,151.367,0.000
1606136029.957,28.809,-28.320,-26.367,160.156,0.000
1606136029.961,-44.434,-19.043,-19.043,-102.051,0.000
1606136029.964,-113.281,-22.949,-25.391,-298.340,0.000
1606136029.968,-99.609,-21.973,-23.438,-179.688,0.000
1606136029.972,-14.160,-7.812,-19.043,102.051,0.000
1606136029.976,-13.672,-5.859,-21.484,136.719,0.000
1606136029.980,-125.977,-20.996,-28.809,-173.828,0.000
1606136029.984,-199.707,-3.906,-32.715,-403.809,0.000
1606136029.988,-177.246,28.809,-36.133,-310.547,0.000
1606136029.992,-104.492,6.836,-33.203,-51.270,0.000
1606136029.996,-98.145,-8.789,-26.855,26.855,0.000
1606136030.000,-200.684,-16.113,-32.715,-229.492,0.000
1606136030.004,-291.504,-23.926,-36.621,-479.004,0.000
1606136030.007,-274.414,-14.648,-34.668,-436.035,0.000
1606136030.011,-200.195,-7.812,-31.738,-172.363,0.000
1606136030.015,-183.105,-7.324,-36.133,-57.129,0.000
1606136030.019,-254.883,-14.160,-38.574,-259.766,0.000
1606136030.023,-339.844,-12.207,-37.598,-515.625,0.000
1606136030.027,-339.355,-4.883,-40.527,-507.812,0.000
1606136030.031,-248.535,-10.254,-35.156,-220.703,0.000
1606136030.035,-211.914,-12.695,-32.715,-73.730,0.000
1606136030.039,-271.973,-10.742,-35.156,-240.723,0.000
1606136030.043,-361.328,-19.531,-41.992,-507.812,0.000
1606136030.047,-380.859,-28.809,-44.434,-555.176,0.000
1606136030.050,-289.551,-16.113,-34.668,-275.879,0.000
1606136030.054,-227.051,-5.859,-30.762,-78.613,0.000
1606136030.058,-268.555,-13.672,-33.691,-213.867,0.000
1606136030.062,-344.727,-24.414,-32.715,-490.234,0.000
1606136030.066,-353.027,-6.348,-36.133,-547.363,0.000
1606136030.070,-275.879,-11.230,-33.203,-294.922,0.000
1606136030.074,-222.168,-34.180,-31.250,-96.191,0.000
1606136030.078,-255.859,-24.902,-40.527,-187.012,0.000
1606136030.082,-332.031,-23.926,-41.016,-448.730,0.000
1606136030.086,-339.844,-22.461,-41.504,-534.180,0.000
1606136030.089,-257.812,-16.113,-41.992,-300.781,0.000
1606136030.093,-178.223,-15.625,-34.180,-49.805,0.000
1606136030.097,-180.664,-13.184,-28.809,-68.848,0.000
1606136030.101,-263.672,-18.066,-23.438,-342.773,0.000
1606136030.105,-296.387,-34.180,-27.344,-490.234,0.000
1606136030.109,-219.727,-34.668,-51.270,-281.738,0.000
1606136030.113,-129.395,-19.043,-49.805,-1.953,0.000
1606136030.117,-129.883,-22.461,-32.715,2.441,0.000
1606136030.121,-207.520,-34.668,-34.180,-281.738,0.000
1606136030.125,-252.930,-35.645,-41.016,-454.590,0.000
1606136030.129,-187.988,-25.391,-42.480,-278.320,0.000
1606136030.132,-83.496,-20.508,-32.715,12.207,0.000
1606136030.136,-60.059,-18.555,-34.668,69.824,0.000
1606136030.140,-136.230,-36.133,-48.340,-180.664,0.000
1606136030.144,-198.730,-51.758,-34.180,-376.465,0.000
1606136030.148,-148.438,-43.457,-40.527,-242.676,0.000
1606136030.152,-58.105,-32.715,-64.453,39.062,0.000
1606136030.156,-34.668,-29.297,-52.246,109.863,0.000
1606136030.160,-100.098,-35.156,-36.133,-109.863,0.000
1606136030.164,-169.434,-65.918,-20.996,-317.383,0.000
1606136030.168,-126.465,-100.586,-7.324,-236.328,0.000
1606136030.172,-21.484,-73.730,-8.301,62.012,0.000
1606136030.175,20.020,-47.852,-23.438,189.941,0.000
1606136030.179,-31.250,-51.758,-25.391,-3.906,0.000
1606136030.183,-89.844,-55.176,-16.113,-228.027,0.000
1606136030.187,-64.453,-57.617,-34.668,-175.781,0.000
1606136030.191,36.133,-53.711,-47.852,130.859,0.000
1606136030.195,88.379,-48.828,-17.578,277.344,0.000
1606136030.199,34.180,-52.734,-2.930,84.473,0.000
1606136030.203,-34.180,-56.152,-13.184,-159.668,0.000
1606136030.207,-18.555,-44.922,-16.602,-155.762,0.000
1606136030.211,73.730,-42.480,-16.113,115.723,0.000
1606136030.214,126.465,-48.340,-14.648,297.363,0.000
1606136030.218,84.473,-45.410,-12.695,150.879,0.000
1606136030.222,-2.930,-57.617,-20.508,-124.023,0.000
1606136030.226,-13.184,-66.406,-20.508,-169.434,0.000
1606136030.230,78.613,-54.199,-12.695,101.562,0.000
1606136030.234,143.066,-47.852,-10.254,306.641,0.000
1606136030.238,115.723,-43.945,-11.719,202.637,0.000
1606136030.242,33.691,-50.781,-20.996,-82.031,0.000
1606136030.246,10.254,-55.664,-25.391,-175.781,0.000
1606136030.250,83.008,-52.246,-18.555,76.660,0.000
1606136030.254,152.832,-47.852,-10.254,325.684,0.000
1606136030.257,128.906,-54.688,-23.438,265.137,0.000
1606136030.261,32.227,-68.848,-24.902,-30.273,0.000
1606136030.265,-14.648,-58.594,-19.043,-179.688,0.000
1606136030.269,51.758,-45.410,-26.855,24.902,0.000
1606136030.273,130.859,-50.293,-20.508,289.551,0.000
1606136030.277,111.816,-43.457,-14.160,261.230,0.000
1606136030.281,20.996,-49.805,-19.531,-31.250,0.000
1606136030.285,-19.531,-60.547,-26.855,-192.871,0.000
1606136030.289,38.574,-56.641,-28.809,-18.555,0.000
1606136030.293,117.676,-51.270,-25.391,256.836,0.000
1606136030.297,111.816,-38.086,-25.391,278.320,0.000
1606136030.300,21.973,-39.551,-31.250,-5.859,0.000
1606136030.304,-32.227,-49.316,-27.832,-210.938,0.000
1606136030.308,16.113,-41.992,-24.902,-79.590,0.000
1606136030.312,98.633,-38.574,-28.809,208.496,0.000
1606136030.316,107.910,-31.250,-27.344,275.879,0.000
1606136030.320,21.973,-27.344,-22.949,6.836,0.000
1606136030.324,-41.992,-30.273,-26.855,-216.797,0.000
1606136030.328,3.418,-26.855,-30.762,-108.887,0.000
1606136030.332,95.703,-28.320,-28.320,187.500,0.000
1606136030.336,117.188,-36.621,-24.902,287.598,0.000
1606136030.339,37.598,-44.434,-29.785,43.457,0.000
1606136030.343,-35.156,-45.410,-33.203,-200.684,0.000
1606136030.347,-2.441,-44.434,-31.738,-128.906,0.000
1606136030.351,78.613,-43.457,-41.992,154.297,0.000
1606136030.355,106.445,-41.992,-40.039,267.090,0.000
1606136030.359,47.363,-45.898,-31.250,63.477,0.000
1606136030.363,-30.762,-58.105,-36.621,-189.941,0.000
1606136030.367,-12.695,-48.340,-39.551,-166.992,0.000
1606136030.371,74.707,-21.973,-35.156,120.605,0.000
1606136030.375,104.980,-14.160,-34.180,271.973,0.000
1606136030.379,43.945,-22.949,-35.645,93.750,0.000
1606136030.382,-40.039,-29.785,-41.504,-181.641,0.000
1606136030.386,-41.504,-28.809,-40.039,-213.867,0.000
1606136030.390,41.992,-31.250,-26.367,64.453,0.000
1606136030.394,92.285,-37.109,-22.949,257.324,0.000
1606136030.398,45.410,-38.086,-25.391,120.117,0.000
1606136030.402,-35.645,-35.645,-28.809,-164.551,0.000
1606136030.406,-51.270,-39.551,-33.691,-243.652,0.000
1606136030.410,27.832,-33.203,-29.785,24.902,0.000
1606136030.414,99.609,-21.484,-20.020,257.812,0.000
1606136030.418,57.617,-27.832,-19.531,156.250,0.000
1606136030.422,-32.227,-30.762,-22.949,-136.719,0.000
1606136030.425,-62.012,-41.016,-30.273,-250.977,0.000
1606136030.429,10.254,-42.480,-32.227,-19.043,0.000
1606136030.433,88.379,-24.902,-24.902,241.211,0.000
1606136030.437,53.711,-29.785,-31.250,184.570,0.000
1606136030.441,-36.133,-36.621,-25.879,-107.910,0.000
1606136030.445,-77.637,-30.762,-27.344,-265.137,0.000
1606136030.449,-18.066,-23.438,-31.250,-83.984,0.000
1606136030.453,67.383,-22.461,-24.414,199.707,0.000
1606136030.457,59.082,-28.320,-21.484,200.195,0.000
1606136030.461,-30.273,-33.203,-24.902,-90.820,0.000
1606136030.464,-74.219,-30.273,-33.691,-259.766,0.000
1606136030.468,-22.461,-22.461,-29.785,-103.516,0.000
1606136030.472,61.035,-17.578,-25.391,178.223,0.000
1606136030.476,67.383,-24.902,-28.320,221.680,0.000
1606136030.480,-21.973,-38.086,-33.203,-59.082,0.000
1606136030.484,-83.984,-32.715,-32.715,-271.973,0.000
1606136030.488,-38.086,-26.855,-30.762,-145.508,0.000
1606136030.492,51.270,-27.344,-29.297,151.855,0.000
1606136030.496,60.547,-20.996,-24.414,226.074,0.000
1606136030.500,-17.090,-27.344,-19.531,-27.832,0.000
1606136030.504,-82.520,-40.039,-21.973,-261.719,0.000
1606136030.507,-51.270,-35.156,-29.785,-182.129,0.000
1606136030.511,50.293,-22.949,-24.902,129.395,0.000
1606136030.515,74.219,-23.438,-18.555,247.559,0.000
1606136030.519,-7.812,-29.785,-20.996,9.766,0.000
1606136030.523,-83.984,-33.691,-27.832,-243.652,0.000
1606136030.527,-71.289,-36.133,-41.504,-210.938,0.000
1606136030.531,25.391,-32.227,-39.062,87.891,0.000
1606136030.535,70.312,-27.832,-22.949,261.719,0.000
1606136030.539,-0.488,-28.809,-24.414,63.477,0.000
1606136030.543,-89.844,-30.273,-28.320,-228.027,0.000
1606136030.547,-87.891,-8.301,-31.738,-237.793,0.000
1606136030.550,5.371,-8.301,-33.203,48.828,0.000
1606136030.554,58.594,-26.855,-22.461,243.164,0.000
1606136030.558,11.230,-25.391,-22.949,91.309,0.000
1606136030.562,-76.660,-27.344,-34.668,-203.125,0.000
1606136030.566,-88.379,-28.809,-37.109,-256.348,0.000
1606136030.570,-0.977,-29.297,-32.227,10.742,0.000
1606136030.574,52.734,-24.414,-28.320,229.980,0.000
1606136030.578,11.719,-22.949,-22.461,125.000,0.000
1606136030.582,-74.219,-34.668,-31.250,-174.316,0.000
1606136030.586,-88.379,-37.109,-41.992,-276.367,0.000
1606136030.589,2.441,-30.762,-33.203,-24.902,0.000
1606136030.593,75.684,-23.926,-25.391,224.609,0.000
1606136030.597,48.828,-22.461,-25.879,157.227,0.000
1606136030.601,-51.758,-20.996,-30.273,-145.996,0.000
1606136030.605,-89.355,-29.785,-31.250,-268.555,0.000
1606136030.609,-11.230,-36.621,-23.438,-43.945,0.000
1606136030.613,65.430,-30.762,-14.648,224.609,0.000
1606136030.617,45.410,-32.715,-21.484,200.684,0.000
1606136030.621,-48.340,-40.527,-25.879,-111.816,0.000
1606136030.625,-96.191,-43.945,-23.926,-290.039,0.000
1606136030.629,-30.273,-29.297,-26.367,-104.492,0.000
1606136030.632,56.152,-25.879,-24.414,184.082,0.000
1606136030.636,47.363,-30.762,-20.508,200.684,0.000
1606136030.640,-46.875,-31.250,-20.508,-95.215,0.000
1606136030.644,-106.934,-31.250,-24.414,-291.504,0.000
1606136030.648,-63.965,-29.297,-24.902,-147.461,0.000
1606136030.652,28.320,-25.879,-22.949,145.020,0.000
1606136030.656,44.434,-21.973,-23.926,216.797,0.000
1606136030.660,-42.480,-28.809,-26.367,-44.922,0.000
1606136030.664,-109.863,-34.180,-29.297,-273.438,0.000
1606136030.668,-69.336,-35.645,-25.391,-175.293,0.000
1606136030.672,27.832,-34.180,-25.391,124.023,0.000
1606136030.675,54.688,-30.273,-27.832,231.934,0.000
1606136030.679,-22.461,-39.062,-28.809,-8.789,0.000
1606136030.683,-103.027,-29.297,-36.133,-270.508,0.000
1606136030.687,-84.473,-6.836,-37.109,-230.957,0.000
1606136030.691,12.207,-17.578,-30.273,75.684,0.000
1606136030.695,56.641,-24.902,-28.320,230.469,0.000
1606136030.699,-13.672,-25.391,-24.902,22.461,0.000
1606136030.703,-103.027,-34.180,-25.391,-259.277,0.000
1606136030.707,-89.355,-40.527,-29.297,-250.000,0.000
1606136030.711,11.230,-34.180,-21.484,55.176,0.000
1606136030.714,66.895,-28.320,-20.508,239.258,0.000
1606136030.718,13.672,-30.273,-20.020,77.637,0.000
1606136030.722,-71.777,-33.203,-22.461,-204.102,0.000
1606136030.726,-73.730,-20.508,-33.691,-246.094,0.000
1606136030.730,10.742,-19.531,-33.691,21.484,0.000
1606136030.734,65.430,-27.832,-25.391,221.191,0.000
1606136030.738,19.043,-27.344,-21.484,96.191,0.000
1606136030.742,-79.590,-37.598,-26.367,-201.172,0.000
1606136030.746,-102.051,-37.598,-38.574,-288.086,0.000
1606136030.750,-8.789,-29.297,-34.180,-14.648,0.000
1606136030.754,65.918,-26.855,-25.391,247.559,0.000
1606136030.757,30.762,-24.902,-29.297,156.250,0.000
1606136030.761,-66.895,-25.879,-33.691,-152.832,0.000
1606136030.765,-98.633,-30.762,-29.297,-271.484,0.000
1606136030.769,-21.484,-29.785,-23.438,-38.086,0.000
1606136030.773,57.129,-21.973,-16.602,230.957,0.000
1606136030.777,39.062,-17.578,-9.766,198.730,0.000
1606136030.781,-64.941,-28.320,-16.113,-104.980,0.000
1606136030.785,-112.305,-31.250,-28.809,-270.996,0.000
1606136030.789,-37.109,-24.902,-32.227,-79.102,0.000
1606136030.793,56.152,-20.996,-24.902,209.961,0.000
1606136030.797,49.805,-25.391,-21.973,218.750,0.000
1606136030.800,-48.340,-27.832,-23.926,-81.543,0.000
1606136030.804,-111.328,-34.180,-29.785,-282.227,0.000
1606136030.808,-51.270,-33.691,-27.832,-133.301,0.000
1606136030.812,54.199,-23.438,-15.625,181.641,0.000
1606136030.816,63.477,-20.996,-14.160,253.906,0.000
1606136030.820,-32.715,-23.438,-26.855,-37.109,0.000
1606136030.824,-100.586,-35.645,-42.480,-280.762,0.000
1606136030.828,-63.965,-45.898,-43.457,-180.176,0.000
1606136030.832,34.668,-25.391,-29.297,134.277,0.000
1606136030.836,65.430,-9.277,-26.367,242.188,0.000
1606136030.839,-20.508,-20.996,-30.273,-13.184,0.000
1606136030.843,-97.656,-33.203,-35.645,-261.719,0.000
1606136030.847,-72.266,-35.645,-44.434,-199.219,0.000
1606136030.851,14.160,-29.785,-41.992,96.191,0.000
1606136030.855,49.805,-29.785,-32.227,234.863,0.000
1606136030.859,-21.973,-34.180,-33.691,21.484,0.000
1606136030.863,-101.562,-30.273,-39.062,-254.883,0.000
1606136030.867,-91.797,-25.391,-34.180,-238.770,0.000
1606136030.871,3.418,-29.785,-22.949,74.707,0.000
1606136030.875,58.105,-29.297,-15.137,259.277,0.000
1606136030.879,-6.348,-29.785,-15.625,75.195,0.000
1606136030.882,-96.680,-37.109,-22.461,-224.121,0.000
1606136030.886,-91.309,-38.574,-27.832,-255.859,0.000
1606136030.890,5.371,-33.691,-27.344,34.668,0.000
1606136030.894,64.453,-30.273,-21.973,246.094,0.000
1606136030.898,7.324,-33.691,-24.414,102.051,0.000
1606136030.902,-93.750,-39.062,-35.645,-208.496,0.000
1606136030.906,-102.539,-39.551,-37.598,-273.926,0.000
1606136030.910,-4.883,-32.715,-28.809,17.090,0.000
1606136030.914,61.523,-25.879,-24.902,254.395,0.000
1606136030.918,20.508,-27.832,-30.273,144.531,0.000
1606136030.922,-73.730,-33.691,-29.297,-171.387,0.000
1606136030.925,-106.445,-31.250,-31.250,-281.738,0.000
1606136030.929,-28.809,-31.738,-29.785,-28.320,0.000
1606136030.933,53.711,-27.344,-21.484,237.305,0.000
1606136030.937,28.320,-25.879,-23.438,176.758,0.000
1606136030.941,-79.590,-33.691,-28.320,-141.602,0.000
1606136030.945,-116.211,-33.691,-33.691,-288.574,0.000
1606136030.949,-32.715,-31.250,-35.645,-81.055,0.000
1606136030.953,57.617,-23.438,-28.320,213.867,0.000
1606136030.957,52.734,-20.996,-27.832,212.402,0.000
1606136030.961,-44.922,-30.273,-30.273,-113.281,0.000
1606136030.964,-102.539,-33.203,-36.133,-304.688,0.000
1606136030.968,-43.945,-32.715,-38.574,-132.324,0.000
1606136030.972,54.199,-26.855,-29.785,184.570,0.000
1606136030.976,60.059,-23.438,-26.855,229.004,0.000
1606136030.980,-45.410,-33.691,-33.691,-83.984,0.000
1606136030.984,-116.211,-35.645,-36.133,-308.594,0.000
1606136030.988,-60.547,-28.320,-30.762,-161.621,0.000
1606136030.992,40.039,-24.414,-28.809,165.039,0.000
1606136030.996,51.758,-25.879,-29.785,242.676,0.000
1606136031.000,-44.922,-26.855,-28.320,-36.133,0.000
1606136031.004,-125.488,-23.438,-37.598,-283.691,0.000
1606136031.007,-91.309,-16.113,-43.457,-203.125,0.000
1606136031.011,17.090,-24.414,-38.086,113.281,0.000
1606136031.015,56.152,-32.227,-34.668,243.652,0.000
1606136031.019,-27.832,-36.133,-35.645,-1.465,0.000
1606136031.023,-123.535,-40.039,-41.504,-283.203,0.000
1606136031.027,-99.609,-36.621,-37.598,-236.328,0.000
1606136031.031,20.996,-26.367,-28.809,101.562,0.000
1606136031.035,73.242,-19.043,-25.879,274.414,0.000
1606136031.039,-4.395,-22.461,-24.902,50.293,0.000
1606136031.043,-99.121,-29.297,-34.180,-269.043,0.000
1606136031.047,-81.055,-22.949,-35.156,-269.043,0.000
1606136031.050,29.297,-19.531,-15.137,71.289,0.000
1606136031.054,74.707,-22.949,-4.395,267.578,0.000
1606136031.058,-19.043,-32.715,-8.301,63.477,0.000
1606136031.062,-139.160,-45.410,-11.230,-264.648,0.000
1606136031.066,-139.160,-35.645,-14.160,-305.664,0.000
1606136031.070,-33.691,-34.180,-9.766,-2.930,0.000
1606136031.074,33.203,-42.480,-1.953,229.980,0.000
1606136031.078,-5.371,-38.574,0.488,111.816,0.000
1606136031.082,-105.469,-43.945,-5.371,-216.797,0.000
1606136031.086,-133.301,-46.387,-5.371,-328.613,0.000
1606136031.089,-37.109,-42.969,-5.371,-49.316,0.000
1606136031.093,50.781,-38.574,-7.812,229.004,0.000
1606136031.097,18.066,-35.156,-9.277,169.434,0.000
1606136031.101,-94.727,-45.898,-17.090,-162.109,0.000
1606136031.105,-126.953,-30.762,-19.531,-310.059,0.000
1606136031.109,-40.527,-15.625,-19.531,-64.453,0.000
1606136031.113,41.504,-32.715,-20.508,229.004,0.000
1606136031.117,18.555,-39.062,-20.996,193.848,0.000
1606136031.121,-84.961,-42.969,-24.414,-135.254,0.000
1606136031.125,-130.371,-42.969,-22.949,-309.570,0.000
1606136031.129,-49.316,-38.086,-17.578,-103.027,0.000
1606136031.132,51.270,-35.645,-17.578,214.844,0.000
1606136031.136,48.340,-33.203,-20.508,249.023,0.000
1606136031.140,-54.688,-42.480,-20.020,-55.664,0.000
1606136031.144,-121.582,-23.926,-26.855,-280.762,0.000
1606136031.148,-64.453,-6.348,-32.227,-122.559,0.000
1606136031.152,46.387,-36.621,-23.926,208.496,0.000
1606136031.156,55.176,-41.016,-22.461,268.066,0.000
1606136031.160,-47.363,-36.621,-31.738,-33.691,0.000
1606136031.164,-120.117,-44.922,-37.598,-290.527,0.000
1606136031.168,-79.102,-48.340,-32.715,-181.641,0.000
1606136031.172,31.250,-35.645,-24.414,151.367,0.000
1606136031.175,58.105,-26.367,-25.879,265.137,0.000
1606136031.179,-34.180,-28.809,-27.832,-3.418,0.000
1606136031.183,-120.117,-35.645,-37.598,-287.598,0.000
1606136031.187,-93.750,-33.203,-38.086,-218.262,0.000
1606136031.191,22.461,-23.926,-27.832,126.465,0.000
1606136031.195,67.871,-20.020,-24.902,274.902,0.000
1606136031.199,-20.508,-27.832,-25.879,37.598,0.000
1606136031.203,-118.164,-38.086,-36.621,-269.043,0.000
1606136031.207,-99.121,-27.344,-43.457,-261.719,0.000
1606136031.211,12.207,-19.043,-42.480,75.684,0.000
1606136031.214,71.289,-24.414,-38.574,273.438,0.000
1606136031.218,4.395,-23.926,-36.621,80.078,0.000
1606136031.222,-92.773,-24.414,-37.109,-222.656,0.000
1606136031.226,-94.238,-30.762,-39.062,-252.930,0.000
1606136031.230,9.766,-32.227,-38.574,48.340,0.000
1606136031.234,78.613,-22.461,-29.785,287.598,0.000
1606136031.238,24.414,-19.531,-25.391,156.250,0.000
1606136031.242,-77.148,-27.344,-28.320,-173.828,0.000
1606136031.246,-101.562,-6.348,-26.367,-264.648,0.000
1606136031.250,-11.230,-4.395,-27.832,12.207,0.000
1606136031.254,67.871,-20.508,-27.344,270.996,0.000
1606136031.257,21.973,-20.508,-24.414,166.992,0.000
1606136031.261,-87.891,-31.250,-31.738,-178.223,0.000
1606136031.265,-122.559,-33.691,-33.691,-295.898,0.000
1606136031.269,-36.133,-26.855,-25.879,-39.551,0.000
1606136031.273,49.805,-26.367,-23.926,225.098,0.000
1606136031.277,16.602,-36.621,-32.227,160.156,0.000
1606136031.281,-86.426,-42.969,-39.062,-174.805,0.000
1606136031.285,-129.883,-51.758,-37.598,-328.613,0.000
1606136031.289,-59.082,-55.176,-35.156,-121.094,0.000
1606136031.293,36.133,-36.621,-27.344,163.086,0.000
1606136031.297,29.297,-26.367,-25.391,156.250,0.000
1606136031.300,-75.195,-33.691,-32.227,-162.109,0.000
1606136031.304,-134.277,-37.109,-33.203,-351.074,0.000
1606136031.308,-62.988,-37.109,-26.367,-173.828,0.000
1606136031.312,40.527,-36.621,-27.344,139.648,0.000
1606136031.316,44.434,-25.391,-31.250,202.148,0.000
1606136031.320,-58.105,-29.297,-41.992,-99.121,0.000
1606136031.324,-125.977,-40.039,-45.898,-327.637,0.000
1606136031.328,-75.684,-34.668,-43.945,-189.453,0.000
1606136031.332,28.320,-23.438,-34.668,131.348,0.000
1606136031.336,49.316,-23.926,-33.691,222.168,0.000
1606136031.339,-38.086,-31.738,-43.457,-41.992,0.000
1606136031.343,-114.258,-28.320,-41.504,-293.457,0.000
1606136031.347,-80.566,-19.043,-41.504,-216.309,0.000
1606136031.351,24.902,-13.184,-34.668,99.121,0.000
1606136031.355,54.688,-8.301,-25.879,230.957,0.000
1606136031.359,-36.621,-19.531,-33.203,-3.906,0.000
1606136031.363,-120.117,-29.785,-41.992,-267.090,0.000
1606136031.367,-101.074,-32.715,-37.109,-231.934,0.000
1606136031.371,3.906,-23.926,-26.855,77.637,0.000
1606136031.375,54.688,-20.508,-24.902,248.535,0.000
1606136031.379,-20.020,-34.668,-34.668,60.059,0.000
1606136031.382,-115.234,-46.387,-42.480,-224.609,0.000
1606136031.386,-116.699,-24.414,-35.156,-252.441,0.000
1606136031.390,-13.672,-12.695,-29.297,37.598,0.000
1606136031.394,51.270,-34.180,-24.902,230.957,0.000
1606136031.398,-10.254,-39.062,-24.902,83.984,0.000
1606136031.402,-103.516,-45.898,-31.738,-210.449,0.000
1606136031.406,-103.027,-49.316,-33.691,-275.391,0.000
1606136031.410,-10.254,-39.551,-26.367,9.766,0.000
1606136031.414,60.059,-30.762,-20.508,236.816,0.000
1606136031.418,18.555,-30.273,-16.113,128.418,0.000
1606136031.422,-79.102,-31.250,-11.719,-153.320,0.000
1606136031.425,-104.980,-35.156,-19.531,-256.348,0.000
1606136031.429,-30.762,-29.297,-15.625,-29.785,0.000
1606136031.433,42.480,-25.879,-10.254,211.914,0.000
1606136031.437,16.113,-33.203,-20.996,142.578,0.000
1606136031.441,-81.055,-41.016,-30.273,-146.484,0.000
1606136031.445,-110.840,-41.992,-31.250,-273.438,0.000
1606136031.449,-30.762,-36.621,-27.832,-76.172,0.000
1606136031.453,46.875,-32.715,-24.902,174.316,0.000
1606136031.457,33.203,-26.855,-21.484,179.199,0.000
1606136031.461,-57.129,-23.438,-21.973,-96.680,0.000
1606136031.464,-94.727,-27.344,-25.391,-242.676,0.000
1606136031.468,-30.273,-25.879,-20.996,-55.176,0.000
1606136031.472,46.875,-22.949,-16.602,181.152,0.000
1606136031.476,43.457,-24.414,-25.391,189.941,0.000
1606136031.480,-51.270,-35.645,-35.645,-88.379,0.000
1606136031.484,-106.445,-32.715,-41.992,-286.133,0.000
1606136031.488,-49.316,2.441,-36.133,-147.949,0.000
1606136031.492,41.504,-5.371,-28.809,139.160,0.000
1606136031.496,48.828,-31.250,-28.320,208.008,0.000
1606136031.500,-38.574,-35.156,-26.855,-38.574,0.000
1606136031.504,-109.375,-37.109,-24.902,-252.441,0.000
1606136031.507,-79.590,-33.691,-27.832,-176.758,0.000
1606136031.511,25.391,-28.320,-26.367,121.582,0.000
1606136031.515,59.570,-25.391,-18.555,246.094,0.000
1606136031.519,-29.785,-34.180,-21.484,4.883,0.000
1606136031.523,-100.586,-35.645,-25.391,-245.605,0.000
1606136031.527,-70.312,-18.066,-21.484,-197.754,0.000
1606136031.531,22.461,-27.344,-19.531,84.961,0.000
1606136031.535,63.965,-32.715,-20.020,225.098,0.000
1606136031.539,-2.930,-31.738,-21.973,39.551,0.000
1606136031.543,-84.961,-41.016,-23.926,-219.238,0.000
1606136031.547,-75.684,-43.457,-23.926,-220.215,0.000
1606136031.550,19.531,-37.598,-21.484,56.641,0.000
1606136031.554,79.102,-30.762,-20.508,229.492,0.000
1606136031.558,20.996,-32.715,-28.320,72.754,0.000
1606136031.562,-64.453,-40.039,-36.621,-196.777,0.000
1606136031.566,-60.547,-19.531,-36.621,-225.098,0.000
1606136031.570,22.949,-14.648,-31.250,26.367,0.000
1606136031.574,80.078,-29.297,-24.902,219.727,0.000
1606136031.578,36.621,-29.297,-26.367,115.723,0.000
1606136031.582,-60.059,-33.203,-29.297,-163.086,0.000
1606136031.586,-77.148,-31.738,-29.785,-243.164,0.000
1606136031.589,17.578,-29.297,-29.785,4.883,0.000
1606136031.593,89.844,-28.320,-28.320,229.980,0.000
1606136031.597,50.293,-29.785,-26.367,148.438,0.000
1606136031.601,-47.363,-38.086,-32.227,-130.371,0.000
1606136031.605,-82.520,-40.039,-30.762,-234.375,0.000
1606136031.609,-1.953,-30.762,-19.531,-14.160,0.000
1606136031.613,81.055,-25.391,-20.996,225.098,0.000
1606136031.617,47.852,-30.273,-22.461,178.711,0.000
1606136031.621,-57.617,-44.434,-24.414,-105.957,0.000
1606136031.625,-104.980,-37.109,-31.250,-262.207,0.000
1606136031.629,-37.598,-23.438,-32.227,-84.961,0.000
1606136031.632,58.594,-30.273,-33.203,194.336,0.000
1606136031.636,53.223,-33.203,-30.273,217.773,0.000
1606136031.640,-54.688,-48.828,-25.391,-62.500,0.000
1606136031.644,-107.910,-52.734,-27.344,-245.117,0.000
1606136031.648,-43.457,-47.852,-25.879,-96.680,0.000
1606136031.652,53.711,-42.480,-23.438,174.316,0.000
1606136031.656,61.035,-35.645,-20.996,226.074,0.000
1606136031.660,-31.738,-34.668,-20.508,-22.461,0.000
1606136031.664,-95.703,-34.668,-28.320,-236.816,0.000
1606136031.668,-62.500,-23.438,-35.645,-163.086,0.000
1606136031.672,38.086,-22.949,-28.320,113.770,0.000
1606136031.675,74.707,-32.227,-16.113,223.145,0.000
1606136031.679,-13.672,-37.109,-18.066,-8.789,0.000
1606136031.683,-93.262,-41.504,-29.785,-251.465,0.000
1606136031.687,-60.547,-38.086,-28.320,-200.195,0.000
1606136031.691,46.875,-31.738,-25.879,91.797,0.000
1606136031.695,81.055,-31.738,-30.762,223.145,0.000
1606136031.699,-3.906,-40.527,-31.738,15.625,0.000
1606136031.703,-85.449,-33.203,-30.273,-227.539,0.000
1606136031.707,-70.801,-16.602,-32.715,-201.172,0.000
1606136031.711,23.926,-30.273,-26.855,67.871,0.000
1606136031.714,76.660,-31.738,-19.531,226.074,0.000
1606136031.718,3.418,-35.156,-29.785,55.664,0.000
1606136031.722,-95.703,-43.945,-37.598,-223.633,0.000
1606136031.726,-88.867,-36.621,-28.809,-247.559,0.000
1606136031.730,11.719,-30.762,-20.508,21.973,0.000
1606136031.734,70.801,-28.320,-20.508,214.844,0.000
1606136031.738,17.090,-32.227,-20.996,93.750,0.000
1606136031.742,-70.312,-38.574,-21.973,-178.711,0.000
1606136031.746,-82.520,-38.086,-23.926,-249.512,0.000
1606136031.750,0.000,-30.273,-19.043,5.371,0.000
1606136031.754,75.195,-19.531,-15.137,229.980,0.000
1606136031.757,33.203,-22.461,-18.555,129.883,0.000
1606136031.761,-80.566,-37.109,-28.809,-174.805,0.000
1606136031.765,-122.559,-23.926,-39.062,-302.734,0.000
1606136031.769,-40.527,-7.324,-33.691,-76.172,0.000
1606136031.773,45.410,-21.484,-24.902,178.223,0.000
1606136031.777,17.578,-27.344,-25.391,133.789,0.000
1606136031.781,-75.684,-37.109,-34.180,-142.090,0.000
1606136031.785,-111.816,-43.945,-38.574,-272.949,0.000
1606136031.789,-41.504,-35.156,-31.250,-94.238,0.000
1606136031.793,41.504,-32.715,-25.391,143.066,0.000
1606136031.797,22.949,-33.691,-26.855,143.555,0.000
1606136031.800,-76.660,-30.762,-31.250,-116.211,0.000
1606136031.804,-128.418,-35.156,-38.086,-291.504,0.000
1606136031.808,-70.312,-39.062,-35.645,-142.578,0.000
1606136031.812,30.273,-31.738,-21.973,133.301,0.000
1606136031.816,41.992,-27.344,-17.090,185.547,0.000
1606136031.820,-49.805,-30.273,-27.344,-71.289,0.000
1606136031.824,-112.793,-30.273,-28.809,-270.508,0.000
1606136031.828,-64.941,-24.414,-25.391,-161.133,0.000
1606136031.832,34.668,-20.996,-24.902,114.746,0.000
1606136031.836,48.828,-19.043,-21.973,196.289,0.000
1606136031.839,-39.062,-19.043,-22.949,-45.410,0.000
1606136031.843,-113.281,-20.020,-26.855,-265.625,0.000
1606136031.847,-81.055,-13.184,-27.344,-184.082,0.000
1606136031.851,19.043,-12.695,-23.438,94.727,0.000
1606136031.855,45.898,-16.113,-25.391,194.824,0.000
1606136031.859,-37.598,-29.785,-29.297,-26.855,0.000
1606136031.863,-118.164,-37.109,-30.762,-260.742,0.000
1606136031.867,-86.426,-22.949,-25.391,-216.309,0.000
1606136031.871,16.602,-18.555,-15.137,64.941,0.000
1606136031.875,52.246,-25.879,-18.555,210.449,0.000
1606136031.879,-15.625,-28.809,-27.344,32.227,0.000
1606136031.882,-100.586,-36.133,-29.785,-229.980,0.000
1606136031.886,-95.215,-36.621,-30.273,-249.023,0.000
1606136031.890,3.418,-26.367,-26.855,27.344,0.000
1606136031.894,61.035,-24.414,-21.973,213.379,0.000
1606136031.898,1.953,-28.809,-20.020,73.242,0.000
1606136031.902,-95.215,-28.320,-29.297,-201.172,0.000
1606136031.906,-115.723,-16.602,-36.621,-269.043,0.000
1606136031.910,-19.531,-8.789,-27.832,-14.160,0.000
1606136031.914,62.988,-12.695,-19.531,198.730,0.000
1606136031.918,14.160,-17.578,-19.531,95.703,0.000
1606136031.922,-82.031,-25.391,-23.926,-180.664,0.000
1606136031.925,-102.539,-28.809,-23.926,-267.090,0.000
1606136031.929,-25.879,-21.484,-27.832,-39.062,0.000
1606136031.933,56.152,-13.672,-30.762,182.129,0.000
1606136031.937,26.367,-13.184,-30.762,122.559,0.000
1606136031.941,-71.777,-17.578,-34.668,-142.578,0.000
1606136031.945,-105.469,-11.719,-41.992,-270.020,0.000
1606136031.949,-33.203,2.930,-38.086,-86.914,0.000
1606136031.953,55.664,-10.254,-27.832,161.621,0.000
1606136031.957,41.016,-23.438,-31.250,145.508,0.000
1606136031.961,-62.500,-23.926,-30.762,-122.559,0.000
1606136031.964,-109.863,-28.809,-28.809,-280.273,0.000
1606136031.968,-50.781,-31.250,-28.320,-126.953,0.000
1606136031.972,43.945,-20.996,-22.949,144.531,0.000
1606136031.976,53.223,-16.113,-25.391,184.570,0.000
1606136031.980,-50.781,-25.879,-27.832,-79.590,0.000
1606136031.984,-118.652,-30.273,-27.832,-262.207,0.000
1606136031.988,-65.430,-27.344,-29.297,-128.418,0.000
1606136031.992,24.902,-25.391,-21.484,129.883,0.000
1606136031.996,30.762,-23.926,-16.113,187.988,0.000
1606136032.000,-61.035,-32.227,-21.484,-52.734,0.000
1606136032.004,-129.395,-31.738,-26.855,-261.719,0.000
1606136032.007,-86.426,-26.367,-22.949,-183.594,0.000
1606136032.011,11.719,-24.414,-22.949,84.961,0.000
1606136032.015,31.250,-19.531,-21.973,188.965,0.000
1606136032.019,-48.828,-22.461,-23.438,-22.949,0.000
1606136032.023,-123.047,-31.738,-27.832,-250.977,0.000
1606136032.027,-102.051,-39.551,-25.391,-219.238,0.000
1606136032.031,1.953,-31.738,-19.043,64.453,0.000
1606136032.035,52.246,-21.484,-21.484,220.703,0.000
1606136032.039,-20.508,-25.879,-28.320,24.414,0.000
1606136032.043,-109.375,-31.250,-30.273,-236.328,0.000
1606136032.047,-102.539,-28.809,-34.668,-244.629,0.000
1606136032.050,-5.371,-23.926,-24.414,24.902,0.000
1606136032.054,51.758,-16.113,-16.602,206.055,0.000
1606136032.058,-6.836,-17.090,-26.855,56.641,0.000
1606136032.062,-96.680,-30.273,-30.762,-212.402,0.000
1606136032.066,-102.539,-28.809,-26.367,-249.023,0.000
1606136032.070,-7.324,-17.090,-20.508,11.719,0.000
1606136032.074,56.641,-17.090,-21.973,202.637,0.000
1606136032.078,9.766,-23.926,-20.508,96.680,0.000
1606136032.082,-84.961,-27.344,-20.020,-166.992,0.000
1606136032.086,-112.305,-27.344,-24.902,-254.883,0.000
1606136032.089,-40.527,-23.926,-27.344,-27.344,0.000
1606136032.093,25.391,-23.926,-26.367,191.895,0.000
1606136032.097,-2.930,-25.879,-22.949,120.605,0.000
1606136032.101,-96.191,-27.344,-25.391,-150.391,0.000
1606136032.105,-133.301,-31.738,-29.785,-263.184,0.000
1606136032.109,-52.246,-28.809,-23.438,-59.082,0.000
1606136032.113,40.039,-23.438,-21.484,178.711,0.000
1606136032.117,16.113,-31.250,-31.250,137.207,0.000
1606136032.121,-89.355,-36.621,-38.574,-145.508,0.000
1606136032.125,-126.953,-31.738,-36.621,-281.738,0.000
1606136032.129,-55.176,-26.855,-25.879,-92.773,0.000
1606136032.132,31.250,-25.391,-24.902,153.320,0.000
1606136032.136,37.109,-18.555,-19.531,158.691,0.000
1606136032.140,-58.594,-28.809,-19.043,-100.098,0.000
1606136032.144,-123.535,-27.832,-30.273,-282.227,0.000
1606136032.148,-70.312,-14.648,-34.668,-153.320,0.000
1606136032.152,28.320,-21.484,-29.297,124.023,0.000
1606136032.156,48.828,-23.438,-21.973,189.941,0.000
1606136032.160,-49.805,-29.785,-26.367,-56.641,0.000
1606136032.164,-120.605,-33.691,-28.320,-260.742,0.000
1606136032.168,-73.242,-32.715,-23.926,-165.039,0.000
1606136032.172,27.832,-31.738,-18.066,118.652,0.000
1606136032.175,57.129,-23.438,-11.719,220.703,0.000
1606136032.179,-32.227,-31.250,-9.277,-8.301,0.000
1606136032.183,-112.305,-36.621,-17.090,-242.676,0.000
1606136032.187,-84.473,-34.668,-22.949,-187.500,0.000
1606136032.191,24.414,-30.762,-18.066,103.027,0.000
1606136032.195,62.988,-23.926,-17.090,236.816,0.000
1606136032.199,-24.902,-32.227,-18.555,36.133,0.000
1606136032.203,-117.676,-39.551,-20.508,-219.727,0.000
1606136032.207,-103.027,-35.156,-19.043,-201.660,0.000
1606136032.211,-2.441,-29.785,-11.719,76.172,0.000
1606136032.214,45.410,-25.391,-10.742,232.910,0.000
1606136032.218,-16.602,-24.902,-20.508,69.336,0.000
1606136032.222,-98.633,-26.367,-25.391,-190.918,0.000
1606136032.226,-104.980,-12.695,-25.879,-232.422,0.000
1606136032.230,-17.578,-5.859,-21.484,12.207,0.000
1606136032.234,53.223,-18.066,-18.066,203.613,0.000
1606136032.238,8.301,-21.973,-17.090,93.262,0.000
1606136032.242,-84.961,-24.902,-20.996,-179.199,0.000
1606136032.246,-89.355,-26.367,-25.879,-246.094,0.000
1606136032.250,4.395,-20.508,-22.949,0.000,0.000
1606136032.254,81.543,-9.766,-21.973,213.379,0.000
1606136032.257,41.504,-12.695,-25.879,125.000,0.000
1606136032.261,-66.406,-29.785,-29.785,-161.621,0.000
1606136032.265,-96.191,-25.879,-30.762,-256.836,0.000
1606136032.269,-13.184,-18.066,-32.715,-42.969,0.000
1606136032.273,68.848,-21.484,-29.297,182.129,0.000
1606136032.277,35.156,-25.391,-26.855,148.926,0.000
1606136032.281,-74.219,-31.250,-24.414,-129.395,0.000
1606136032.285,-117.188,-18.555,-27.832,-265.137,0.000
1606136032.289,-47.363,-17.090,-32.715,-81.055,0.000
1606136032.293,39.062,-27.344,-31.250,168.945,0.000
1606136032.297,19.531,-31.738,-27.344,170.898,0.000
1606136032.300,-79.590,-41.016,-26.367,-98.633,0.000
1606136032.304,-122.070,-39.062,-26.855,-260.742,0.000
1606136032.308,-59.082,-33.203,-22.461,-110.840,0.000
1606136032.312,27.832,-31.738,-23.438,153.320,0.000
1606136032.316,40.527,-29.297,-26.367,220.215,0.000
1606136032.320,-39.062,-25.391,-35.156,-21.973,0.000
1606136032.324,-109.863,-16.602,-37.598,-245.117,0.000
1606136032.328,-79.102,1.953,-33.203,-149.902,0.000
1606136032.332,21.973,1.465,-30.273,129.395,0.000
1606136032.336,56.152,-13.184,-28.809,211.914,0.000
1606136032.339,-26.855,-15.625,-41.504,-25.391,0.000
1606136032.343,-96.680,-18.555,-51.270,-246.094,0.000
1606136032.347,-49.805,-23.438,-47.363,-156.738,0.000
1606136032.351,58.105,-16.113,-39.551,130.371,0.000
1606136032.355,83.984,-13.672,-37.109,239.746,0.000
1606136032.359,9.277,-19.043,-37.598,39.062,0.000
1606136032.363,-56.641,-19.531,-38.574,-202.637,0.000
1606136032.367,-34.180,-16.602,-50.293,-191.895,0.000
1606136032.371,73.730,-14.648,-49.805,96.191,0.000
1606136032.375,122.559,-8.789,-41.016,257.812,0.000
1606136032.379,43.457,-15.625,-48.340,66.895,0.000
1606136032.382,-47.852,-28.320,-51.758,-198.242,0.000
1606136032.386,-41.016,-29.297,-44.922,-204.102,0.000
1606136032.390,54.199,-24.902,-36.133,60.059,0.000
1606136032.394,109.863,-20.508,-35.156,236.328,0.000
1606136032.398,57.617,-21.484,-35.645,103.027,0.000
1606136032.402,-33.691,-24.902,-36.133,-163.574,0.000
1606136032.406,-48.828,-24.902,-37.109,-221.191,0.000
1606136032.410,41.992,-19.531,-30.273,33.691,0.000
1606136032.414,109.863,-17.090,-25.879,239.746,0.000
1606136032.418,59.570,-23.438,-28.809,129.395,0.000
1606136032.422,-43.945,-29.785,-22.949,-144.043,0.000
1606136032.425,-78.613,-20.508,-23.438,-241.699,0.000
1606136032.429,-0.977,-15.137,-35.645,-18.555,0.000
1606136032.433,73.730,-27.832,-31.250,219.727,0.000
1606136032.437,46.387,-30.762,-20.996,155.273,0.000
1606136032.441,-50.293,-30.273,-21.484,-124.512,0.000
1606136032.445,-89.844,-33.691,-27.832,-250.977,0.000
1606136032.449,-19.043,-38.086,-28.809,-55.176,0.000
1606136032.453,62.012,-37.109,-19.043,197.754,0.000
1606136032.457,40.527,-37.598,-19.043,179.688,0.000
1606136032.461,-67.383,-50.293,-29.297,-101.074,0.000
1606136032.464,-110.840,-26.367,-40.527,-261.719,0.000
1606136032.468,-51.270,-4.395,-37.109,-116.211,0.000
1606136032.472,49.805,-23.438,-22.949,163.086,0.000
1606136032.476,64.453,-26.855,-20.508,199.219,0.000
1606136032.480,-40.527,-32.227,-30.273,-84.961,0.000
1606136032.484,-102.539,-33.203,-35.645,-271.973,0.000
1606136032.488,-45.410,-32.227,-29.785,-132.324,0.000
1606136032.492,45.898,-29.785,-25.391,145.020,0.000
1606136032.496,58.594,-25.391,-25.391,206.055,0.000
1606136032.500,-29.785,-28.809,-28.809,-35.156,0.000
1606136032.504,-96.191,-20.020,-32.715,-242.188,0.000
1606136032.507,-66.406,13.184,-40.039,-173.340,0.000
1606136032.511,26.855,-1.953,-32.227,103.027,0.000
1606136032.515,62.500,-29.297,-20.020,213.379,0.000
1606136032.519,-15.625,-27.832,-18.066,1.953,0.000
1606136032.523,-93.262,-34.180,-20.020,-227.539,0.000
1606136032.527,-71.289,-33.691,-28.320,-198.242,0.000
1606136032.531,28.320,-26.367,-25.391,80.566,0.000
1606136032.535,74.219,-25.391,-19.531,236.328,0.000
1606136032.539,2.441,-27.832,-24.902,47.363,0.000
1606136032.543,-92.285,-28.809,-30.273,-212.402,0.000
1606136032.547,-82.031,-27.344,-29.785,-203.125,0.000
1606136032.550,23.926,-20.996,-29.785,85.938,0.000
1606136032.554,82.520,-23.438,-26.367,263.184,0.000
1606136032.558,0.000,-37.598,-21.484,84.961,0.000
1606136032.562,-112.305,-48.340,-30.273,-201.172,0.000
1606136032.566,-102.051,-25.879,-29.297,-223.145,0.000
1606136032.570,6.348,-20.996,-16.113,44.922,0.000
1606136032.574,59.570,-33.203,-14.160,229.492,0.000
1606136032.578,-1.953,-30.273,-17.578,102.051,0.000
1606136032.582,-92.773,-40.039,-25.879,-176.270,0.000
1606136032.586,-100.098,-40.527,-28.809,-247.070,0.000
1606136032.589,-6.348,-27.344,-19.043,-10.254,0.000
1606136032.593,64.453,-19.531,-14.648,201.172,0.000
1606136032.597,34.668,-17.090,-12.695,142.578,0.000
1606136032.601,-61.035,-28.320,-20.508,-139.160,0.000
1606136032.605,-108.398,-33.203,-35.645,-285.156,0.000
1606136032.609,-34.668,-20.508,-33.203,-75.195,0.000
1606136032.613,62.988,-20.020,-29.297,181.152,0.000
1606136032.617,46.387,-20.508,-27.344,151.367,0.000
1606136032.621,-53.711,-25.391,-25.879,-120.605,0.000
1606136032.625,-93.750,-28.320,-33.691,-267.578,0.000
1606136032.629,-30.273,-25.391,-30.762,-88.867,0.000
1606136032.632,54.688,-23.438,-23.438,178.711,0.000
1606136032.636,48.828,-22.461,-22.949,185.059,0.000
1606136032.640,-44.434,-28.809,-23.926,-89.844,0.000
1606136032.644,-100.586,-25.391,-27.832,-270.996,0.000
1606136032.648,-49.805,-21.484,-28.320,-140.625,0.000
1606136032.652,47.363,-23.926,-23.926,142.578,0.000
1606136032.656,60.059,-21.973,-27.344,193.848,0.000
1606136032.660,-31.250,-23.926,-32.227,-65.918,0.000
1606136032.664,-97.168,-26.367,-31.738,-256.348,0.000
1606136032.668,-56.641,-31.738,-31.250,-150.879,0.000
1606136032.672,33.203,-28.320,-24.414,123.535,0.000
1606136032.675,66.406,-21.484,-19.531,220.215,0.000
1606136032.679,-13.672,-30.273,-26.367,-6.348,0.000
1606136032.683,-117.676,-35.156,-35.645,-252.441,0.000
1606136032.687,-95.215,-32.715,-38.086,-199.707,0.000
1606136032.691,14.160,-25.391,-26.855,93.262,0.000
1606136032.695,49.316,-23.926,-22.461,213.867,0.000
1606136032.699,-38.086,-34.180,-30.273,-11.719,0.000
1606136032.703,-117.188,-40.039,-31.738,-255.371,0.000
1606136032.707,-95.703,-19.531,-21.484,-224.609,0.000
1606136032.711,4.395,-5.371,-19.531,53.223,0.000
1606136032.714,51.270,-17.578,-21.484,209.473,0.000
1606136032.718,-17.578,-27.832,-19.043,37.598,0.000
1606136032.722,-103.516,-28.320,-16.113,-219.238,0.000
1606136032.726,-101.074,-25.879,-19.043,-240.234,0.000
1606136032.730,-8.301,-26.367,-21.484,21.973,0.000
1606136032.734,53.711,-14.648,-19.531,217.285,0.000
1606136032.738,2.930,-19.531,-23.438,99.121,0.000
1606136032.742,-92.773,-35.645,-29.297,-182.129,0.000
1606136032.746,-110.352,-23.926,-32.715,-257.812,0.000
1606136032.750,-18.066,-14.648,-23.926,-5.859,0.000
1606136032.754,62.988,-15.137,-15.625,218.750,0.000
1606136032.757,24.414,-19.043,-20.996,128.906,0.000
1606136032.761,-76.172,-30.273,-27.832,-160.156,0.000
1606136032.765,-99.121,-26.367,-25.391,-263.672,0.000
1606136032.769,-22.461,-22.461,-19.531,-41.504,0.000
1606136032.773,52.246,-20.996,-17.090,190.918,0.000
1606136032.777,23.926,-26.855,-23.438,140.137,0.000
1606136032.781,-77.637,-34.668,-29.785,-140.137,0.000
1606136032.785,-122.559,-22.461,-31.250,-267.090,0.000
1606136032.789,-57.617,-17.578,-28.320,-75.684,0.000
1606136032.793,26.855,-28.809,-17.578,166.016,0.000
1606136032.797,10.742,-32.715,-19.043,162.109,0.000
1606136032.800,-80.566,-36.133,-26.855,-104.004,0.000
1606136032.804,-131.836,-32.715,-29.785,-266.602,0.000
1606136032.808,-72.754,-26.367,-28.320,-117.676,0.000
