timestamps,TP9,AF7,AF8,TP10,Right AUX
1606133808.440,0.000,0.000,0.000,0.000,0.000
1606133808.444,-0.488,0.000,-0.488,-1.465,0.000
1606133808.447,-0.488,-1.465,-0.977,3.418,0.000
1606133808.451,3.418,2.441,1.953,5.859,0.000
1606133808.455,-20.996,-12.695,-12.207,-30.762,0.000
1606133808.459,5.371,-31.738,-23.926,188.477,0.000
1606133808.463,33.691,-25.391,-20.508,304.199,0.000
1606133808.467,-52.246,-23.926,-30.273,-92.285,0.000
1606133808.471,-123.535,-28.809,-38.574,-415.039,0.000
1606133808.475,-83.984,-33.691,-33.203,-252.930,0.000
1606133808.479,30.273,-25.391,-20.508,199.707,0.000
1606133808.483,62.012,-20.508,-17.578,339.355,0.000
1606133808.487,-30.273,-31.250,-22.461,-27.344,0.000
1606133808.490,-110.840,-38.086,-29.297,-389.160,0.000
1606133808.494,-76.172,-32.715,-29.785,-285.645,0.000
1606133808.498,31.738,-23.438,-29.297,151.367,0.000
1606133808.502,72.754,-18.066,-30.762,328.613,0.000
1606133808.506,-15.137,-30.762,-26.367,25.391,0.000
1606133808.510,-120.117,-46.875,-25.391,-356.934,0.000
1606133808.514,-107.910,-42.969,-24.902,-335.449,0.000
1606133808.518,0.488,-30.762,-13.672,95.215,0.000
1606133808.522,51.758,-21.484,-15.625,328.125,0.000
1606133808.526,-19.531,-24.414,-22.949,66.895,0.000
1606133808.529,-110.840,-35.156,-21.973,-333.496,0.000
1606133808.533,-106.445,-36.133,-17.090,-361.816,0.000
1606133808.537,-9.766,-28.809,-20.996,47.363,0.000
1606133808.541,53.711,-26.855,-24.902,335.938,0.000
1606133808.545,1.465,-32.715,-31.738,137.695,0.000
1606133808.549,-98.145,-39.062,-41.992,-286.621,0.000
1606133808.553,-114.746,-44.922,-41.016,-379.883,0.000
1606133808.557,-26.367,-24.414,-32.715,-2.930,0.000
1606133808.561,42.480,-10.254,-29.297,315.430,0.000
1606133808.565,10.742,-23.926,-27.832,158.203,0.000
1606133808.569,-83.496,-33.203,-35.156,-269.531,0.000
1606133808.572,-115.723,-39.062,-36.621,-405.762,0.000
1606133808.576,-34.668,-37.598,-24.902,-72.266,0.000
1606133808.580,55.176,-28.320,-21.973,288.574,0.000
1606133808.584,38.086,-27.832,-28.809,215.820,0.000
1606133808.588,-72.266,-35.156,-28.320,-210.449,0.000
1606133808.592,-118.164,-38.086,-22.461,-404.297,0.000
1606133808.596,-45.898,-28.809,-22.461,-120.117,0.000
1606133808.600,47.363,-20.020,-18.555,283.203,0.000
1606133808.604,53.711,-6.348,-17.578,293.457,0.000
1606133808.608,-52.734,-12.695,-29.297,-144.531,0.000
1606133808.612,-114.746,-33.203,-28.320,-416.504,0.000
1606133808.615,-48.828,-31.738,-17.578,-181.152,0.000
1606133808.619,50.293,-26.855,-15.137,242.676,0.000
1606133808.623,59.570,-26.855,-12.695,304.199,0.000
1606133808.627,-35.156,-34.180,-14.648,-91.309,0.000
1606133808.631,-105.469,-38.086,-25.879,-400.391,0.000
1606133808.635,-69.336,-32.715,-32.715,-228.027,0.000
1606133808.639,23.438,-30.762,-32.227,206.055,0.000
1606133808.643,47.363,-29.785,-30.762,320.312,0.000
1606133808.647,-37.109,-31.738,-29.297,-42.969,0.000
1606133808.651,-116.699,-40.039,-28.809,-380.859,0.000
1606133808.654,-86.914,-22.461,-32.227,-277.344,0.000
1606133808.658,22.949,-3.418,-24.414,151.367,0.000
1606133808.662,62.988,-15.137,-15.625,334.961,0.000
1606133808.666,-22.461,-30.762,-28.320,18.066,0.000
1606133808.670,-108.887,-36.621,-37.109,-360.352,0.000
1606133808.674,-94.727,-33.203,-33.203,-307.617,0.000
1606133808.678,0.000,-31.250,-30.273,120.605,0.000
1606133808.682,55.176,-24.414,-19.043,350.098,0.000
1606133808.686,-4.395,-26.367,-25.391,79.102,0.000
1606133808.690,-100.586,-35.645,-39.551,-322.266,0.000
1606133808.694,-101.562,-29.785,-24.414,-339.844,0.000
1606133808.697,-4.883,-20.508,-19.531,69.336,0.000
1606133808.701,56.641,-20.508,-20.020,340.332,0.000
1606133808.705,3.906,-12.695,-28.320,119.629,0.000
1606133808.709,-101.562,-19.531,-35.645,-308.594,0.000
1606133808.713,-117.676,-32.715,-31.250,-387.207,0.000
1606133808.717,-20.996,-26.367,-19.531,1.465,0.000
1606133808.721,48.828,-20.996,-16.113,320.312,0.000
1606133808.725,4.883,-26.367,-19.043,166.504,0.000
1606133808.729,-98.145,-39.062,-15.625,-263.184,0.000
1606133808.733,-124.512,-36.621,-28.320,-410.156,0.000
1606133808.737,-45.898,-24.902,-39.551,-73.242,0.000
1606133808.740,14.648,-11.230,-25.879,248.047,0.000
1606133808.744,-29.297,-4.395,-18.066,137.695,0.000
1606133808.748,-128.418,-10.742,-22.949,-277.832,0.000
1606133808.752,-178.711,-13.672,-29.297,-493.652,0.000
1606133808.756,-126.465,11.719,-30.273,-223.145,0.000
1606133808.760,-40.039,21.973,-24.902,151.855,0.000
1606133808.764,-55.176,2.930,-25.879,125.488,0.000
1606133808.768,-161.133,0.488,-30.762,-311.523,0.000
1606133808.772,-215.820,-2.441,-40.527,-570.312,0.000
1606133808.776,-169.434,4.395,-44.922,-338.867,0.000
1606133808.779,-81.543,13.184,-44.434,70.312,0.000
1606133808.783,-74.219,4.395,-46.875,113.770,0.000
1606133808.787,-166.992,-1.465,-51.758,-293.945,0.000
1606133808.791,-235.840,-2.930,-53.711,-591.309,0.000
1606133808.795,-199.219,-0.488,-55.664,-418.457,0.000
1606133808.799,-91.309,3.418,-56.641,14.160,0.000
1606133808.803,-62.012,10.742,-52.246,144.043,0.000
1606133808.807,-152.832,8.789,-62.500,-205.078,0.000
1606133808.811,-227.051,-16.113,-73.730,-535.645,0.000
1606133808.815,-185.059,-20.996,-65.430,-411.621,0.000
1606133808.819,-65.918,-14.648,-62.988,40.527,0.000
1606133808.822,-20.020,2.441,-64.941,224.121,0.000
1606133808.826,-86.914,5.371,-67.383,-88.379,0.000
1606133808.830,-152.344,-7.324,-76.660,-443.848,0.000
1606133808.834,-121.094,-14.648,-73.730,-370.605,0.000
1606133808.838,-0.488,-11.230,-71.777,82.520,0.000
1606133808.842,54.688,-8.301,-68.848,296.387,0.000
1606133808.846,-4.883,-20.996,-62.500,30.273,0.000
1606133808.850,-87.891,-29.297,-67.383,-344.238,0.000
1606133808.854,-83.984,-31.250,-69.824,-349.609,0.000
1606133808.858,25.391,-25.391,-68.359,73.730,0.000
1606133808.862,96.191,-17.578,-58.105,350.098,0.000
1606133808.865,52.246,16.602,-53.223,152.832,0.000
1606133808.869,-45.410,-1.953,-66.895,-259.766,0.000
1606133808.873,-63.965,-53.711,-63.477,-345.215,0.000
1606133808.877,32.227,-41.504,-49.316,41.504,0.000
1606133808.881,105.957,-31.738,-46.875,358.887,0.000
1606133808.885,68.848,-7.324,-51.270,218.262,0.000
1606133808.889,-37.598,-11.719,-48.828,-216.797,0.000
1606133808.893,-67.871,-40.527,-43.945,-362.793,0.000
1606133808.897,17.578,-37.598,-45.898,-11.719,0.000
1606133808.901,110.840,-33.691,-41.016,348.633,0.000
1606133808.904,92.773,-35.645,-36.621,261.230,0.000
1606133808.908,-25.879,-39.551,-41.992,-185.059,0.000
1606133808.912,-72.754,-49.316,-40.527,-375.977,0.000
1606133808.916,8.301,-45.410,-35.156,-62.500,0.000
1606133808.920,104.004,-29.785,-31.738,321.777,0.000
1606133808.924,99.121,-21.484,-28.809,305.664,0.000
1606133808.928,-14.160,-30.273,-33.691,-124.023,0.000
1606133808.932,-70.801,-36.133,-40.527,-365.234,0.000
1606133808.936,1.953,-29.785,-37.109,-112.793,0.000
1606133808.940,99.121,-33.691,-30.273,287.109,0.000
1606133808.944,104.004,-19.043,-26.367,331.055,0.000
1606133808.947,3.906,-7.324,-26.855,-67.383,0.000
1606133808.951,-70.312,-37.598,-36.621,-356.445,0.000
1606133808.955,-26.367,-46.387,-35.156,-163.574,0.000
1606133808.959,77.637,-36.621,-24.414,260.254,0.000
1606133808.963,95.215,-34.180,-24.902,359.863,0.000
1606133808.967,-4.395,-36.621,-30.762,-14.160,0.000
1606133808.971,-81.543,-39.062,-35.645,-348.633,0.000
1606133808.975,-44.922,-36.621,-32.227,-221.680,0.000
1606133808.979,62.500,-37.109,-23.438,219.727,0.000
1606133808.983,92.285,-29.297,-32.715,371.582,0.000
1606133808.987,9.766,-15.137,-40.039,32.227,0.000
1606133808.990,-75.684,-39.551,-38.086,-333.008,0.000
1606133808.994,-61.523,-45.410,-34.180,-269.531,0.000
1606133808.998,42.969,-36.621,-34.180,154.785,0.000
1606133809.002,92.773,-38.574,-27.832,363.281,0.000
1606133809.006,19.531,-36.133,-22.949,87.891,0.000
1606133809.010,-77.637,-34.668,-37.109,-316.406,0.000
1606133809.014,-73.730,-35.156,-32.715,-325.684,0.000
1606133809.018,23.926,-39.551,-24.414,93.750,0.000
1606133809.022,87.402,-39.062,-26.855,359.863,0.000
1606133809.026,37.598,19.043,-19.043,156.250,0.000
1606133809.029,-67.383,9.277,-21.484,-268.555,0.000
1606133809.033,-92.773,-48.828,-31.738,-371.094,0.000
1606133809.037,3.906,-41.504,-18.066,24.902,0.000
1606133809.041,77.148,-33.203,-13.672,346.191,0.000
1606133809.045,31.738,-21.973,-20.020,179.199,0.000
1606133809.049,-68.848,-32.227,-17.578,-241.211,0.000
1606133809.053,-105.957,-43.945,-23.438,-367.188,0.000
1606133809.057,-20.996,-35.645,-23.438,-18.066,0.000
1606133809.061,76.172,-32.715,-18.066,334.961,0.000
1606133809.065,56.641,-34.180,-28.320,239.746,0.000
1606133809.069,-53.223,-32.227,-29.785,-193.359,0.000
1606133809.072,-97.656,-34.180,-28.320,-383.301,0.000
1606133809.076,-18.066,-34.180,-27.344,-77.148,0.000
1606133809.080,74.219,-36.621,-21.973,306.641,0.000
1606133809.084,69.824,6.348,-11.230,271.973,0.000
1606133809.088,-33.203,14.160,-10.254,-147.461,0.000
1606133809.092,-94.238,-37.598,-26.367,-389.160,0.000
1606133809.096,-36.621,-35.156,-30.273,-146.484,0.000
1606133809.100,64.453,-21.973,-21.973,257.324,0.000
1606133809.104,72.754,-18.066,-20.996,293.457,0.000
1606133809.108,-29.297,-21.484,-29.785,-117.188,0.000
1606133809.112,-95.703,-28.809,-31.738,-408.691,0.000
1606133809.115,-56.641,-31.738,-32.715,-215.820,0.000
1606133809.119,39.551,-36.133,-29.297,212.891,0.000
1606133809.123,62.012,-6.836,-22.949,309.570,0.000
1606133809.127,-35.645,35.156,-21.484,-66.895,0.000
1606133809.131,-121.582,-16.113,-30.762,-396.484,0.000
1606133809.135,-83.008,-51.270,-29.297,-250.977,0.000
1606133809.139,23.438,-40.039,-21.973,199.707,0.000
1606133809.143,55.176,-39.551,-18.555,345.215,0.000
1606133809.147,-27.832,-47.852,-22.949,4.883,0.000
1606133809.151,-116.211,-54.688,-33.691,-350.098,0.000
1606133809.154,-96.680,-46.387,-28.320,-271.973,0.000
1606133809.158,9.277,-42.480,-17.578,162.109,0.000
1606133809.162,52.734,-35.156,-20.508,362.305,0.000
1606133809.166,-16.602,-22.461,-19.531,80.566,0.000
1606133809.170,-108.398,-39.551,-21.484,-309.082,0.000
1606133809.174,-110.352,-49.805,-27.344,-320.312,0.000
1606133809.178,-9.277,-44.434,-20.020,97.168,0.000
1606133809.182,58.105,-44.434,-14.648,355.957,0.000
1606133809.186,0.000,-47.852,-11.719,125.000,0.000
1606133809.190,-104.004,-51.758,-16.113,-281.738,0.000
1606133809.194,-117.676,-54.199,-32.227,-349.609,0.000
1606133809.197,-20.020,-41.504,-30.762,45.898,0.000
1606133809.201,56.152,-36.133,-18.555,341.309,0.000
1606133809.205,17.578,-41.504,-23.926,164.551,0.000
1606133809.209,-82.031,-41.504,-31.738,-240.723,0.000
1606133809.213,-105.469,-43.457,-25.391,-355.957,0.000
1606133809.217,-18.555,-37.598,-25.879,-4.883,0.000
1606133809.221,62.988,-34.180,-27.344,320.801,0.000
1606133809.225,35.645,-13.184,-27.832,203.125,0.000
1606133809.229,-68.848,-6.348,-29.785,-222.656,0.000
1606133809.233,-106.445,-34.180,-33.691,-405.762,0.000
1606133809.237,-25.391,-35.645,-34.180,-96.680,0.000
1606133809.240,67.871,-28.809,-20.996,285.156,0.000
1606133809.244,49.805,-26.367,-22.461,247.559,0.000
1606133809.248,-59.570,-26.855,-31.738,-181.641,0.000
1606133809.252,-115.234,-30.762,-28.320,-412.109,0.000
1606133809.256,-52.734,-30.273,-23.926,-143.555,0.000
1606133809.260,47.852,-26.855,-21.973,266.113,0.000
1606133809.264,49.316,-6.836,-24.414,278.320,0.000
1606133809.268,-55.664,-6.348,-29.297,-138.184,0.000
1606133809.272,-125.977,-38.086,-28.320,-406.738,0.000
1606133809.276,-73.242,-35.156,-23.438,-189.941,0.000
1606133809.279,35.156,-22.461,-20.020,234.375,0.000
1606133809.283,57.129,-23.438,-19.531,322.754,0.000
1606133809.287,-45.410,-32.715,-24.414,-65.918,0.000
1606133809.291,-120.605,-35.156,-22.461,-388.672,0.000
1606133809.295,-77.637,-33.691,-23.438,-244.141,0.000
1606133809.299,29.297,-36.133,-22.949,178.711,0.000
1606133809.303,69.824,-9.766,-19.043,324.707,0.000
1606133809.307,-15.137,3.906,-30.273,-10.254,0.000
1606133809.311,-105.957,-31.250,-34.180,-377.441,0.000
1606133809.315,-84.473,-41.016,-31.250,-318.848,0.000
1606133809.319,25.879,-34.668,-27.344,113.770,0.000
1606133809.322,74.707,-18.066,-21.484,326.660,0.000
1606133809.326,-0.977,-4.883,-20.508,32.227,0.000
1606133809.330,-96.680,-26.367,-22.949,-361.328,0.000
1606133809.334,-92.773,-37.109,-26.367,-347.168,0.000
1606133809.338,13.184,-35.156,-22.461,78.613,0.000
1606133809.342,65.430,-30.273,-19.531,324.707,0.000
1606133809.346,-10.254,-31.738,-22.461,77.148,0.000
1606133809.350,-116.699,-42.969,-29.785,-329.590,0.000
1606133809.354,-121.094,-38.086,-33.691,-358.887,0.000
1606133809.358,-18.555,-29.785,-26.367,47.852,0.000
1606133809.362,48.828,-32.227,-21.973,332.031,0.000
1606133809.365,-0.977,-12.207,-23.438,154.785,0.000
1606133809.369,-109.375,-20.996,-25.391,-264.648,0.000
1606133809.373,-131.348,-44.922,-31.738,-381.348,0.000
1606133809.377,-38.574,-38.086,-30.762,-13.672,0.000
1606133809.381,38.574,-33.691,-25.879,319.336,0.000
1606133809.385,6.348,-35.156,-28.809,199.219,0.000
1606133809.389,-93.750,-36.133,-24.414,-230.957,0.000
1606133809.393,-126.465,-36.133,-22.461,-393.555,0.000
1606133809.397,-46.875,-30.273,-20.996,-61.035,0.000
1606133809.401,43.457,-28.809,-20.508,312.012,0.000
1606133809.404,31.738,-7.812,-22.461,249.023,0.000
1606133809.408,-72.754,5.859,-24.414,-191.895,0.000
1606133809.412,-130.859,-32.715,-28.320,-412.598,0.000
1606133809.416,-60.059,-38.574,-25.879,-131.348,0.000
1606133809.420,41.016,-30.273,-20.996,264.648,0.000
1606133809.424,38.086,-35.645,-27.832,267.090,0.000
1606133809.428,-62.500,-43.945,-40.527,-152.832,0.000
1606133809.432,-118.652,-43.457,-39.551,-421.387,0.000
1606133809.436,-60.059,-28.320,-31.738,-203.613,0.000
1606133809.440,37.109,-31.738,-33.203,208.496,0.000
1606133809.444,54.688,-9.277,-28.320,288.574,0.000
1606133809.447,-32.715,-0.977,-27.344,-83.984,0.000
1606133809.451,-113.281,-39.062,-35.156,-399.414,0.000
1606133809.455,-79.102,-36.621,-34.668,-247.070,0.000
1606133809.459,26.367,-28.809,-26.855,174.316,0.000
1606133809.463,56.152,-19.531,-24.414,308.105,0.000
1606133809.467,-36.621,-25.391,-30.273,-25.391,0.000
1606133809.471,-119.141,-41.016,-34.668,-367.188,0.000
1606133809.475,-89.844,-36.133,-34.180,-274.414,0.000
1606133809.479,11.719,-30.762,-29.785,158.203,0.000
1606133809.483,55.664,-22.949,-22.461,345.703,0.000
1606133809.487,-22.949,-26.855,-27.832,44.434,0.000
1606133809.490,-118.164,-35.156,-35.645,-334.473,0.000
1606133809.494,-105.469,-30.273,-29.297,-298.340,0.000
1606133809.498,-1.953,-27.344,-24.902,127.930,0.000
1606133809.502,42.969,-28.320,-28.320,338.867,0.000
1606133809.506,-29.297,10.254,-35.156,66.895,0.000
1606133809.510,-120.605,0.977,-40.039,-322.266,0.000
1606133809.514,-123.535,-44.434,-35.156,-360.840,0.000
1606133809.518,-18.066,-41.504,-25.391,40.039,0.000
1606133809.522,55.176,-32.227,-22.461,334.961,0.000
1606133809.526,-6.348,-31.738,-26.367,145.020,0.000
1606133809.529,-112.793,-43.457,-31.250,-288.086,0.000
1606133809.533,-125.000,-48.340,-33.691,-393.066,0.000
1606133809.537,-21.484,-34.180,-23.438,-9.277,0.000
1606133809.541,64.941,-27.344,-20.020,317.871,0.000
1606133809.545,27.344,-1.953,-25.879,180.176,0.000
1606133809.549,-82.031,-13.672,-28.809,-249.023,0.000
1606133809.553,-119.141,-52.734,-34.180,-415.039,0.000
1606133809.557,-29.785,-43.945,-33.203,-82.520,0.000
1606133809.561,62.988,-33.203,-27.344,283.203,0.000
1606133809.565,39.551,-33.691,-29.785,203.613,0.000
1606133809.569,-66.895,-37.598,-36.621,-223.145,0.000
1606133809.572,-116.699,-45.898,-36.621,-423.340,0.000
1606133809.576,-46.387,-39.551,-33.691,-147.461,0.000
1606133809.580,47.852,-27.832,-30.762,238.770,0.000
1606133809.584,38.086,-20.020,-33.203,246.094,0.000
1606133809.588,-62.012,-26.855,-41.992,-161.133,0.000
1606133809.592,-124.023,-40.527,-41.504,-419.922,0.000
1606133809.596,-67.871,-36.133,-35.645,-197.266,0.000
1606133809.600,29.297,-43.945,-36.133,203.125,0.000
1606133809.604,44.922,-14.160,-27.832,274.902,0.000
1606133809.608,-46.387,17.578,-20.020,-88.379,0.000
1606133809.612,-122.559,-23.438,-24.414,-385.742,0.000
1606133809.615,-82.031,-41.016,-30.762,-228.027,0.000
1606133809.619,18.066,-29.785,-28.809,201.660,0.000
1606133809.623,45.410,-25.391,-28.320,322.754,0.000
1606133809.627,-37.109,-30.762,-26.855,-20.996,0.000
1606133809.631,-115.723,-34.180,-27.832,-344.727,0.000
1606133809.635,-96.680,-35.645,-39.551,-259.277,0.000
1606133809.639,4.395,-35.156,-36.621,145.508,0.000
1606133809.643,45.898,-22.949,-31.250,318.848,0.000
1606133809.647,-39.062,-10.254,-36.133,14.648,0.000
1606133809.651,-122.559,-28.809,-42.969,-349.609,0.000
1606133809.654,-98.633,-35.156,-42.969,-311.035,0.000
1606133809.658,0.977,-33.691,-37.109,113.281,0.000
1606133809.662,51.270,-38.574,-32.715,340.820,0.000
1606133809.666,-6.836,-39.551,-32.715,83.984,0.000
1606133809.670,-97.168,-42.480,-33.203,-306.152,0.000
1606133809.674,-101.074,-42.480,-35.156,-344.238,0.000
1606133809.678,1.953,-38.086,-28.809,58.105,0.000
1606133809.682,68.848,-36.133,-22.461,345.703,0.000
1606133809.686,16.602,-4.395,-23.926,145.508,0.000
1606133809.690,-83.984,-4.883,-28.809,-271.973,0.000
1606133809.694,-103.516,-46.875,-29.297,-365.234,0.000
1606133809.697,-9.766,-45.410,-13.672,22.949,0.000
1606133809.701,62.500,-33.203,-6.348,343.750,0.000
1606133809.705,22.949,-30.762,-15.625,187.988,0.000
1606133809.709,-83.984,-48.340,-28.809,-250.488,0.000
1606133809.713,-118.652,-52.246,-27.344,-389.160,0.000
1606133809.717,-39.551,-41.016,-20.020,-47.852,0.000
1606133809.721,47.852,-36.621,-28.809,298.828,0.000
1606133809.725,29.297,-29.297,-29.297,222.656,0.000
1606133809.729,-77.148,-34.668,-28.320,-197.266,0.000
1606133809.733,-124.023,-44.434,-35.645,-399.414,0.000
1606133809.737,-51.270,-42.480,-29.785,-123.535,0.000
1606133809.740,39.551,-38.574,-21.484,261.719,0.000
1606133809.744,31.250,-10.742,-22.461,258.301,0.000
1606133809.748,-66.895,-11.719,-30.273,-159.668,0.000
1606133809.752,-123.047,-43.945,-36.621,-419.434,0.000
1606133809.756,-64.941,-42.480,-34.180,-184.570,0.000
1606133809.760,45.898,-26.367,-24.902,235.840,0.000
1606133809.764,55.664,-19.531,-27.344,290.527,0.000
1606133809.768,-51.270,-29.297,-37.109,-112.793,0.000
1606133809.772,-112.793,-43.945,-38.574,-397.949,0.000
1606133809.776,-61.523,-37.109,-27.832,-206.543,0.000
1606133809.779,34.668,-26.855,-28.809,199.219,0.000
1606133809.783,57.617,1.953,-34.668,295.898,0.000
1606133809.787,-31.250,44.922,-33.203,-57.617,0.000
1606133809.791,-122.070,3.418,-37.598,-403.809,0.000
1606133809.795,-92.773,-31.738,-39.062,-302.734,0.000
1606133809.799,12.695,-33.691,-36.133,126.953,0.000
1606133809.803,51.270,-30.273,-35.645,299.805,0.000
1606133809.807,-20.020,-28.320,-32.715,-4.883,0.000
1606133809.811,-98.633,-33.203,-32.227,-367.676,0.000
1606133809.815,-84.961,-29.297,-28.320,-324.707,0.000
1606133809.819,13.184,-28.320,-25.879,103.027,0.000
1606133809.822,69.336,-17.090,-20.508,336.914,0.000
1606133809.826,5.859,-5.859,-23.438,74.707,0.000
1606133809.830,-94.238,-29.785,-35.645,-318.848,0.000
1606133809.834,-98.145,-38.086,-32.715,-331.543,0.000
1606133809.838,3.418,-29.297,-26.367,84.473,0.000
1606133809.842,70.801,-28.809,-22.461,350.586,0.000
1606133809.846,17.090,-25.391,-20.020,145.508,0.000
1606133809.850,-84.473,-31.250,-19.531,-252.930,0.000
1606133809.854,-97.168,-32.715,-22.949,-331.055,0.000
1606133809.858,-4.883,-25.391,-27.832,45.410,0.000
1606133809.862,61.035,-30.273,-28.320,347.656,0.000
1606133809.865,20.996,-29.785,-24.414,197.266,0.000
1606133809.869,-79.590,-31.738,-23.926,-217.773,0.000
1606133809.873,-112.305,-39.551,-33.203,-363.281,0.000
1606133809.877,-18.066,-29.297,-31.250,-30.762,0.000
1606133809.881,66.406,-27.832,-22.949,309.082,0.000
1606133809.885,35.156,-11.719,-33.691,211.914,0.000
1606133809.889,-67.383,-0.488,-38.086,-210.938,0.000
1606133809.893,-113.281,-27.832,-32.227,-400.391,0.000
1606133809.897,-46.387,-33.203,-33.203,-114.746,0.000
1606133809.901,41.016,-24.414,-33.691,258.301,0.000
1606133809.904,37.109,-17.578,-33.691,237.305,0.000
1606133809.908,-62.500,-25.391,-34.668,-184.082,0.000
1606133809.912,-121.094,-33.691,-35.156,-419.434,0.000
1606133809.916,-57.617,-33.691,-31.250,-170.410,0.000
1606133809.920,34.180,-37.598,-29.785,214.844,0.000
1606133809.924,36.133,-15.625,-31.250,260.254,0.000
1606133809.928,-61.035,-11.230,-32.227,-122.559,0.000
1606133809.932,-135.254,-41.504,-39.551,-415.527,0.000
1606133809.936,-90.332,-44.922,-37.598,-236.328,0.000
1606133809.940,12.695,-36.133,-25.391,185.547,0.000
1606133809.944,35.156,-29.297,-24.414,287.109,0.000
1606133809.947,-57.129,-37.598,-33.691,-88.379,0.000
1606133809.951,-131.348,-42.480,-35.645,-406.738,0.000
1606133809.955,-93.262,-37.109,-34.180,-269.531,0.000
1606133809.959,19.043,-31.738,-30.762,168.945,0.000
1606133809.963,57.129,-15.137,-27.832,345.703,0.000
1606133809.967,-27.832,2.930,-36.133,15.137,0.000
1606133809.971,-121.094,-18.555,-41.016,-368.652,0.000
1606133809.975,-109.375,-38.086,-31.250,-322.754,0.000
1606133809.979,-0.488,-33.203,-30.273,115.723,0.000
1606133809.983,53.711,-33.203,-28.809,334.473,0.000
1606133809.987,-11.230,-39.062,-25.879,57.129,0.000
1606133809.990,-111.816,-43.945,-32.715,-330.566,0.000
1606133809.994,-112.305,-41.992,-34.668,-339.844,0.000
1606133809.998,-5.859,-37.109,-28.809,71.289,0.000
1606133810.002,57.129,-32.715,-24.902,336.426,0.000
1606133810.006,6.836,-31.250,-29.297,125.977,0.000
1606133810.010,-88.867,-36.133,-28.809,-277.832,0.000
1606133810.014,-96.680,-37.598,-23.926,-345.703,0.000
1606133810.018,2.930,-37.109,-23.926,41.504,0.000
1606133810.022,70.312,-29.785,-26.367,341.797,0.000
1606133810.026,25.879,-9.766,-26.855,180.664,0.000
1606133810.029,-79.590,-21.484,-23.438,-245.117,0.000
1606133810.033,-107.910,-42.969,-26.367,-372.070,0.000
1606133810.037,-18.066,-35.156,-20.996,-22.461,0.000
1606133810.041,67.383,-21.484,-11.719,328.613,0.000
1606133810.045,37.109,-25.879,-15.137,233.398,0.000
1606133810.049,-70.801,-39.551,-23.926,-199.707,0.000
1606133810.053,-109.863,-36.133,-27.344,-374.023,0.000
1606133810.057,-41.016,-26.855,-22.949,-68.359,0.000
1606133810.061,49.316,-26.855,-18.555,292.480,0.000
1606133810.065,41.016,-6.348,-17.578,261.230,0.000
1606133810.069,-68.848,-5.859,-24.414,-154.297,0.000
1606133810.072,-126.953,-40.039,-31.250,-395.020,0.000
1606133810.076,-61.523,-40.039,-25.391,-139.160,0.000
1606133810.080,33.691,-28.809,-14.160,266.602,0.000
1606133810.084,35.645,-32.715,-15.137,294.922,0.000
1606133810.088,-65.430,-40.039,-24.414,-110.840,0.000
1606133810.092,-136.230,-38.086,-28.320,-398.926,0.000
1606133810.096,-87.891,-28.809,-29.785,-213.867,0.000
1606133810.100,18.066,-25.879,-24.902,211.426,0.000
1606133810.104,43.945,-4.883,-18.555,315.918,0.000
1606133810.108,-50.781,-3.418,-30.762,-71.289,0.000
1606133810.112,-135.742,-40.039,-43.945,-408.203,0.000
1606133810.115,-103.027,-45.410,-41.016,-275.879,0.000
1606133810.119,8.789,-38.574,-34.180,157.715,0.000
1606133810.123,50.781,-35.645,-30.762,312.500,0.000
1606133810.127,-27.344,-34.180,-30.273,-17.090,0.000
1606133810.131,-111.816,-38.086,-33.203,-366.699,0.000
1606133810.135,-82.031,-36.621,-36.133,-287.598,0.000
1606133810.139,30.273,-28.320,-31.250,136.230,0.000
1606133810.143,73.730,-16.602,-21.484,329.590,0.000
1606133810.147,-7.812,-19.531,-20.508,44.434,0.000
1606133810.151,-104.980,-34.180,-22.949,-345.215,0.000
1606133810.154,-99.609,-31.738,-24.902,-362.305,0.000
1606133810.158,-6.348,-27.832,-22.949,47.852,0.000
1606133810.162,55.664,-22.949,-21.484,314.941,0.000
1606133810.166,2.930,5.371,-31.250,99.609,0.000
1606133810.170,-97.168,-5.859,-38.086,-302.734,0.000
1606133810.174,-100.098,-35.156,-33.203,-362.793,0.000
1606133810.178,1.465,-28.809,-21.484,37.109,0.000
1606133810.182,71.289,-23.926,-17.090,336.426,0.000
1606133810.186,17.090,-28.809,-21.484,160.645,0.000
1606133810.190,-86.426,-34.180,-19.043,-254.395,0.000
1606133810.194,-105.469,-29.785,-18.555,-362.793,0.000
1606133810.197,-25.879,-30.273,-25.879,-13.672,0.000
1606133810.201,54.199,-29.785,-25.391,312.012,0.000
1606133810.205,25.391,-18.066,-25.879,199.707,0.000
1606133810.209,-81.055,-27.832,-32.227,-228.516,0.000
1606133810.213,-115.723,-41.016,-34.180,-391.602,0.000
1606133810.217,-33.691,-29.785,-27.832,-70.312,0.000
1606133810.221,55.664,-25.879,-16.602,295.898,0.000
1606133810.225,38.086,-29.297,-13.672,248.535,0.000
1606133810.229,-64.941,-33.203,-21.484,-166.016,0.000
1606133810.233,-110.352,-33.691,-25.879,-393.066,0.000
1606133810.237,-40.527,-23.926,-18.555,-137.207,0.000
1606133810.240,57.617,-22.949,-16.113,260.254,0.000
1606133810.244,63.965,0.977,-16.602,296.387,0.000
1606133810.248,-37.598,16.602,-20.996,-105.469,0.000
1606133810.252,-102.539,-21.484,-29.785,-384.766,0.000
1606133810.256,-46.387,-28.809,-31.250,-181.641,0.000
1606133810.260,52.734,-22.461,-25.391,240.723,0.000
1606133810.264,62.012,-28.809,-23.926,320.312,0.000
1606133810.268,-35.645,-34.668,-31.250,-69.336,0.000
1606133810.272,-110.840,-37.598,-32.715,-389.160,0.000
1606133810.276,-69.824,-32.227,-32.715,-241.211,0.000
1606133810.279,38.086,-24.902,-31.250,185.059,0.000
1606133810.283,68.359,-20.996,-19.043,326.660,0.000
1606133810.287,-20.508,-24.902,-20.020,-5.859,0.000
1606133810.291,-113.770,-33.691,-26.367,-362.793,0.000
1606133810.295,-94.727,-34.180,-20.508,-289.551,0.000
1606133810.299,11.719,-31.738,-19.043,134.277,0.000
1606133810.303,54.199,-18.555,-23.438,322.266,0.000
1606133810.307,-22.461,-1.465,-24.414,32.227,0.000
1606133810.311,-121.094,-24.902,-27.832,-353.516,0.000
1606133810.315,-113.281,-34.180,-27.344,-338.379,0.000
1606133810.319,-3.906,-27.832,-19.531,85.938,0.000
1606133810.322,56.152,-29.785,-17.090,336.914,0.000
1606133810.326,-10.254,-35.645,-18.066,98.145,0.000
1606133810.330,-112.793,-45.898,-27.832,-319.336,0.000
1606133810.334,-127.441,-44.922,-37.598,-375.488,0.000
1606133810.338,-25.879,-35.645,-33.691,33.691,0.000
1606133810.342,51.758,-33.691,-31.250,328.613,0.000
1606133810.346,5.371,-6.836,-29.297,137.695,0.000
1606133810.350,-98.145,-10.742,-30.762,-290.527,0.000
1606133810.354,-123.047,-51.270,-40.527,-401.855,0.000
1606133810.358,-25.391,-43.945,-33.203,-24.414,0.000
1606133810.362,63.477,-33.691,-21.484,319.336,0.000
1606133810.365,31.250,-35.156,-16.602,197.266,0.000
1606133810.369,-79.102,-44.922,-15.137,-230.957,0.000
1606133810.373,-121.582,-44.434,-30.273,-404.297,0.000
1606133810.377,-42.969,-35.156,-33.691,-88.867,0.000
1606133810.381,49.316,-31.738,-24.902,297.363,0.000
1606133810.385,36.133,-9.766,-21.484,265.137,0.000
1606133810.389,-76.660,-19.531,-23.926,-176.758,0.000
1606133810.393,-135.254,-44.434,-27.832,-408.203,0.000
1606133810.397,-68.359,-39.551,-21.973,-125.977,0.000
1606133810.401,25.879,-32.715,-16.113,265.625,0.000
1606133810.404,23.438,-37.109,-21.484,268.066,0.000
1606133810.408,-69.824,-44.922,-33.691,-139.648,0.000
1606133810.412,-130.859,-41.016,-39.062,-409.180,0.000
1606133810.416,-77.148,-35.645,-21.973,-187.500,0.000
1606133810.420,28.809,-30.273,-15.625,238.770,0.000
1606133810.424,42.480,-24.902,-22.949,305.176,0.000
1606133810.428,-47.363,-33.691,-21.973,-80.078,0.000
1606133810.432,-115.234,-32.227,-23.926,-380.859,0.000
1606133810.436,-72.754,-22.461,-26.367,-228.027,0.000
1606133810.440,30.762,-29.785,-25.879,188.965,0.000
1606133810.444,60.547,1.465,-23.438,318.359,0.000
1606133810.447,-17.090,48.828,-30.273,-18.555,0.000
1606133810.451,-99.121,-0.488,-40.039,-360.840,0.000
1606133810.455,-83.008,-40.527,-36.133,-282.715,0.000
1606133810.459,17.090,-31.250,-28.809,130.859,0.000
1606133810.463,63.965,-26.855,-31.738,318.848,0.000
1606133810.467,-14.648,-31.738,-35.645,16.113,0.000
1606133810.471,-108.887,-40.527,-36.621,-357.910,0.000
1606133810.475,-94.238,-35.156,-35.156,-322.754,0.000
1606133810.479,9.766,-32.715,-30.762,88.379,0.000
1606133810.483,70.312,-20.020,-17.578,335.449,0.000
1606133810.487,9.766,0.488,-18.555,107.910,0.000
1606133810.490,-99.121,-30.762,-32.715,-314.453,0.000
1606133810.494,-112.305,-49.805,-34.180,-361.816,0.000
1606133810.498,-18.555,-39.062,-29.785,39.551,0.000
1606133810.502,47.852,-24.902,-24.414,319.824,0.000
1606133810.506,0.488,-22.461,-24.902,139.160,0.000
1606133810.510,-97.656,-34.180,-36.133,-283.203,0.000
1606133810.514,-120.117,-37.598,-39.062,-392.578,0.000
1606133810.518,-31.250,-34.668,-29.785,-24.902,0.000
1606133810.522,50.781,-35.156,-23.438,307.129,0.000
1606133810.526,19.043,0.000,-25.391,193.359,0.000
1606133810.529,-92.285,-12.695,-28.809,-237.305,0.000
1606133810.533,-133.301,-54.199,-36.621,-406.738,0.000
1606133810.537,-50.781,-47.852,-29.297,-83.984,0.000
1606133810.541,38.574,-40.039,-19.531,286.621,0.000
1606133810.545,23.438,-36.133,-25.879,234.375,0.000
1606133810.549,-75.195,-48.340,-31.250,-193.848,0.000
1606133810.553,-121.582,-49.805,-33.203,-402.832,0.000
1606133810.557,-49.805,-38.086,-29.785,-121.094,0.000
1606133810.561,49.316,-30.762,-25.879,266.113,0.000
1606133810.565,48.340,-32.227,-23.438,258.301,0.000
1606133810.569,-48.340,-37.109,-23.926,-154.297,0.000
1606133810.572,-107.910,-36.621,-28.809,-400.879,0.000
1606133810.576,-55.176,-40.527,-25.391,-184.570,0.000
1606133810.580,38.574,-45.410,-24.414,204.102,0.000
1606133810.584,58.105,-11.230,-19.043,282.227,0.000
1606133810.588,-29.297,-0.977,-22.461,-77.637,0.000
1606133810.592,-106.934,-38.086,-36.133,-390.137,0.000
1606133810.596,-61.035,-34.180,-31.738,-232.422,0.000
1606133810.600,46.387,-20.996,-26.367,197.754,0.000
1606133810.604,66.895,-20.996,-32.715,323.730,0.000
1606133810.608,-28.809,-34.180,-40.039,-36.133,0.000
1606133810.612,-109.375,-39.062,-35.645,-372.070,0.000
1606133810.615,-79.102,-33.691,-32.227,-261.719,0.000
1606133810.619,27.344,-31.738,-29.297,174.316,0.000
1606133810.623,60.059,-26.855,-24.414,339.844,0.000
1606133810.627,-24.902,-13.184,-26.367,24.902,0.000
1606133810.631,-115.723,-30.762,-34.668,-345.215,0.000
1606133810.635,-107.422,-47.363,-30.273,-320.801,0.000
1606133810.639,-3.418,-37.598,-29.297,95.703,0.000
1606133810.643,41.992,-35.156,-36.133,322.754,0.000
1606133810.647,-25.879,-37.109,-33.203,70.312,0.000
1606133810.651,-119.141,-39.062,-33.203,-319.824,0.000
1606133810.654,-128.418,-39.551,-39.551,-346.680,0.000
1606133810.658,-35.156,-37.109,-34.180,49.316,0.000
1606133810.662,38.086,-25.391,-20.020,333.984,0.000
1606133810.666,-4.883,-18.555,-23.926,143.555,0.000
1606133810.670,-106.445,-33.691,-28.320,-283.203,0.000
1606133810.674,-126.465,-40.527,-28.320,-384.766,0.000
1606133810.678,-32.715,-40.527,-30.762,-19.531,0.000
1606133810.682,51.270,-34.668,-28.320,300.781,0.000
1606133810.686,18.066,-26.855,-33.203,170.410,0.000
1606133810.690,-84.961,-34.180,-40.527,-253.906,0.000
1606133810.694,-118.164,-40.527,-39.551,-407.715,0.000
1606133810.697,-34.180,-35.156,-31.250,-67.383,0.000
1606133810.701,54.199,-26.855,-20.996,293.457,0.000
1606133810.705,32.227,-26.367,-20.996,214.355,0.000
1606133810.709,-71.777,-36.621,-31.738,-209.473,0.000
1606133810.713,-114.746,-33.691,-33.203,-391.113,0.000
1606133810.717,-38.574,-23.926,-30.273,-105.957,0.000
1606133810.721,58.594,-19.043,-24.414,268.066,0.000
1606133810.725,54.199,-0.488,-14.648,261.230,0.000
1606133810.729,-52.734,0.977,-15.625,-141.602,0.000
1606133810.733,-119.141,-25.879,-27.832,-397.461,0.000
1606133810.737,-61.035,-29.785,-37.598,-176.758,0.000
1606133810.740,44.922,-30.762,-33.203,235.352,0.000
1606133810.744,47.852,-34.668,-21.973,296.387,0.000
1606133810.748,-60.547,-39.062,-19.531,-89.844,0.000
1606133810.752,-136.230,-48.340,-17.578,-385.742,0.000
1606133810.756,-93.262,-43.945,-13.184,-211.914,0.000
1606133810.760,6.836,-47.852,-7.324,206.543,0.000
1606133810.764,21.484,-23.926,-0.488,312.012,0.000
1606133810.768,-67.871,-11.230,-0.977,-37.598,0.000
1606133810.772,-146.973,-53.223,-2.441,-369.141,0.000
1606133810.776,-121.094,-58.594,-0.977,-252.441,0.000
1606133810.779,-8.301,-48.828,1.465,177.246,0.000
1606133810.783,39.062,-45.898,10.742,349.121,0.000
1606133810.787,-34.180,-50.293,12.695,54.199,0.000
1606133810.791,-121.582,-57.129,6.836,-288.086,0.000
1606133810.795,-105.469,-59.082,12.695,-241.211,0.000
1606133810.799,7.812,-57.617,17.578,173.340,0.000
1606133810.803,67.871,-42.480,12.207,400.879,0.000
1606133810.807,16.113,-29.785,6.348,151.367,0.000
1606133810.811,-73.242,-57.129,-0.488,-240.234,0.000
1606133810.815,-70.801,-64.941,1.465,-259.277,0.000
1606133810.819,31.738,-53.223,13.672,137.695,0.000
1606133810.822,95.215,-38.086,16.602,404.297,0.000
1606133810.826,38.574,-24.902,7.812,201.172,0.000
1606133810.830,-59.082,-43.457,2.930,-208.496,0.000
1606133810.834,-67.871,-52.734,4.395,-285.156,0.000
1606133810.838,25.879,-48.340,3.906,88.867,0.000
1606133810.842,97.656,-44.922,-1.465,393.066,0.000
1606133810.846,51.758,-43.945,-12.207,231.445,0.000
1606133810.850,-52.246,-55.664,-20.996,-187.988,0.000
1606133810.854,-77.148,-56.641,-17.090,-311.523,0.000
1606133810.858,3.418,-49.316,-7.812,7.324,0.000
1606133810.862,81.543,-41.992,-5.859,344.238,0.000
1606133810.865,57.617,-14.648,-10.254,266.602,0.000
1606133810.869,-50.293,-25.391,-18.066,-157.715,0.000
1606133810.873,-95.215,-46.387,-24.414,-350.586,0.000
1606133810.877,-16.602,-35.645,-19.531,-61.523,0.000
1606133810.881,78.613,-30.273,-12.207,308.105,0.000
1606133810.885,72.266,-28.809,-16.602,292.480,0.000
1606133810.889,-30.762,-35.645,-21.973,-116.211,0.000
1606133810.893,-87.402,-41.016,-25.879,-356.934,0.000
1606133810.897,-23.926,-36.133,-22.949,-120.117,0.000
1606133810.901,71.777,-36.133,-15.625,285.156,0.000
1606133810.904,78.125,-4.883,-13.672,327.637,0.000
1606133810.908,-22.461,14.160,-22.461,-77.148,0.000
1606133810.912,-101.562,-33.203,-29.785,-371.582,0.000
1606133810.916,-58.105,-49.316,-28.809,-201.172,0.000
1606133810.920,41.016,-45.898,-23.926,203.613,0.000
1606133810.924,62.500,-44.922,-20.020,324.707,0.000
1606133810.928,-23.926,-42.969,-18.066,-17.578,0.000
1606133810.932,-112.305,-49.316,-22.949,-346.680,0.000
1606133810.936,-84.473,-46.387,-21.484,-231.934,0.000
1606133810.940,24.414,-37.598,-20.508,182.129,0.000
1606133810.944,55.176,-18.066,-26.855,336.426,0.000
1606133810.947,-20.508,-13.672,-26.367,29.785,0.000
1606133810.951,-106.445,-46.387,-27.832,-336.914,0.000
1606133810.955,-90.332,-51.758,-29.785,-284.180,0.000
1606133810.959,21.973,-40.527,-22.949,140.137,0.000
1606133810.963,72.754,-20.508,-11.230,353.516,0.000
1606133810.967,-2.441,-25.391,-15.625,88.867,0.000
1606133810.971,-98.145,-44.434,-25.879,-298.828,0.000
1606133810.975,-94.238,-41.992,-25.879,-308.594,0.000
1606133810.979,6.348,-37.109,-20.508,92.773,0.000
1606133810.983,65.918,-28.320,-19.531,351.074,0.000
1606133810.987,13.672,-31.250,-20.996,138.184,0.000
1606133810.990,-79.590,-34.668,-22.949,-260.254,0.000
1606133810.994,-91.797,-28.809,-27.344,-328.125,0.000
1606133810.998,-1.953,-35.645,-30.762,29.785,0.000
1606133811.002,68.848,-30.273,-26.367,312.988,0.000
1606133811.006,36.621,13.184,-21.973,169.434,0.000
1606133811.010,-62.988,3.418,-28.320,-236.328,0.000
1606133811.014,-102.051,-36.621,-23.926,-375.000,0.000
1606133811.018,-22.949,-32.227,-21.484,-32.227,0.000
1606133811.022,60.059,-23.926,-28.320,307.129,0.000
1606133811.026,34.180,-24.414,-34.180,212.891,0.000
1606133811.029,-72.266,-33.691,-36.621,-212.891,0.000
1606133811.033,-109.375,-29.297,-32.715,-382.324,0.000
1606133811.037,-34.180,-23.438,-26.855,-81.055,0.000
1606133811.041,47.852,-24.902,-28.809,271.484,0.000
1606133811.045,35.645,-4.395,-27.344,244.141,0.000
1606133811.049,-69.336,-11.230,-30.273,-175.293,0.000
1606133811.053,-126.465,-36.133,-36.133,-413.086,0.000
1606133811.057,-56.152,-25.391,-26.367,-155.762,0.000
1606133811.061,40.039,-21.484,-24.414,234.863,0.000
1606133811.065,38.086,-26.855,-29.297,259.277,0.000
1606133811.069,-61.523,-33.691,-29.297,-129.395,0.000
1606133811.072,-130.371,-37.598,-25.391,-402.832,0.000
1606133811.076,-90.332,-40.527,-25.879,-231.934,0.000
1606133811.080,3.906,-37.598,-26.367,157.227,0.000
1606133811.084,30.273,-24.902,-24.414,267.090,0.000
1606133811.088,-54.688,-28.809,-32.227,-73.730,0.000
1606133811.092,-132.324,-43.945,-38.086,-390.625,0.000
1606133811.096,-100.586,-45.410,-36.621,-270.020,0.000
1606133811.100,4.395,-41.504,-25.391,146.973,0.000
1606133811.104,42.480,-17.090,-15.625,310.547,0.000
1606133811.108,-37.598,-6.836,-27.832,-6.836,0.000
1606133811.112,-125.488,-40.527,-34.180,-355.469,0.000
1606133811.115,-106.445,-48.828,-28.320,-292.480,0.000
1606133811.119,3.418,-32.227,-26.367,119.141,0.000
1606133811.123,60.059,-25.391,-24.414,323.242,0.000
1606133811.127,-5.859,-30.273,-28.809,54.199,0.000
1606133811.131,-99.609,-32.715,-34.668,-310.547,0.000
1606133811.135,-95.703,-28.320,-34.180,-305.176,0.000
1606133811.139,4.395,-24.902,-28.320,87.402,0.000
1606133811.143,74.707,-13.184,-20.996,345.703,0.000
1606133811.147,17.090,-4.395,-17.090,130.371,0.000
1606133811.151,-96.680,-27.832,-19.043,-267.090,0.000
1606133811.154,-120.605,-47.852,-24.902,-339.844,0.000
1606133811.158,-24.902,-48.828,-19.531,36.621,0.000
1606133811.162,53.223,-34.180,-12.207,341.309,0.000
1606133811.166,4.395,-32.715,-15.137,169.922,0.000
1606133811.170,-104.492,-39.551,-23.438,-259.277,0.000
1606133811.174,-135.254,-39.062,-27.344,-387.207,0.000
1606133811.178,-53.223,-35.645,-19.531,-39.551,0.000
1606133811.182,33.203,-26.855,-13.184,302.734,0.000
1606133811.186,9.277,0.488,-15.625,202.637,0.000
1606133811.190,-99.121,-13.184,-23.438,-228.516,0.000
1606133811.194,-145.508,-46.875,-24.414,-407.227,0.000
1606133811.197,-70.801,-41.016,-17.090,-95.703,0.000
1606133811.201,28.809,-31.250,-16.113,274.414,0.000
1606133811.205,21.973,-31.738,-16.113,240.234,0.000
1606133811.209,-76.172,-36.133,-20.020,-176.270,0.000
1606133811.213,-125.000,-36.133,-28.320,-396.973,0.000
1606133811.217,-56.641,-37.598,-27.832,-130.371,0.000
1606133811.221,42.480,-35.645,-23.438,243.164,0.000
1606133811.225,44.434,-27.832,-30.762,257.324,0.000
1606133811.229,-55.664,-31.250,-37.598,-133.789,0.000
1606133811.233,-125.488,-40.039,-38.086,-412.109,0.000
1606133811.237,-75.684,-37.598,-40.039,-216.309,0.000
1606133811.240,36.621,-29.297,-29.297,199.219,0.000
1606133811.244,69.824,-17.578,-14.648,307.129,0.000
1606133811.248,-24.902,-24.414,-22.949,-54.688,0.000
1606133811.252,-107.910,-41.016,-36.621,-371.094,0.000
1606133811.256,-69.336,-38.574,-31.250,-234.863,0.000
1606133811.260,30.273,-32.715,-22.461,185.059,0.000
1606133811.264,57.129,-25.391,-20.996,320.801,0.000
1606133811.268,-30.762,-33.203,-19.531,-20.020,0.000
1606133811.272,-112.793,-42.480,-26.367,-367.676,0.000
1606133811.276,-78.613,-31.738,-28.809,-281.738,0.000
1606133811.279,21.484,-27.344,-23.926,142.090,0.000
1606133811.283,57.617,-22.461,-22.949,327.637,0.000
1606133811.287,-12.207,-9.766,-13.672,36.133,0.000
1606133811.291,-105.469,-28.320,-21.484,-334.473,0.000
1606133811.295,-111.328,-44.922,-36.133,-331.543,0.000
1606133811.299,-12.695,-38.574,-29.297,69.824,0.000
1606133811.303,52.246,-29.297,-19.531,323.242,0.000
1606133811.307,-6.348,-25.879,-22.461,85.938,0.000
1606133811.311,-103.027,-30.273,-23.438,-304.688,0.000
1606133811.315,-109.375,-26.855,-12.207,-351.074,0.000
1606133811.319,-14.648,-14.160,-2.930,35.156,0.000
1606133811.322,45.410,-9.277,-21.973,322.754,0.000
1606133811.326,-15.137,-10.254,-35.645,128.418,0.000
1606133811.330,-118.652,-35.156,-33.691,-300.293,0.000
1606133811.334,-138.672,-44.922,-37.109,-407.715,0.000
1606133811.338,-61.035,-35.645,-20.020,-55.176,0.000
1606133811.342,11.230,-29.297,-6.348,257.324,0.000
1606133811.346,-21.484,-23.438,-4.395,145.996,0.000
1606133811.350,-132.324,-46.875,7.324,-269.531,0.000
1606133811.354,-168.457,-44.922,-5.859,-433.105,0.000
1606133811.358,-89.355,-16.602,-3.906,-135.742,0.000
1606133811.362,-20.996,-7.324,9.766,194.336,0.000
1606133811.365,-66.406,-15.625,0.977,113.770,0.000
1606133811.369,-180.176,-25.879,-17.578,-310.547,0.000
1606133811.373,-241.699,-24.414,-16.113,-532.227,0.000
1606133811.377,-201.172,-22.461,-3.418,-305.664,0.000
1606133811.381,-111.816,-3.418,4.883,62.500,0.000
1606133811.385,-117.676,1.465,1.953,69.824,0.000
1606133811.389,-229.980,-10.254,-13.672,-343.750,0.000
1606133811.393,-296.387,-2.930,-17.578,-606.934,0.000
1606133811.397,-259.277,8.789,-18.066,-416.504,0.000
1606133811.401,-161.621,14.648,-9.277,-19.043,0.000
1606133811.404,-143.066,8.789,-13.184,55.176,0.000
1606133811.408,-240.234,5.371,-23.438,-326.172,0.000
1606133811.412,-307.617,9.766,-10.254,-623.047,0.000
1606133811.416,-271.973,9.766,-16.602,-470.215,0.000
1606133811.420,-175.781,9.766,-29.785,-62.012,0.000
1606133811.424,-143.555,11.230,-28.320,67.383,0.000
1606133811.428,-218.750,13.672,-23.438,-247.559,0.000
1606133811.432,-289.062,17.578,-27.344,-566.406,0.000
1606133811.436,-253.906,17.090,-34.180,-494.629,0.000
1606133811.440,-145.020,20.020,-29.785,-79.102,0.000
1606133811.444,-93.750,20.508,-33.691,127.441,0.000
1606133811.447,-160.645,11.719,-44.922,-144.531,0.000
1606133811.451,-250.488,11.719,-52.734,-502.441,0.000
1606133811.455,-231.934,15.625,-52.246,-486.816,0.000
1606133811.459,-123.047,12.695,-49.316,-63.965,0.000
1606133811.463,-51.758,16.602,-50.293,202.148,0.000
1606133811.467,-93.262,27.344,-66.406,-32.715,0.000
1606133811.471,-180.664,7.324,-82.520,-423.340,0.000
1606133811.475,-164.062,-7.812,-76.660,-441.406,0.000
1606133811.479,-48.340,7.324,-69.824,-19.531,0.000
1606133811.483,22.949,5.371,-69.824,271.484,0.000
1606133811.487,-15.137,-14.648,-66.895,90.332,0.000
1606133811.490,-101.074,-19.531,-70.801,-296.387,0.000
1606133811.494,-105.469,-15.137,-74.219,-378.418,0.000
1606133811.498,12.695,-12.207,-62.500,2.441,0.000
1606133811.502,98.633,-4.395,-64.453,339.844,0.000
1606133811.506,62.500,-13.672,-70.312,225.098,0.000
1606133811.510,-29.297,-31.250,-68.848,-179.688,0.000
1606133811.514,-54.688,-35.645,-75.195,-328.125,0.000
1606133811.518,36.621,-32.227,-72.754,-8.789,0.000
1606133811.522,127.930,-32.715,-62.500,350.098,0.000
1606133811.526,116.211,-29.297,-51.758,306.152,0.000
1606133811.529,18.555,-33.203,-59.082,-106.445,0.000
1606133811.533,-32.715,-42.480,-69.336,-315.430,0.000
1606133811.537,39.062,-41.016,-65.918,-39.551,0.000
1606133811.541,145.020,-29.785,-56.641,347.656,0.000
1606133811.545,144.043,-27.344,-56.152,344.727,0.000
1606133811.549,37.598,-41.016,-65.918,-71.289,0.000
1606133811.553,-21.973,-44.922,-69.336,-320.312,0.000
1606133811.557,36.621,-34.180,-59.570,-81.543,0.000
1606133811.561,130.859,-31.250,-52.734,316.895,0.000
1606133811.565,141.602,-24.414,-53.711,369.141,0.000
1606133811.569,49.805,-17.578,-52.734,-0.977,0.000
1606133811.572,-15.137,-36.621,-54.199,-301.270,0.000
1606133811.576,22.949,-43.945,-57.129,-152.344,0.000
1606133811.580,120.605,-39.062,-53.223,259.766,0.000
1606133811.584,148.438,-39.062,-40.527,375.977,0.000
1606133811.588,55.176,-46.875,-39.062,38.086,0.000
1606133811.592,-27.344,-47.852,-42.480,-293.457,0.000
1606133811.596,-5.859,-42.969,-47.363,-203.613,0.000
1606133811.600,98.145,-39.062,-46.387,228.027,0.000
1606133811.604,142.090,-27.344,-42.969,410.645,0.000
1606133811.608,59.570,-28.809,-50.293,91.797,0.000
1606133811.612,-30.273,-49.316,-44.922,-268.066,0.000
1606133811.615,-16.602,-55.176,-41.016,-228.027,0.000
1606133811.619,88.867,-45.898,-38.086,179.688,0.000
1606133811.623,141.602,-38.574,-30.762,401.855,0.000
1606133811.627,68.848,-44.434,-35.645,153.320,0.000
1606133811.631,-35.645,-45.410,-45.898,-238.281,0.000
1606133811.635,-44.922,-41.016,-48.340,-281.738,0.000
1606133811.639,47.363,-40.039,-37.109,104.492,0.000
1606133811.643,107.910,-43.457,-33.203,372.559,0.000
1606133811.647,58.594,-44.922,-41.992,176.758,0.000
1606133811.651,-38.086,-48.340,-40.527,-227.539,0.000
1606133811.654,-59.570,-54.199,-38.086,-319.336,0.000
1606133811.658,26.367,-44.922,-41.504,38.574,0.000
1606133811.662,103.516,-32.715,-37.109,350.098,0.000
1606133811.666,69.824,-5.859,-31.738,217.773,0.000
1606133811.670,-37.598,-7.324,-36.133,-201.660,0.000
1606133811.674,-74.219,-37.598,-37.598,-353.516,0.000
1606133811.678,7.324,-35.645,-28.809,-29.297,0.000
1606133811.682,93.262,-26.367,-28.809,323.242,0.000
1606133811.686,73.242,-25.391,-35.645,251.953,0.000
1606133811.690,-36.621,-35.645,-37.109,-173.828,0.000
1606133811.694,-86.914,-39.062,-37.598,-369.141,0.000
1606133811.697,-12.207,-29.785,-35.645,-82.031,0.000
1606133811.701,71.777,-31.250,-36.621,272.461,0.000
1606133811.705,63.477,-16.113,-25.879,261.719,0.000
1606133811.709,-31.738,-25.879,-23.438,-129.395,0.000
1606133811.713,-88.867,-49.316,-38.086,-375.977,0.000
1606133811.717,-37.598,-36.133,-35.156,-153.320,0.000
1606133811.721,56.152,-25.391,-31.250,243.164,0.000
1606133811.725,68.359,-23.438,-41.504,289.551,0.000
1606133811.729,-26.367,-27.344,-43.457,-82.031,0.000
1606133811.733,-101.074,-35.156,-42.969,-366.211,0.000
1606133811.737,-59.082,-30.762,-39.551,-203.125,0.000
1606133811.740,46.875,-30.273,-26.367,219.238,0.000
1606133811.744,74.219,-8.789,-22.949,337.402,0.000
1606133811.748,-15.625,3.906,-24.902,-17.090,0.000
1606133811.752,-104.004,-36.133,-29.297,-359.375,0.000
1606133811.756,-82.031,-46.387,-37.109,-262.695,0.000
1606133811.760,23.926,-33.203,-31.250,161.621,0.000
1606133811.764,67.871,-29.297,-21.973,333.496,0.000
1606133811.768,-10.254,-34.180,-28.320,21.484,0.000
1606133811.772,-99.121,-41.504,-34.180,-342.285,0.000
1606133811.776,-82.520,-40.527,-35.645,-290.527,0.000
1606133811.779,21.484,-33.203,-29.785,134.766,0.000
1606133811.783,79.590,-29.297,-25.391,351.562,0.000
1606133811.787,13.184,-36.133,-27.344,87.891,0.000
1606133811.791,-91.797,-42.969,-36.621,-309.082,0.000
1606133811.795,-101.074,-43.457,-44.434,-344.238,0.000
1606133811.799,-1.465,-42.480,-35.156,53.711,0.000
1606133811.803,66.406,-19.531,-27.344,324.219,0.000
1606133811.807,15.137,-4.395,-25.391,126.953,0.000
1606133811.811,-91.797,-30.762,-36.621,-290.527,0.000
1606133811.815,-115.723,-41.992,-45.898,-381.836,0.000
1606133811.819,-20.020,-36.133,-34.668,-4.395,0.000
1606133811.822,60.059,-26.855,-26.855,313.477,0.000
1606133811.826,17.090,-30.273,-29.297,173.828,0.000
1606133811.830,-85.938,-41.992,-36.621,-242.676,0.000
1606133811.834,-108.887,-41.992,-38.574,-373.047,0.000
1606133811.838,-18.555,-32.715,-33.691,-25.391,0.000
1606133811.842,61.035,-28.809,-30.762,314.453,0.000
1606133811.846,31.250,16.113,-28.320,220.703,0.000
1606133811.850,-75.195,15.137,-33.691,-206.543,0.000
1606133811.854,-114.746,-41.504,-35.645,-387.695,0.000
1606133811.858,-37.598,-40.039,-29.297,-92.285,0.000
1606133811.862,52.734,-24.414,-26.367,280.273,0.000
1606133811.865,47.363,-21.973,-26.367,266.113,0.000
1606133811.869,-58.105,-36.133,-31.250,-153.320,0.000
1606133811.873,-118.652,-41.504,-42.480,-404.297,0.000
1606133811.877,-55.176,-36.621,-40.039,-168.457,0.000
1606133811.881,50.293,-26.855,-32.227,241.699,0.000
1606133811.885,59.082,-3.906,-34.180,288.574,0.000
1606133811.889,-41.016,-12.207,-37.109,-112.793,0.000
1606133811.893,-109.863,-35.645,-41.016,-396.973,0.000
1606133811.897,-65.430,-30.273,-35.645,-204.590,0.000
1606133811.901,40.527,-24.902,-29.297,219.238,0.000
1606133811.904,64.453,-25.391,-32.715,312.500,0.000
1606133811.908,-20.020,-26.855,-30.762,-52.246,0.000
1606133811.912,-94.727,-33.203,-37.109,-385.254,0.000
1606133811.916,-54.688,-29.297,-41.992,-257.812,0.000
1606133811.920,54.688,-14.160,-34.668,167.480,0.000
1606133811.924,83.496,-5.859,-27.832,313.965,0.000
1606133811.928,-1.465,-12.207,-29.297,-2.441,0.000
1606133811.932,-96.191,-24.902,-33.203,-355.957,0.000
1606133811.936,-83.984,-25.879,-31.738,-301.270,0.000
1606133811.940,20.996,-25.879,-26.855,110.352,0.000
1606133811.944,67.871,-5.371,-22.461,331.055,0.000
1606133811.947,-5.859,24.902,-21.973,72.266,0.000
1606133811.951,-91.797,-10.254,-26.367,-307.617,0.000
1606133811.955,-95.215,-38.574,-33.691,-321.777,0.000
1606133811.959,-1.953,-23.926,-28.320,78.613,0.000
1606133811.963,68.359,-18.555,-19.043,333.984,0.000
1606133811.967,7.812,-27.344,-21.484,117.676,0.000
1606133811.971,-98.145,-41.992,-29.785,-290.039,0.000
1606133811.975,-113.281,-41.016,-36.621,-360.352,0.000
1606133811.979,-13.672,-37.109,-22.461,36.621,0.000
1606133811.983,68.848,-19.531,-4.883,347.168,0.000
1606133811.987,22.949,1.465,-22.461,174.316,0.000
1606133811.990,-94.238,-23.438,-32.227,-262.207,0.000
1606133811.994,-120.117,-33.691,-31.738,-381.836,0.000
1606133811.998,-30.762,-31.738,-32.715,-30.762,0.000
1606133812.002,52.734,-29.785,-26.367,309.082,0.000
1606133812.006,29.297,-25.391,-25.391,211.914,0.000
1606133812.010,-80.078,-29.297,-33.691,-209.473,0.000
1606133812.014,-117.676,-25.391,-40.527,-397.461,0.000
1606133812.018,-35.645,-22.461,-24.902,-104.004,0.000
1606133812.022,49.316,-24.902,-17.578,269.531,0.000
1606133812.026,39.062,14.160,-26.855,243.652,0.000
1606133812.029,-60.059,11.719,-35.156,-179.199,0.000
1606133812.033,-114.258,-34.668,-34.180,-411.621,0.000
1606133812.037,-51.758,-40.039,-26.855,-155.762,0.000
1606133812.041,45.898,-35.645,-29.297,254.883,0.000
1606133812.045,50.781,-27.344,-28.809,289.062,0.000
1606133812.049,-50.293,-37.598,-26.367,-127.930,0.000
1606133812.053,-120.117,-43.457,-31.738,-402.832,0.000
1606133812.057,-73.242,-36.621,-26.367,-199.707,0.000
1606133812.061,28.320,-29.297,-20.508,200.684,0.000
1606133812.065,42.480,-22.461,-17.578,292.480,0.000
1606133812.069,-50.781,-28.320,-14.648,-50.781,0.000
1606133812.072,-131.348,-39.551,-25.391,-375.977,0.000
1606133812.076,-85.449,-37.598,-23.438,-245.605,0.000
1606133812.080,30.273,-38.086,-14.648,181.641,0.000
1606133812.084,50.293,-16.602,-15.137,318.848,0.000
1606133812.088,-35.156,-5.371,-17.090,-14.160,0.000
1606133812.092,-109.375,-35.645,-24.414,-344.727,0.000
1606133812.096,-85.449,-40.527,-24.414,-261.230,0.000
1606133812.100,11.230,-34.180,-17.090,132.324,0.000
1606133812.104,54.199,-30.273,-11.719,331.055,0.000
1606133812.108,-13.184,-27.832,-12.695,54.199,0.000
1606133812.112,-101.074,-29.785,-20.020,-330.566,0.000
1606133812.115,-99.609,-34.668,-18.555,-333.008,0.000
1606133812.119,9.277,-34.668,-17.090,88.379,0.000
1606133812.123,66.895,-23.926,-24.902,335.449,0.000
1606133812.127,-3.418,-16.113,-30.273,90.332,0.000
1606133812.131,-113.281,-26.367,-36.621,-329.590,0.000
1606133812.135,-123.535,-34.180,-39.551,-390.625,0.000
1606133812.139,-22.949,-33.203,-38.574,3.906,0.000
1606133812.143,49.805,-27.832,-36.133,308.105,0.000
1606133812.147,15.625,-27.832,-35.156,141.602,0.000
1606133812.151,-81.543,-30.762,-41.992,-281.738,0.000
1606133812.154,-110.840,-32.227,-42.969,-397.949,0.000
1606133812.158,-16.113,-31.738,-30.762,-28.809,0.000
1606133812.162,75.684,-20.996,-22.461,322.754,0.000
1606133812.166,49.805,0.488,-22.461,214.844,0.000
1606133812.170,-68.359,-18.555,-29.785,-229.492,0.000
1606133812.174,-120.117,-43.945,-41.992,-412.109,0.000
1606133812.178,-34.668,-38.574,-39.551,-98.145,0.000
1606133812.182,50.781,-28.320,-30.273,274.414,0.000
1606133812.186,22.461,-33.203,-37.598,228.516,0.000
1606133812.190,-85.449,-42.480,-39.062,-198.242,0.000
1606133812.194,-138.672,-41.504,-31.250,-418.457,0.000
1606133812.197,-65.430,-41.016,-29.785,-142.578,0.000
1606133812.201,38.574,-36.133,-18.555,263.184,0.000
1606133812.205,38.086,-35.156,-19.531,276.855,0.000
1606133812.209,-62.012,-41.504,-23.438,-132.324,0.000
1606133812.213,-124.023,-41.992,-23.438,-395.996,0.000
1606133812.217,-71.289,-40.039,-26.367,-193.359,0.000
1606133812.221,36.133,-39.062,-24.414,212.891,0.000
1606133812.225,61.523,-13.672,-23.438,292.969,0.000
1606133812.229,-34.180,-0.488,-24.902,-88.379,0.000
1606133812.233,-118.164,-36.621,-29.297,-407.227,0.000
1606133812.237,-71.289,-43.457,-25.391,-250.000,0.000
1606133812.240,34.668,-37.109,-23.926,176.758,0.000
1606133812.244,64.941,-33.203,-20.996,323.242,0.000
1606133812.248,-16.113,-36.133,-22.949,-10.742,0.000
1606133812.252,-106.445,-47.363,-30.762,-378.906,0.000
1606133812.256,-81.055,-38.086,-28.320,-304.199,0.000
1606133812.260,28.809,-29.785,-23.438,142.090,0.000
1606133812.264,68.359,-8.789,-23.926,334.473,0.000
1606133812.268,-19.043,-2.930,-26.855,21.973,0.000
1606133812.272,-134.766,-44.434,-38.086,-375.977,0.000
1606133812.276,-120.117,-47.852,-42.480,-353.516,0.000
1606133812.279,-13.184,-39.062,-35.156,83.496,0.000
1606133812.283,37.598,-36.621,-26.367,334.473,0.000
1606133812.287,-15.625,-34.668,-19.531,96.191,0.000
1606133812.291,-119.141,-45.410,-23.926,-306.641,0.000
1606133812.295,-125.488,-43.457,-21.484,-355.957,0.000
1606133812.299,-24.414,-39.062,-18.555,33.203,0.000
1606133812.303,44.434,-21.973,-22.949,331.543,0.000
1606133812.307,0.488,-1.953,-19.531,170.898,0.000
1606133812.311,-108.398,-32.715,-25.879,-262.695,0.000
1606133812.315,-138.184,-47.852,-31.738,-390.137,0.000
1606133812.319,-40.039,-40.039,-24.902,-24.414,0.000
1606133812.322,40.039,-29.785,-22.949,310.547,0.000
1606133812.326,0.977,-24.414,-24.902,191.895,0.000
1606133812.330,-104.492,-45.410,-30.762,-237.793,0.000
1606133812.334,-140.137,-49.805,-34.668,-397.949,0.000
1606133812.338,-52.734,-40.527,-24.902,-65.430,0.000
1606133812.342,45.410,-32.227,-23.926,302.734,0.000
1606133812.346,32.227,-25.879,-25.879,244.141,0.000
1606133812.350,-76.172,-39.062,-28.320,-175.293,0.000
1606133812.354,-131.348,-46.387,-36.621,-393.555,0.000
1606133812.358,-59.570,-45.410,-36.133,-137.695,0.000
1606133812.362,45.898,-36.133,-25.391,258.789,0.000
1606133812.365,55.664,-17.578,-17.090,285.645,0.000
1606133812.369,-43.457,-23.926,-18.555,-111.816,0.000
1606133812.373,-112.793,-37.598,-23.438,-380.371,0.000
1606133812.377,-53.711,-34.180,-20.508,-173.340,0.000
1606133812.381,48.828,-26.855,-17.578,241.699,0.000
1606133812.385,58.594,-14.160,-15.137,320.312,0.000
1606133812.389,-32.227,-22.949,-15.625,-60.547,0.000
1606133812.393,-107.422,-35.156,-20.996,-369.629,0.000
1606133812.397,-70.801,-31.738,-22.461,-217.773,0.000
1606133812.401,34.180,-32.715,-20.996,205.566,0.000
1606133812.404,59.082,-7.812,-21.484,325.684,0.000
1606133812.408,-30.273,7.812,-31.738,-30.762,0.000
1606133812.412,-110.840,-28.320,-33.691,-377.441,0.000
1606133812.416,-85.449,-40.527,-32.227,-284.180,0.000
1606133812.420,19.043,-30.762,-25.879,147.949,0.000
1606133812.424,61.523,-25.391,-31.250,331.055,0.000
1606133812.428,-20.508,-30.273,-37.109,32.227,0.000
1606133812.432,-112.305,-38.574,-27.344,-328.613,0.000
1606133812.436,-103.516,-39.062,-30.273,-298.828,0.000
1606133812.440,-2.930,-38.574,-32.715,104.004,0.000
1606133812.444,55.664,-14.648,-27.832,345.703,0.000
1606133812.447,-7.812,-7.812,-28.809,106.445,0.000
1606133812.451,-112.305,-38.574,-36.133,-298.828,0.000
1606133812.455,-113.281,-38.574,-39.062,-338.867,0.000
1606133812.459,-7.324,-31.250,-30.762,45.898,0.000
1606133812.463,65.430,-21.484,-25.391,327.637,0.000
1606133812.467,17.090,-21.973,-22.461,147.461,0.000
1606133812.471,-91.309,-44.434,-27.832,-273.438,0.000
1606133812.475,-112.793,-41.992,-25.879,-377.441,0.000
1606133812.479,-16.113,-31.250,-22.461,-5.859,0.000
1606133812.483,68.848,-26.855,-27.832,319.336,0.000
1606133812.487,39.062,-28.320,-28.809,188.965,0.000
1606133812.490,-64.453,-37.109,-31.250,-232.422,0.000
1606133812.494,-96.680,-31.250,-34.668,-375.977,0.000
1606133812.498,-13.184,-21.973,-28.320,-47.852,0.000
1606133812.502,82.031,-21.973,-21.973,300.781,0.000
1606133812.506,55.664,17.090,-15.625,226.074,0.000
1606133812.510,-65.430,17.578,-19.531,-188.477,0.000
1606133812.514,-115.234,-34.180,-26.855,-388.184,0.000
1606133812.518,-46.875,-35.156,-22.461,-134.766,0.000
1606133812.522,45.898,-26.855,-16.602,247.559,0.000
1606133812.526,43.457,-25.391,-21.973,259.766,0.000
1606133812.529,-61.523,-32.715,-28.809,-147.461,0.000
1606133812.533,-129.395,-43.457,-27.344,-404.297,0.000
1606133812.537,-73.242,-38.574,-24.902,-178.223,0.000
1606133812.541,26.855,-32.715,-25.879,229.492,0.000
1606133812.545,39.551,-26.367,-22.949,288.574,0.000
1606133812.549,-53.711,-27.832,-27.832,-92.773,0.000
1606133812.553,-125.000,-41.504,-34.668,-391.602,0.000
1606133812.557,-80.566,-39.062,-26.367,-222.168,0.000
1606133812.561,21.484,-32.227,-30.273,200.195,0.000
1606133812.565,50.293,-23.926,-33.691,312.988,0.000
1606133812.569,-39.062,-29.785,-37.598,-35.645,0.000
1606133812.572,-124.512,-36.133,-41.016,-373.047,0.000
1606133812.576,-93.750,-34.180,-37.109,-275.879,0.000
1606133812.580,17.090,-33.203,-31.738,143.555,0.000
1606133812.584,62.012,-27.344,-28.320,319.824,0.000
1606133812.588,-12.695,-24.902,-28.320,33.691,0.000
1606133812.592,-98.145,-30.762,-23.438,-331.543,0.000
1606133812.596,-93.262,-36.133,-29.785,-313.477,0.000
1606133812.600,1.465,-34.668,-27.344,91.797,0.000
1606133812.604,55.176,-20.508,-23.926,325.684,0.000
1606133812.608,-12.695,-23.926,-26.855,77.148,0.000
1606133812.612,-109.863,-42.969,-33.203,-313.965,0.000
1606133812.615,-114.746,-44.434,-40.039,-349.609,0.000
1606133812.619,-14.160,-34.668,-32.227,50.293,0.000
1606133812.623,49.316,-18.066,-29.785,325.195,0.000
1606133812.627,-2.930,-13.672,-28.809,129.395,0.000
1606133812.631,-99.609,-31.738,-26.855,-270.508,0.000
1606133812.635,-112.305,-37.598,-32.715,-353.516,0.000
1606133812.639,-12.695,-30.762,-32.227,14.160,0.000
1606133812.643,68.848,-15.625,-19.531,320.801,0.000
1606133812.647,21.484,-3.418,-22.949,181.641,0.000
1606133812.651,-85.449,-27.832,-29.297,-231.445,0.000
1606133812.654,-114.746,-43.945,-31.250,-378.906,0.000
1606133812.658,-34.180,-32.227,-31.250,-55.664,0.000
1606133812.662,55.664,-19.531,-20.996,291.504,0.000
1606133812.666,38.086,-18.066,-19.043,219.727,0.000
1606133812.670,-61.523,-30.762,-30.762,-199.707,0.000
1606133812.674,-101.074,-34.180,-35.156,-395.996,0.000
1606133812.678,-26.367,-31.250,-30.762,-103.027,0.000
1606133812.682,71.289,-24.414,-24.902,283.203,0.000
1606133812.686,68.848,-11.719,-20.508,278.320,0.000
1606133812.690,-45.410,-20.020,-30.273,-144.531,0.000
1606133812.694,-117.676,-40.039,-44.922,-411.621,0.000
1606133812.697,-47.852,-32.227,-36.621,-167.969,0.000
1606133812.701,46.387,-25.879,-24.414,233.398,0.000
1606133812.705,45.410,-26.367,-25.391,282.227,0.000
1606133812.709,-48.340,-28.320,-27.832,-95.703,0.000
1606133812.713,-115.723,-36.133,-28.809,-379.883,0.000
1606133812.717,-70.312,-36.621,-32.227,-207.520,0.000
1606133812.721,30.762,-28.809,-33.203,202.148,0.000
1606133812.725,52.246,-24.414,-26.855,311.523,0.000
1606133812.729,-38.086,-23.926,-20.508,-38.574,0.000
1606133812.733,-124.512,-34.668,-26.855,-373.535,0.000
1606133812.737,-96.680,-32.715,-35.645,-265.625,0.000
1606133812.740,10.254,-26.367,-30.273,153.809,0.000
1606133812.744,51.758,-18.555,-19.531,331.055,0.000
1606133812.748,-28.320,-17.578,-25.391,24.414,0.000
1606133812.752,-119.629,-31.250,-34.180,-352.539,0.000
1606133812.756,-103.516,-28.809,-33.203,-311.523,0.000
1606133812.760,2.930,-21.484,-30.273,118.164,0.000
1606133812.764,54.688,-18.555,-26.367,333.984,0.000
1606133812.768,-12.207,-23.926,-32.227,62.012,0.000
1606133812.772,-104.004,-28.320,-39.551,-322.266,0.000
1606133812.776,-108.398,-27.344,-41.016,-335.449,0.000
1606133812.779,-4.883,-24.902,-30.762,62.988,0.000
1606133812.783,59.570,-18.555,-25.391,307.129,0.000
1606133812.787,2.930,-6.836,-25.391,99.609,0.000
1606133812.791,-95.215,-26.367,-20.996,-286.133,0.000
1606133812.795,-107.422,-43.945,-17.090,-363.281,0.000
1606133812.799,-16.602,-34.668,-18.066,2.441,0.000
1606133812.803,52.246,-27.832,-20.996,310.059,0.000
1606133812.807,13.184,-30.762,-22.949,166.504,0.000
1606133812.811,-94.238,-42.480,-25.879,-249.512,0.000
1606133812.815,-128.906,-46.875,-33.203,-388.672,0.000
1606133812.819,-35.156,-38.574,-25.879,-40.527,0.000
1606133812.822,52.246,-25.391,-24.414,305.664,0.000
1606133812.826,21.973,-15.625,-31.250,208.008,0.000
1606133812.830,-74.707,-27.344,-34.180,-208.008,0.000
1606133812.834,-116.699,-43.945,-30.273,-387.695,0.000
1606133812.838,-54.688,-40.527,-21.973,-91.309,0.000
1606133812.842,38.574,-31.738,-20.996,276.367,0.000
1606133812.846,32.227,-24.902,-16.113,257.324,0.000
1606133812.850,-71.777,-34.180,-19.531,-157.227,0.000
1606133812.854,-127.441,-42.480,-25.391,-390.625,0.000
1606133812.858,-65.430,-38.086,-20.020,-146.973,0.000
1606133812.862,35.645,-34.180,-16.602,239.746,0.000
1606133812.865,52.246,-23.438,-15.625,287.598,0.000
1606133812.869,-35.156,-22.461,-19.531,-90.820,0.000
1606133812.873,-99.609,-29.297,-27.832,-376.465,0.000
1606133812.877,-55.176,-28.809,-30.762,-210.938,0.000
1606133812.881,43.457,-30.273,-31.738,186.523,0.000
1606133812.885,68.848,3.418,-25.879,297.852,0.000
1606133812.889,-28.320,18.555,-31.738,-59.082,0.000
1606133812.893,-117.188,-24.414,-41.504,-394.043,0.000
1606133812.897,-81.543,-33.691,-25.391,-265.137,0.000
1606133812.901,18.555,-26.367,-15.625,156.738,0.000
1606133812.904,59.082,-21.484,-27.832,310.059,0.000
1606133812.908,-14.648,-28.809,-30.762,-7.812,0.000
1606133812.912,-119.141,-41.504,-41.504,-358.398,0.000
1606133812.916,-104.004,-37.598,-42.480,-286.621,0.000
1606133812.920,2.441,-33.203,-32.715,125.977,0.000
1606133812.924,53.223,-3.906,-26.367,331.543,0.000
1606133812.928,-13.672,10.742,-23.438,61.035,0.000
1606133812.932,-110.840,-26.367,-28.320,-315.918,0.000
1606133812.936,-107.422,-35.645,-25.391,-318.848,0.000
1606133812.940,-7.812,-28.809,-28.320,80.078,0.000
1606133812.944,50.293,-21.973,-31.738,333.496,0.000
1606133812.947,-6.836,-22.949,-25.391,118.164,0.000
1606133812.951,-108.887,-35.156,-26.855,-285.645,0.000
1606133812.955,-124.512,-41.992,-35.645,-354.980,0.000
1606133812.959,-31.250,-33.691,-31.738,28.320,0.000
1606133812.963,49.316,-21.484,-22.949,334.473,0.000
1606133812.967,18.555,2.930,-18.555,177.734,0.000
1606133812.971,-82.031,-9.766,-25.879,-255.371,0.000
1606133812.975,-107.422,-39.551,-33.203,-367.676,0.000
1606133812.979,-18.066,-29.297,-20.508,-11.230,0.000
1606133812.983,57.617,-26.855,-26.367,300.293,0.000
1606133812.987,27.832,-36.621,-39.062,187.500,0.000
1606133812.990,-79.590,-40.527,-43.945,-241.699,0.000
1606133812.994,-117.188,-35.156,-46.387,-404.785,0.000
1606133812.998,-33.691,-26.367,-36.133,-95.703,0.000
1606133813.002,59.570,-20.996,-22.949,269.043,0.000
1606133813.006,51.758,-22.949,-27.344,249.023,0.000
1606133813.010,-49.805,-33.203,-34.180,-158.691,0.000
1606133813.014,-106.934,-38.574,-33.203,-391.113,0.000
1606133813.018,-48.340,-33.691,-32.227,-144.043,0.000
1606133813.022,40.039,-28.320,-33.203,240.723,0.000
1606133813.026,39.551,-14.160,-32.715,270.996,0.000
1606133813.029,-62.012,-32.227,-35.645,-125.488,0.000
1606133813.033,-129.883,-50.293,-35.645,-401.367,0.000
1606133813.037,-79.102,-36.133,-27.832,-199.219,0.000
1606133813.041,28.320,-25.879,-17.090,212.402,0.000
1606133813.045,56.641,-22.949,-16.602,294.922,0.000
1606133813.049,-47.852,-29.785,-33.691,-78.613,0.000
1606133813.053,-122.559,-36.133,-33.691,-355.957,0.000
1606133813.057,-79.102,-31.250,-29.297,-208.496,0.000
1606133813.061,10.254,-31.250,-26.855,169.922,0.000
1606133813.065,42.480,-15.137,-21.973,312.500,0.000
1606133813.069,-36.133,-0.977,-26.367,-12.207,0.000
1606133813.072,-121.582,-33.203,-29.785,-359.375,0.000
1606133813.076,-102.539,-46.875,-29.297,-288.574,0.000
1606133813.080,5.371,-36.133,-30.762,128.418,0.000
1606133813.084,61.035,-25.391,-20.508,334.961,0.000
1606133813.088,-8.301,-31.738,-24.414,50.293,0.000
1606133813.092,-102.051,-38.574,-40.039,-346.191,0.000
1606133813.096,-95.215,-35.156,-38.574,-353.027,0.000
1606133813.100,3.418,-38.086,-25.879,65.430,0.000
1606133813.104,65.918,-9.766,-23.926,327.637,0.000
1606133813.108,5.859,0.977,-36.133,88.867,0.000
1606133813.112,-102.051,-35.156,-42.480,-332.031,0.000
1606133813.115,-107.422,-40.527,-38.086,-393.066,0.000
1606133813.119,-10.742,-27.344,-31.250,-2.930,0.000
1606133813.123,55.664,-18.555,-29.297,288.086,0.000
1606133813.127,6.836,-25.879,-27.832,115.723,0.000
1606133813.131,-100.098,-35.156,-29.785,-297.363,0.000
1606133813.135,-123.535,-40.039,-30.762,-402.344,0.000
1606133813.139,-37.598,-41.504,-32.715,-49.805,0.000
1606133813.143,45.898,-32.715,-29.297,285.645,0.000
1606133813.147,23.926,-29.785,-22.461,193.848,0.000
1606133813.151,-83.008,-40.039,-32.227,-214.844,0.000
1606133813.154,-125.977,-41.992,-33.691,-387.695,0.000
1606133813.158,-45.410,-37.109,-27.832,-72.266,0.000
1606133813.162,45.898,-30.762,-23.926,296.387,0.000
1606133813.166,30.273,9.277,-14.648,255.859,0.000
1606133813.170,-74.707,3.906,-18.555,-152.344,0.000
1606133813.174,-132.324,-46.875,-29.785,-381.836,0.000
1606133813.178,-64.941,-45.898,-34.668,-128.906,0.000
1606133813.182,31.738,-36.133,-29.785,263.184,0.000
1606133813.186,27.344,-35.645,-26.367,288.086,0.000
1606133813.190,-70.801,-44.434,-33.691,-120.605,0.000
1606133813.194,-134.277,-53.223,-37.109,-384.277,0.000
1606133813.197,-78.125,-48.340,-30.762,-170.898,0.000
1606133813.201,27.832,-42.969,-22.461,227.051,0.000
1606133813.205,53.223,0.977,-19.043,309.082,0.000
1606133813.209,-38.574,0.977,-23.926,-63.477,0.000
1606133813.213,-114.258,-37.109,-26.367,-371.094,0.000
1606133813.217,-76.660,-32.227,-26.855,-226.562,0.000
1606133813.221,25.391,-30.762,-33.203,180.664,0.000
1606133813.225,56.641,-29.297,-29.785,308.105,0.000
1606133813.229,-31.250,-32.227,-30.762,-26.855,0.000
1606133813.233,-116.699,-39.062,-44.922,-368.652,0.000
1606133813.237,-93.750,-29.297,-38.086,-282.227,0.000
1606133813.240,14.160,-17.090,-21.484,144.043,0.000
1606133813.244,63.477,19.043,-20.996,338.379,0.000
1606133813.248,-17.090,37.109,-35.645,37.109,0.000
1606133813.252,-118.652,-21.973,-43.457,-352.539,0.000
1606133813.256,-111.328,-43.457,-38.574,-336.426,0.000
1606133813.260,-10.254,-29.785,-29.297,79.102,0.000
1606133813.264,49.805,-23.926,-24.902,314.453,0.000
1606133813.268,-9.766,-31.738,-36.621,68.848,0.000
1606133813.272,-107.422,-43.457,-42.480,-328.125,0.000
1606133813.276,-110.840,-38.574,-35.645,-363.770,0.000
1606133813.279,-16.602,-32.715,-33.691,26.855,0.000
1606133813.283,52.246,-30.273,-32.227,303.223,0.000
1606133813.287,7.812,-28.809,-35.156,124.023,0.000
1606133813.291,-98.145,-40.527,-45.898,-282.715,0.000
1606133813.295,-125.488,-46.387,-41.504,-386.719,0.000
1606133813.299,-32.227,-43.945,-33.691,-29.297,0.000
1606133813.303,55.664,-25.391,-28.320,298.828,0.000
1606133813.307,25.879,-1.465,-25.879,192.383,0.000
1606133813.311,-83.984,-29.785,-37.109,-224.609,0.000
1606133813.315,-124.023,-47.852,-36.621,-391.602,0.000
1606133813.319,-36.621,-29.297,-26.855,-70.312,0.000
1606133813.322,58.594,-26.855,-31.738,290.039,0.000
1606133813.326,54.688,-27.832,-27.344,242.188,0.000
1606133813.330,-45.410,-37.109,-20.996,-169.922,0.000
1606133813.334,-108.398,-45.898,-30.762,-387.695,0.000
1606133813.338,-45.410,-33.691,-29.297,-114.258,0.000
1606133813.342,50.781,-30.273,-21.484,267.090,0.000
1606133813.346,49.316,11.230,-19.531,265.137,0.000
1606133813.350,-44.434,15.137,-17.578,-130.859,0.000
1606133813.354,-96.191,-38.086,-22.949,-375.977,0.000
1606133813.358,-41.504,-43.457,-28.320,-167.480,0.000
1606133813.362,63.477,-35.156,-20.020,237.305,0.000
1606133813.365,74.707,-32.227,-20.020,311.523,0.000
1606133813.369,-29.785,-37.598,-29.785,-75.684,0.000
1606133813.373,-94.727,-40.039,-26.367,-367.188,0.000
1606133813.377,-45.898,-39.062,-21.484,-208.008,0.000
1606133813.381,51.270,-39.551,-19.043,201.660,0.000
1606133813.385,80.566,3.906,-10.254,340.820,0.000
1606133813.389,-9.766,5.371,-17.578,-10.254,0.000
1606133813.393,-108.398,-39.062,-29.297,-354.980,0.000
1606133813.397,-95.703,-38.574,-29.785,-262.207,0.000
1606133813.401,2.441,-31.738,-26.367,138.672,0.000
1606133813.404,41.504,-24.414,-26.367,308.594,0.000
1606133813.408,-35.645,-32.715,-30.762,15.625,0.000
1606133813.412,-117.188,-37.598,-31.738,-340.332,0.000
1606133813.416,-101.074,-28.320,-33.203,-302.734,0.000
1606133813.420,-0.488,-23.926,-28.320,104.004,0.000
1606133813.424,57.129,-17.578,-21.484,336.914,0.000
1606133813.428,-7.812,-22.461,-26.855,96.680,0.000
1606133813.432,-103.027,-35.645,-33.691,-289.062,0.000
1606133813.436,-99.609,-35.645,-30.762,-324.707,0.000
1606133813.440,-5.371,-35.156,-27.832,53.223,0.000
1606133813.444,63.965,-13.672,-25.391,327.148,0.000
1606133813.447,23.926,24.902,-24.902,143.066,0.000
1606133813.451,-79.590,-4.395,-24.414,-265.625,0.000
1606133813.455,-99.121,-35.645,-23.926,-360.840,0.000
1606133813.459,-1.465,-23.926,-20.020,1.953,0.000
1606133813.463,79.590,-13.672,-9.277,320.312,0.000
1606133813.467,40.527,-21.484,-15.625,187.012,0.000
1606133813.471,-73.730,-41.016,-30.762,-241.211,0.000
1606133813.475,-106.445,-43.457,-23.438,-378.418,0.000
1606133813.479,-15.625,-36.133,-15.137,-31.738,0.000
1606133813.483,69.336,-25.879,-18.066,305.664,0.000
1606133813.487,40.527,-12.207,-20.020,225.098,0.000
1606133813.490,-70.312,-34.668,-25.879,-191.895,0.000
1606133813.494,-116.211,-45.410,-31.250,-395.996,0.000
1606133813.498,-44.434,-34.180,-27.344,-118.652,0.000
1606133813.502,52.246,-28.809,-19.531,261.230,0.000
1606133813.506,42.480,-28.809,-23.926,254.883,0.000
1606133813.510,-61.035,-38.086,-34.668,-143.555,0.000
1606133813.514,-122.559,-47.852,-37.109,-390.625,0.000
1606133813.518,-70.312,-40.039,-30.762,-175.781,0.000
1606133813.522,31.738,-32.715,-24.414,228.516,0.000
1606133813.526,38.086,-10.254,-17.090,286.621,0.000
1606133813.529,-60.547,-11.230,-19.531,-101.562,0.000
1606133813.533,-135.254,-42.969,-27.344,-388.184,0.000
1606133813.537,-98.145,-44.922,-19.531,-238.770,0.000
1606133813.541,14.648,-34.180,-6.836,183.594,0.000
1606133813.545,46.387,-21.484,-12.695,317.383,0.000
1606133813.549,-44.922,-31.738,-23.438,-38.574,0.000
1606133813.553,-128.906,-46.875,-24.902,-369.629,0.000
1606133813.557,-95.215,-44.922,-21.484,-251.465,0.000
1606133813.561,12.695,-40.039,-16.113,163.086,0.000
1606133813.565,50.293,-33.203,-16.602,317.383,0.000
1606133813.569,-24.902,-30.762,-21.484,18.555,0.000
1606133813.572,-111.816,-35.156,-20.996,-321.289,0.000
1606133813.576,-97.168,-33.203,-17.578,-285.645,0.000
1606133813.580,8.789,-34.668,-14.648,110.840,0.000
1606133813.584,63.965,-9.277,-15.625,324.219,0.000
1606133813.588,-3.418,2.441,-22.461,67.383,0.000
1606133813.592,-99.121,-35.156,-36.133,-320.801,0.000
1606133813.596,-98.145,-40.527,-37.109,-336.426,0.000
1606133813.600,2.930,-35.156,-29.297,63.477,0.000
1606133813.604,71.289,-23.926,-25.391,331.055,0.000
1606133813.608,13.184,-23.926,-32.715,120.605,0.000
1606133813.612,-93.750,-41.016,-36.621,-286.621,0.000
1606133813.615,-112.305,-39.551,-37.598,-361.328,0.000
1606133813.619,-18.555,-32.227,-35.156,12.207,0.000
1606133813.623,60.547,-24.414,-29.785,315.430,0.000
1606133813.627,20.996,28.320,-34.668,171.387,0.000
1606133813.631,-83.496,8.301,-32.227,-239.258,0.000
1606133813.635,-114.258,-40.039,-29.785,-379.883,0.000
1606133813.639,-25.879,-28.809,-29.297,-41.992,0.000
1606133813.643,66.895,-18.555,-17.578,302.246,0.000
1606133813.647,35.156,-20.508,-20.508,207.031,0.000
1606133813.651,-74.219,-30.762,-35.156,-209.961,0.000
1606133813.654,-109.863,-32.227,-33.691,-380.859,0.000
1606133813.658,-35.645,-34.668,-21.484,-95.703,0.000
1606133813.662,54.688,-25.391,-21.484,274.902,0.000
1606133813.666,45.898,6.836,-20.508,270.020,0.000
1606133813.670,-59.570,-15.625,-21.484,-141.113,0.000
1606133813.674,-116.211,-44.922,-23.926,-385.742,0.000
1606133813.678,-56.152,-36.621,-20.508,-156.738,0.000
1606133813.682,39.062,-29.785,-13.184,233.398,0.000
1606133813.686,46.387,-29.785,-10.254,285.645,0.000
1606133813.690,-49.805,-37.598,-22.461,-97.168,0.000
1606133813.694,-116.211,-40.527,-33.203,-391.113,0.000
1606133813.697,-69.824,-39.062,-30.762,-209.473,0.000
1606133813.701,29.785,-37.109,-25.879,201.172,0.000
1606133813.705,53.223,-32.227,-21.973,299.805,0.000
1606133813.709,-34.668,-34.180,-23.926,-51.270,0.000
1606133813.713,-108.398,-40.039,-28.809,-357.910,0.000
1606133813.717,-75.195,-38.086,-28.809,-244.629,0.000
1606133813.721,27.832,-36.621,-24.414,152.832,0.000
1606133813.725,64.453,-4.395,-23.926,303.711,0.000
1606133813.729,-16.602,20.508,-28.809,0.977,0.000
1606133813.733,-102.051,-28.809,-34.668,-347.168,0.000
1606133813.737,-85.938,-46.875,-31.250,-294.922,0.000
1606133813.740,20.508,-33.203,-20.020,127.930,0.000
1606133813.744,67.871,-29.785,-19.043,341.797,0.000
1606133813.748,-8.301,-36.621,-18.066,70.312,0.000
1606133813.752,-101.562,-48.340,-22.949,-317.871,0.000
1606133813.756,-93.262,-38.086,-19.531,-309.082,0.000
1606133813.760,5.371,-36.133,-17.578,104.004,0.000
1606133813.764,60.059,-20.508,-18.066,343.750,0.000
1606133813.768,7.812,-7.324,-19.043,125.977,0.000
1606133813.772,-93.262,-37.598,-28.809,-278.320,0.000
1606133813.776,-106.934,-40.527,-25.879,-346.680,0.000
1606133813.779,-7.324,-36.621,-23.438,34.180,0.000
1606133813.783,65.918,-29.785,-18.555,325.195,0.000
1606133813.787,22.949,-27.344,-9.277,165.527,0.000
1606133813.791,-84.961,-39.551,-17.090,-243.164,0.000
1606133813.795,-119.141,-41.992,-29.785,-375.977,0.000
1606133813.799,-35.645,-42.969,-25.391,-49.805,0.000
1606133813.803,48.828,-32.227,-17.578,285.645,0.000
1606133813.807,26.855,-13.672,-21.973,202.637,0.000
1606133813.811,-77.637,-34.180,-28.320,-215.820,0.000
1606133813.815,-120.117,-46.875,-29.297,-400.879,0.000
1606133813.819,-46.387,-49.316,-31.250,-108.398,0.000
1606133813.822,47.363,-36.621,-25.879,259.277,0.000
1606133813.826,35.156,-16.113,-23.926,227.539,0.000
1606133813.830,-72.266,-34.180,-28.320,-181.641,0.000
1606133813.834,-126.953,-49.316,-28.320,-409.668,0.000
1606133813.838,-54.199,-37.598,-31.250,-160.156,0.000
1606133813.842,49.316,-25.391,-27.832,245.117,0.000
1606133813.846,56.152,-31.738,-19.043,288.086,0.000
1606133813.850,-38.574,-34.668,-22.949,-105.469,0.000
1606133813.854,-104.004,-30.273,-24.902,-381.348,0.000
1606133813.858,-65.430,-31.738,-22.461,-210.938,0.000
1606133813.862,35.156,-31.738,-17.090,196.777,0.000
1606133813.865,61.523,4.883,-13.672,307.129,0.000
1606133813.869,-36.133,-1.953,-18.555,-57.129,0.000
1606133813.873,-118.652,-35.645,-24.902,-376.465,0.000
1606133813.877,-86.914,-28.320,-29.297,-249.512,0.000
1606133813.881,20.996,-26.367,-28.320,158.691,0.000
1606133813.885,54.199,-24.414,-18.066,295.410,0.000
1606133813.889,-36.621,-24.902,-20.508,-31.250,0.000
1606133813.893,-118.164,-36.621,-31.250,-372.559,0.000
1606133813.897,-89.844,-33.691,-28.809,-291.992,0.000
1606133813.901,17.090,-30.273,-22.461,133.789,0.000
1606133813.904,65.918,2.930,-18.066,326.172,0.000
1606133813.908,-6.836,31.250,-18.555,42.480,0.000
1606133813.912,-108.398,-20.996,-26.367,-341.309,0.000
1606133813.916,-98.145,-39.062,-24.902,-315.430,0.000
1606133813.920,10.254,-25.879,-16.113,105.469,0.000
1606133813.924,62.988,-19.531,-19.531,329.590,0.000
1606133813.928,-0.488,-25.391,-23.438,100.586,0.000
1606133813.932,-100.586,-36.621,-29.785,-295.898,0.000
1606133813.936,-107.910,-35.156,-33.691,-348.145,0.000
1606133813.940,-11.230,-40.039,-28.320,36.133,0.000
1606133813.944,66.406,-10.742,-21.484,332.031,0.000
1606133813.947,24.902,10.254,-21.973,171.387,0.000
1606133813.951,-84.961,-35.645,-32.715,-258.789,0.000
1606133813.955,-120.605,-49.316,-36.621,-377.441,0.000
1606133813.959,-29.297,-40.527,-27.832,-18.555,0.000
1606133813.963,62.012,-31.250,-24.414,318.848,0.000
1606133813.967,33.691,-31.738,-27.832,216.309,0.000
1606133813.971,-74.219,-41.992,-34.668,-203.125,0.000
1606133813.975,-113.281,-42.969,-34.180,-362.305,0.000
1606133813.979,-31.250,-37.109,-24.414,-41.992,0.000
1606133813.983,55.664,-32.715,-23.438,315.918,0.000
1606133813.987,38.086,-42.480,-30.762,251.465,0.000
1606133813.990,-69.824,-49.316,-40.527,-172.363,0.000
1606133813.994,-117.676,-37.598,-36.621,-371.582,0.000
1606133813.998,-44.922,-32.227,-24.902,-107.422,0.000
1606133814.002,48.828,-31.738,-29.785,259.277,0.000
1606133814.006,48.340,15.137,-30.762,277.344,0.000
1606133814.010,-54.199,13.184,-28.320,-113.281,0.000
1606133814.014,-112.793,-39.551,-31.250,-385.742,0.000
1606133814.018,-48.828,-38.086,-29.297,-187.012,0.000
1606133814.022,59.082,-30.273,-25.391,217.285,0.000
1606133814.026,73.242,-27.832,-24.902,300.781,0.000
1606133814.029,-31.250,-41.504,-31.738,-71.777,0.000
1606133814.033,-113.281,-48.828,-37.109,-389.648,0.000
1606133814.037,-68.848,-32.227,-36.621,-244.629,0.000
1606133814.041,39.062,-25.391,-23.926,194.336,0.000
1606133814.045,59.570,-6.836,-18.555,324.707,0.000
1606133814.049,-34.180,-16.602,-27.832,-35.156,0.000
1606133814.053,-112.793,-49.805,-27.832,-382.812,0.000
1606133814.057,-80.078,-40.527,-26.367,-295.410,0.000
1606133814.061,21.973,-33.203,-25.879,123.535,0.000
1606133814.065,65.918,-32.227,-28.809,307.129,0.000
1606133814.069,-9.277,-34.180,-31.738,17.090,0.000
1606133814.072,-104.492,-36.133,-29.297,-353.027,0.000
1606133814.076,-99.121,-35.645,-27.344,-334.961,0.000
1606133814.080,3.418,-36.621,-22.949,77.148,0.000
1606133814.084,69.824,0.000,-15.625,329.102,0.000
1606133814.088,5.371,2.930,-17.090,97.656,0.000
1606133814.092,-107.910,-36.133,-29.297,-316.895,0.000
1606133814.096,-115.234,-39.062,-25.391,-367.188,0.000
1606133814.100,-12.207,-41.504,-13.672,30.762,0.000
1606133814.104,48.828,-13.672,-20.996,318.848,0.000
1606133814.108,-2.441,10.742,-25.391,137.207,0.000
1606133814.112,-99.121,-36.133,-30.762,-277.832,0.000
1606133814.115,-114.746,-47.852,-32.715,-377.441,0.000
1606133814.119,-19.531,-34.180,-20.996,-19.531,0.000
1606133814.123,60.059,-29.297,-16.113,304.688,0.000
1606133814.127,26.367,-31.738,-18.066,190.430,0.000
1606133814.131,-77.148,-45.898,-21.973,-227.539,0.000
1606133814.135,-111.816,-43.457,-23.926,-378.418,0.000
1606133814.139,-33.691,-39.062,-22.949,-59.082,0.000
1606133814.143,53.223,-23.438,-20.996,288.574,0.000
1606133814.147,40.039,3.906,-16.113,231.934,0.000
1606133814.151,-58.105,-20.020,-16.602,-176.270,0.000
1606133814.154,-105.957,-46.387,-31.250,-386.230,0.000
1606133814.158,-43.457,-43.945,-33.203,-117.188,0.000
1606133814.162,46.387,-37.109,-24.902,262.207,0.000
1606133814.166,41.504,-32.715,-24.414,261.719,0.000
1606133814.170,-62.988,-40.527,-23.438,-143.555,0.000
1606133814.174,-125.488,-46.875,-21.484,-395.508,0.000
1606133814.178,-71.289,-43.457,-22.461,-172.852,0.000
1606133814.182,33.691,-33.203,-20.996,241.699,0.000
1606133814.186,47.363,-4.883,-23.926,297.852,0.000
1606133814.190,-55.176,-9.766,-27.832,-91.309,0.000
1606133814.194,-127.441,-41.992,-21.973,-388.184,0.000
1606133814.197,-81.543,-39.062,-25.391,-229.004,0.000
1606133814.201,24.414,-26.855,-28.809,191.406,0.000
1606133814.205,52.734,-24.902,-22.461,310.547,0.000
1606133814.209,-34.180,-37.109,-19.531,-27.832,0.000
1606133814.213,-111.328,-37.109,-25.879,-361.816,0.000
1606133814.217,-83.008,-30.762,-28.809,-270.996,0.000
1606133814.221,20.508,-29.785,-18.555,151.855,0.000
1606133814.225,67.871,-20.996,-9.766,339.355,0.000
1606133814.229,-9.277,-32.715,-10.254,35.645,0.000
1606133814.233,-105.469,-53.223,-26.855,-354.004,0.000
1606133814.237,-97.168,-49.805,-36.133,-323.242,0.000
1606133814.240,3.906,-40.039,-32.715,97.168,0.000
1606133814.244,68.848,-6.348,-28.320,334.961,0.000
1606133814.248,8.301,-2.930,-29.785,86.914,0.000
1606133814.252,-90.820,-34.668,-38.086,-313.965,0.000
1606133814.256,-100.098,-44.434,-40.039,-354.492,0.000
1606133814.260,-0.977,-44.434,-28.809,55.664,0.000
1606133814.264,80.566,-31.738,-27.344,342.773,0.000
1606133814.268,31.250,-31.738,-31.250,140.137,0.000
1606133814.272,-76.172,-40.039,-26.855,-262.207,0.000
1606133814.276,-92.285,-35.645,-25.391,-343.750,0.000
1606133814.279,2.441,-34.668,-22.461,20.996,0.000
1606133814.283,70.801,-13.184,-20.996,328.613,0.000
1606133814.287,25.879,41.016,-25.391,176.758,0.000
1606133814.291,-83.496,5.859,-34.180,-245.117,0.000
1606133814.295,-121.094,-44.922,-41.016,-395.020,0.000
1606133814.299,-38.086,-35.645,-34.668,-71.289,0.000
1606133814.303,45.410,-29.785,-21.973,285.645,0.000
1606133814.307,24.902,-32.227,-22.461,218.262,0.000
1606133814.311,-76.172,-42.480,-27.344,-200.195,0.000
1606133814.315,-121.582,-47.852,-33.203,-390.137,0.000
1606133814.319,-45.898,-48.828,-32.715,-104.492,0.000
1606133814.322,46.875,-37.109,-28.320,275.391,0.000
1606133814.326,37.109,-16.602,-29.785,262.207,0.000
1606133814.330,-67.871,-36.621,-35.156,-142.578,0.000
1606133814.334,-117.188,-48.340,-33.203,-377.930,0.000
1606133814.338,-47.363,-36.133,-32.715,-151.367,0.000
1606133814.342,56.152,-32.715,-24.414,241.211,0.000
1606133814.346,67.871,-29.297,-14.160,299.316,0.000
1606133814.350,-31.738,-34.180,-15.625,-82.031,0.000
1606133814.354,-107.422,-42.480,-22.949,-376.465,0.000
1606133814.358,-66.406,-39.551,-32.715,-217.285,0.000
1606133814.362,39.062,-25.879,-28.320,201.172,0.000
1606133814.365,64.941,-17.090,-25.391,317.871,0.000
1606133814.369,-27.344,-30.762,-24.902,-31.738,0.000
1606133814.373,-112.305,-42.969,-24.902,-366.699,0.000
1606133814.377,-90.332,-45.410,-26.855,-272.949,0.000
1606133814.381,9.766,-49.805,-28.809,143.066,0.000
1606133814.385,49.805,-12.207,-18.555,313.477,0.000
1606133814.389,-33.691,7.324,-24.902,3.906,0.000
1606133814.393,-123.047,-34.180,-40.527,-357.910,0.000
1606133814.397,-107.910,-45.410,-44.434,-315.918,0.000
1606133814.401,-1.953,-33.691,-33.691,101.562,0.000
1606133814.404,49.316,-31.738,-23.926,321.777,0.000
1606133814.408,-19.531,-39.062,-32.227,64.941,0.000
1606133814.412,-111.328,-40.039,-38.574,-309.082,0.000
1606133814.416,-112.305,-34.668,-44.434,-330.566,0.000
1606133814.420,-8.301,-39.551,-43.457,53.711,0.000
1606133814.424,56.641,-10.742,-33.691,312.500,0.000
1606133814.428,1.465,4.883,-31.250,111.816,0.000
1606133814.432,-97.168,-33.691,-36.621,-288.086,0.000
1606133814.436,-107.910,-34.668,-34.180,-364.258,0.000
1606133814.440,-13.184,-30.273,-25.391,0.977,0.000
1606133814.444,64.941,-24.414,-23.438,301.270,0.000
1606133814.447,28.809,-26.367,-33.691,166.992,0.000
1606133814.451,-76.172,-30.762,-33.691,-235.352,0.000
1606133814.455,-110.840,-24.902,-34.180,-378.906,0.000
1606133814.459,-32.715,-37.109,-37.598,-60.059,0.000
1606133814.463,56.641,-22.461,-33.691,294.922,0.000
1606133814.467,36.133,15.137,-36.621,214.355,0.000
1606133814.471,-70.312,-8.789,-46.387,-213.867,0.000
1606133814.475,-115.234,-39.551,-43.945,-402.344,0.000
1606133814.479,-39.551,-36.621,-37.598,-108.887,0.000
1606133814.483,57.617,-28.809,-35.156,261.719,0.000
1606133814.487,56.641,-21.973,-21.973,246.094,0.000
1606133814.490,-49.316,-30.762,-23.438,-160.645,0.000
1606133814.494,-116.211,-39.551,-35.156,-402.832,0.000
1606133814.498,-63.477,-41.504,-37.598,-169.434,0.000
1606133814.502,34.668,-33.203,-33.203,218.750,0.000
1606133814.506,47.852,-24.902,-25.391,271.973,0.000
1606133814.510,-48.828,-37.109,-25.879,-100.098,0.000
1606133814.514,-115.234,-50.781,-36.621,-383.301,0.000
1606133814.518,-67.871,-45.410,-40.527,-204.102,0.000
1606133814.522,34.668,-36.133,-34.668,214.355,0.000
1606133814.526,63.965,-2.930,-31.738,328.613,0.000
1606133814.529,-24.902,-6.836,-40.527,-29.785,0.000
1606133814.533,-103.027,-38.574,-41.992,-354.980,0.000
1606133814.537,-64.941,-28.809,-31.250,-227.539,0.000
1606133814.541,41.992,-22.461,-25.391,188.477,0.000
1606133814.545,81.055,-24.902,-27.344,337.402,0.000
1606133814.549,3.418,-31.738,-28.809,24.414,0.000
1606133814.553,-80.566,-32.227,-23.438,-317.871,0.000
1606133814.557,-63.965,-29.297,-22.949,-254.883,0.000
1606133814.561,33.203,-30.273,-20.020,141.113,0.000
1606133814.565,77.637,-4.883,-18.066,327.148,0.000
1606133814.569,7.812,7.324,-26.367,58.105,0.000
1606133814.572,-87.891,-24.414,-30.762,-310.059,0.000
1606133814.576,-87.891,-32.715,-29.297,-310.547,0.000
1606133814.580,9.277,-24.414,-26.855,81.055,0.000
1606133814.584,75.684,-15.137,-20.020,329.590,0.000
1606133814.588,19.531,-14.648,-19.531,118.652,0.000
1606133814.592,-85.449,-23.438,-28.809,-284.180,0.000
1606133814.596,-93.750,-21.484,-25.391,-356.445,0.000
1606133814.600,3.418,-20.508,-20.020,25.879,0.000
1606133814.604,77.148,2.930,-20.508,332.031,0.000
1606133814.608,29.297,14.648,-26.855,161.621,0.000
1606133814.612,-77.637,-28.320,-27.344,-259.766,0.000
1606133814.615,-103.027,-40.039,-25.391,-379.883,0.000
1606133814.619,-15.625,-27.832,-28.320,-28.320,0.000
1606133814.623,62.500,-26.855,-27.344,295.410,0.000
1606133814.627,31.738,-27.344,-27.832,198.242,0.000
1606133814.631,-75.195,-35.645,-34.180,-210.938,0.000
1606133814.635,-114.258,-41.504,-38.086,-394.043,0.000
1606133814.639,-34.180,-36.133,-32.715,-93.750,0.000
1606133814.643,52.734,-28.809,-31.738,270.020,0.000
1606133814.647,36.133,-22.949,-36.133,241.211,0.000
1606133814.651,-67.871,-29.785,-42.969,-156.738,0.000
1606133814.654,-121.582,-39.062,-47.852,-387.695,0.000
1606133814.658,-58.594,-32.715,-44.434,-149.414,0.000
1606133814.662,47.363,-22.461,-34.180,237.793,0.000
1606133814.666,47.852,5.371,-35.645,260.742,0.000
1606133814.670,-65.430,-11.719,-50.781,-145.996,0.000
1606133814.674,-130.371,-51.758,-54.688,-426.758,0.000
1606133814.678,-77.637,-42.480,-48.340,-232.910,0.000
1606133814.682,33.203,-28.809,-32.227,178.223,0.000
1606133814.686,59.082,-24.414,-32.227,273.926,0.000
1606133814.690,-36.133,-31.738,-50.781,-92.285,0.000
1606133814.694,-106.934,-35.156,-47.363,-405.762,0.000
1606133814.697,-67.383,-31.250,-37.598,-271.484,0.000
1606133814.701,27.832,-40.527,-36.621,128.418,0.000
1606133814.705,61.523,-16.113,-35.156,275.879,0.000
1606133814.709,-16.602,-10.254,-33.691,-23.926,0.000
1606133814.713,-103.516,-39.551,-31.738,-361.328,0.000
1606133814.717,-91.309,-39.551,-32.715,-298.828,0.000
1606133814.721,4.395,-36.621,-25.391,113.770,0.000
1606133814.725,55.664,-31.738,-15.137,317.871,0.000
1606133814.729,-18.555,-38.086,-23.438,44.434,0.000
1606133814.733,-119.141,-44.434,-26.855,-329.590,0.000
1606133814.737,-116.699,-35.645,-24.414,-331.055,0.000
1606133814.740,-28.809,-35.156,-25.879,69.824,0.000
1606133814.744,23.438,-7.812,-20.020,328.613,0.000
1606133814.748,-30.762,23.438,-18.066,99.609,0.000
1606133814.752,-131.348,-19.043,-25.391,-313.477,0.000
1606133814.756,-145.020,-46.387,-26.855,-373.047,0.000
1606133814.760,-43.457,-36.621,-22.461,18.555,0.000
1606133814.764,30.762,-31.250,-20.996,306.641,0.000
1606133814.768,-16.602,-34.180,-29.297,131.348,0.000
1606133814.772,-111.328,-33.691,-30.762,-270.996,0.000
1606133814.776,-124.512,-30.762,-21.973,-370.605,0.000
1606133814.779,-37.598,-32.227,-26.855,-32.715,0.000
1606133814.783,44.434,-28.809,-29.297,285.645,0.000
1606133814.787,19.531,-23.926,-22.461,187.988,0.000
1606133814.791,-78.613,-34.668,-24.902,-223.145,0.000
1606133814.795,-114.746,-37.598,-26.855,-396.973,0.000
1606133814.799,-33.203,-31.738,-29.297,-97.168,0.000
1606133814.803,60.059,-13.672,-26.855,268.555,0.000
1606133814.807,44.922,8.301,-20.996,236.816,0.000
1606133814.811,-59.570,-20.508,-32.715,-181.641,0.000
1606133814.815,-115.723,-42.969,-36.133,-400.879,0.000
1606133814.819,-50.781,-35.156,-24.414,-145.996,0.000
1606133814.822,48.340,-29.297,-22.461,227.051,0.000
1606133814.826,51.270,-30.762,-21.484,241.211,0.000
1606133814.830,-52.734,-36.133,-24.414,-158.203,0.000
1606133814.834,-123.047,-41.992,-29.297,-418.945,0.000
1606133814.838,-71.777,-39.551,-25.879,-208.008,0.000
1606133814.842,31.738,-41.992,-23.926,192.383,0.000
1606133814.846,46.875,-17.578,-14.160,258.789,0.000
1606133814.850,-49.316,-11.719,-17.578,-121.094,0.000
1606133814.854,-126.465,-48.828,-34.668,-420.410,0.000
1606133814.858,-86.914,-49.805,-26.855,-261.719,0.000
1606133814.862,26.367,-31.738,-18.066,174.805,0.000
1606133814.865,57.129,-22.461,-18.066,314.941,0.000
1606133814.869,-39.062,-34.180,-21.484,-30.273,0.000
1606133814.873,-128.418,-44.922,-32.715,-371.582,0.000
1606133814.877,-106.934,-41.016,-33.691,-289.062,0.000
1606133814.881,3.906,-41.504,-21.973,143.066,0.000
1606133814.885,55.664,-4.883,-12.695,351.562,0.000
1606133814.889,-23.438,-0.488,-20.508,48.340,0.000
1606133814.893,-127.441,-48.340,-27.344,-340.332,0.000
1606133814.897,-123.047,-52.246,-27.344,-328.613,0.000
1606133814.901,-19.531,-41.504,-22.461,82.031,0.000
1606133814.904,32.715,-35.156,-20.508,316.406,0.000
1606133814.908,-23.926,-29.297,-21.973,77.148,0.000
1606133814.912,-109.863,-31.250,-26.367,-312.988,0.000
1606133814.916,-114.746,-36.621,-30.273,-354.980,0.000
1606133814.920,-16.113,-29.785,-25.879,34.668,0.000
1606133814.924,57.617,-21.973,-20.508,315.918,0.000
1606133814.928,12.207,-22.949,-20.508,139.160,0.000
1606133814.932,-88.379,-33.691,-25.391,-267.090,0.000
1606133814.936,-108.398,-36.621,-24.902,-369.141,0.000
1606133814.940,-13.672,-35.156,-17.090,-5.859,0.000
1606133814.944,71.289,-13.672,-7.812,319.824,0.000
1606133814.947,41.992,25.879,-12.207,202.148,0.000
1606133814.951,-67.871,-8.301,-18.066,-221.680,0.000
1606133814.955,-111.328,-46.387,-18.066,-388.184,0.000
1606133814.959,-29.785,-38.086,-13.672,-69.336,0.000
1606133814.963,56.641,-29.785,-10.742,286.133,0.000
1606133814.967,36.133,-31.250,-18.555,229.980,0.000
1606133814.971,-66.895,-41.504,-23.926,-179.688,0.000
1606133814.975,-113.770,-40.039,-24.414,-383.301,0.000
1606133814.979,-45.898,-35.645,-25.391,-112.305,0.000
1606133814.983,46.875,-33.691,-26.367,260.742,0.000
1606133814.987,48.340,-14.648,-20.996,262.695,0.000
1606133814.990,-49.316,-24.902,-22.949,-135.254,0.000
1606133814.994,-111.816,-41.992,-18.066,-377.441,0.000
1606133814.998,-56.641,-40.039,-12.207,-156.250,0.000
1606133815.002,42.969,-32.227,-14.160,240.723,0.000
1606133815.006,54.199,-28.320,-4.883,305.176,0.000
1606133815.010,-41.504,-37.109,-8.301,-68.359,0.000
1606133815.014,-117.676,-41.992,-17.578,-361.328,0.000
1606133815.018,-80.078,-42.480,-18.555,-217.285,0.000
1606133815.022,19.531,-47.363,-15.625,188.965,0.000
1606133815.026,54.199,18.555,-11.230,323.242,0.000
1606133815.029,-30.273,42.969,-16.113,-25.879,0.000
1606133815.033,-125.488,-30.273,-23.438,-366.699,0.000
1606133815.037,-102.051,-45.898,-24.902,-266.113,0.000
1606133815.041,7.812,-36.133,-18.066,152.344,0.000
1606133815.045,55.664,-33.691,-19.043,325.684,0.000
1606133815.049,-22.461,-38.574,-26.855,26.367,0.000
1606133815.053,-118.164,-40.527,-31.250,-341.797,0.000
1606133815.057,-103.516,-37.598,-29.297,-309.570,0.000
1606133815.061,-1.465,-35.645,-20.996,103.027,0.000
1606133815.065,50.781,-30.273,-19.043,325.684,0.000
1606133815.069,-10.742,-31.738,-26.367,87.402,0.000
1606133815.072,-103.027,-42.969,-33.691,-291.992,0.000
1606133815.076,-104.492,-38.574,-29.785,-327.637,0.000
1606133815.080,-0.977,-36.621,-21.484,66.406,0.000
1606133815.084,68.359,-15.137,-22.461,339.355,0.000
1606133815.088,12.695,-6.836,-29.297,137.207,0.000
1606133815.092,-83.008,-40.527,-31.738,-258.301,0.000
1606133815.096,-101.074,-43.945,-31.250,-335.449,0.000
1606133815.100,-17.578,-39.062,-29.785,14.160,0.000
1606133815.104,60.547,-36.621,-27.832,316.406,0.000
1606133815.108,16.602,-41.992,-32.227,166.992,0.000
1606133815.112,-93.262,-49.805,-36.621,-248.047,0.000
1606133815.115,-115.234,-39.551,-31.738,-376.465,0.000
1606133815.119,-35.645,-40.039,-27.832,-39.551,0.000
1606133815.123,37.598,-21.973,-29.297,294.922,0.000
1606133815.127,10.742,-13.184,-30.762,206.055,0.000
1606133815.131,-90.332,-40.039,-33.203,-202.148,0.000
1606133815.135,-130.371,-42.969,-37.109,-392.090,0.000
1606133815.139,-55.176,-41.504,-39.551,-110.352,0.000
1606133815.143,46.387,-28.320,-32.227,267.578,0.000
1606133815.147,43.457,8.789,-27.344,259.277,0.000
1606133815.151,-63.477,-17.090,-37.109,-143.555,0.000
1606133815.154,-120.605,-53.223,-35.645,-381.348,0.000
1606133815.158,-52.246,-45.410,-32.715,-152.832,0.000
1606133815.162,56.152,-29.785,-32.227,246.582,0.000
1606133815.166,59.082,-6.348,-24.902,300.293,0.000
1606133815.170,-48.340,-30.273,-22.949,-90.820,0.000
1606133815.174,-117.676,-56.152,-30.273,-379.395,0.000
1606133815.178,-64.941,-42.480,-26.367,-200.195,0.000
1606133815.182,32.227,-34.668,-13.184,207.520,0.000
1606133815.186,50.293,-34.668,-17.090,304.199,0.000
1606133815.190,-37.598,-38.574,-31.250,-38.574,0.000
1606133815.194,-114.258,-42.969,-33.691,-349.609,0.000
1606133815.197,-84.961,-41.504,-29.785,-248.535,0.000
1606133815.201,6.836,-36.621,-26.367,155.273,0.000
1606133815.205,41.504,-33.203,-25.391,315.430,0.000
1606133815.209,-37.598,-39.062,-25.391,10.254,0.000
1606133815.213,-116.699,-36.133,-30.762,-324.707,0.000
1606133815.217,-94.727,-31.738,-25.391,-271.973,0.000
1606133815.221,3.418,-40.039,-15.625,131.348,0.000
1606133815.225,52.734,-4.395,-23.926,334.473,0.000
1606133815.229,-10.254,27.344,-25.879,78.613,0.000
1606133815.233,-103.516,-27.344,-29.785,-293.945,0.000
1606133815.237,-100.098,-43.457,-31.250,-314.453,0.000
1606133815.240,8.301,-28.320,-20.508,75.684,0.000
1606133815.244,64.941,-22.949,-14.648,334.473,0.000
1606133815.248,3.418,-30.273,-21.973,130.371,0.000
1606133815.252,-91.797,-46.387,-35.645,-270.996,0.000
1606133815.256,-104.492,-39.551,-34.668,-348.145,0.000
1606133815.260,-13.672,-38.086,-33.203,18.555,0.000
1606133815.264,64.453,-6.836,-33.691,306.152,0.000
1606133815.268,20.996,17.578,-28.809,159.180,0.000
1606133815.272,-87.402,-29.785,-35.645,-246.094,0.000
1606133815.276,-112.793,-39.551,-35.156,-368.164,0.000
1606133815.279,-24.902,-28.320,-26.367,-39.551,0.000
1606133815.283,58.105,-20.996,-14.648,290.039,0.000
1606133815.287,30.762,-22.461,-19.531,204.102,0.000
1606133815.291,-74.707,-34.180,-31.250,-200.684,0.000
1606133815.295,-124.512,-43.457,-34.180,-386.230,0.000
1606133815.299,-49.805,-42.969,-30.762,-112.305,0.000
1606133815.303,46.387,-19.043,-27.832,256.348,0.000
1606133815.307,40.527,23.438,-26.367,250.977,0.000
1606133815.311,-67.871,-10.742,-28.809,-155.762,0.000
1606133815.315,-131.836,-51.758,-28.320,-396.484,0.000
1606133815.319,-68.359,-48.340,-22.461,-155.762,0.000
1606133815.322,35.645,-30.273,-19.531,242.676,0.000
1606133815.326,45.898,-10.742,-19.531,284.180,0.000
1606133815.330,-57.129,-38.574,-34.668,-111.816,0.000
1606133815.334,-125.000,-50.293,-38.574,-377.930,0.000
1606133815.338,-67.871,-37.598,-28.320,-183.105,0.000
1606133815.342,33.203,-31.738,-27.344,216.797,0.000
1606133815.346,48.828,-28.809,-29.785,311.035,0.000
1606133815.350,-39.551,-36.621,-28.320,-40.039,0.000
1606133815.354,-119.141,-42.480,-31.738,-352.051,0.000
1606133815.358,-82.031,-40.039,-32.227,-232.910,0.000
1606133815.362,25.879,-40.039,-23.438,169.434,0.000
1606133815.365,62.988,3.906,-26.855,319.336,0.000
1606133815.369,-10.254,6.348,-32.715,12.695,0.000
1606133815.373,-100.586,-37.598,-37.598,-343.750,0.000
1606133815.377,-89.355,-37.109,-47.852,-291.992,0.000
1606133815.381,13.184,-34.180,-45.898,116.211,0.000
1606133815.385,63.477,-25.879,-37.109,317.383,0.000
1606133815.389,0.000,-27.832,-31.250,53.711,0.000
1606133815.393,-91.309,-35.645,-41.504,-311.523,0.000
1606133815.397,-92.773,-34.668,-45.898,-314.941,0.000
1606133815.401,8.301,-37.598,-33.203,83.984,0.000
1606133815.404,69.824,5.859,-24.902,334.473,0.000
1606133815.408,11.230,44.922,-29.785,105.469,0.000
1606133815.412,-89.844,-13.672,-40.039,-294.922,0.000
1606133815.416,-100.586,-41.504,-36.133,-353.027,0.000
1606133815.420,-1.953,-29.785,-30.273,32.227,0.000
1606133815.424,62.988,-28.320,-32.715,320.312,0.000
1606133815.428,10.742,-32.715,-33.691,145.508,0.000
1606133815.432,-93.262,-45.410,-38.086,-257.324,0.000
1606133815.436,-120.117,-42.969,-40.527,-366.699,0.000
1606133815.440,-31.250,-38.086,-33.203,-31.738,0.000
1606133815.444,53.223,-21.484,-23.926,298.828,0.000
1606133815.447,22.461,-10.254,-21.484,212.402,0.000
1606133815.451,-81.055,-35.156,-26.855,-203.613,0.000
1606133815.455,-120.605,-41.016,-37.109,-384.277,0.000
1606133815.459,-45.410,-39.062,-27.344,-88.379,0.000
1606133815.463,45.898,-27.832,-19.043,274.414,0.000
1606133815.467,32.715,-22.461,-23.926,241.211,0.000
1606133815.471,-76.172,-41.504,-32.227,-170.410,0.000
1606133815.475,-126.953,-43.945,-36.133,-397.949,0.000
1606133815.479,-55.176,-37.598,-31.250,-142.578,0.000
1606133815.483,46.387,-26.855,-22.461,241.699,0.000
1606133815.487,49.316,-23.926,-18.555,264.648,0.000
1606133815.490,-58.105,-38.574,-39.062,-126.465,0.000
1606133815.494,-123.047,-46.387,-55.176,-389.648,0.000
1606133815.498,-62.012,-37.109,-48.828,-190.918,0.000
1606133815.502,41.992,-35.645,-39.062,201.660,0.000
1606133815.506,56.641,13.672,-36.621,279.785,0.000
1606133815.510,-29.297,28.809,-41.504,-68.848,0.000
1606133815.514,-99.609,-24.902,-43.945,-370.605,0.000
1606133815.518,-53.711,-25.391,-37.598,-237.793,0.000
1606133815.522,51.270,-12.695,-30.762,176.758,0.000
1606133815.526,79.102,-9.277,-27.344,320.801,0.000
1606133815.529,-4.883,-23.926,-40.527,-12.207,0.000
1606133815.533,-92.285,-25.879,-48.828,-355.957,0.000
1606133815.537,-69.824,-20.996,-41.016,-269.043,0.000
1606133815.541,31.738,-26.855,-35.645,142.578,0.000
1606133815.545,77.637,5.859,-33.691,326.172,0.000
1606133815.549,8.301,16.113,-28.809,48.340,0.000
1606133815.553,-92.773,-25.391,-30.273,-320.801,0.000
1606133815.557,-91.309,-30.762,-31.250,-303.223,0.000
1606133815.561,13.672,-32.227,-26.855,103.027,0.000
1606133815.565,69.824,-30.762,-32.227,341.309,0.000
1606133815.569,6.836,-29.785,-36.621,112.305,0.000
1606133815.572,-93.750,-37.598,-36.621,-283.691,0.000
1606133815.576,-100.098,-34.180,-30.762,-334.473,0.000
1606133815.580,-7.812,-34.668,-20.020,37.109,0.000
1606133815.584,58.105,-18.555,-9.766,317.383,0.000
1606133815.588,12.207,-12.695,-4.883,160.156,0.000
1606133815.592,-92.773,-40.527,-14.648,-250.488,0.000
1606133815.596,-117.188,-41.992,-15.137,-368.164,0.000
1606133815.600,-35.156,-43.945,-15.625,-28.320,0.000
1606133815.604,39.062,-24.414,-18.555,291.504,0.000
1606133815.608,7.812,-1.953,-19.531,180.176,0.000
1606133815.612,-92.773,-32.227,-27.832,-233.887,0.000
1606133815.615,-130.859,-41.016,-29.785,-395.996,0.000
1606133815.619,-49.805,-28.809,-23.438,-89.355,0.000
1606133815.623,40.039,-25.879,-15.137,261.719,0.000
1606133815.627,25.391,-21.973,-20.508,218.262,0.000
1606133815.631,-71.777,-30.273,-32.227,-175.781,0.000
1606133815.635,-114.746,-37.109,-37.598,-392.090,0.000
1606133815.639,-45.898,-38.086,-32.715,-153.809,0.000
1606133815.643,44.434,-27.832,-31.738,221.191,0.000
1606133815.647,44.434,0.000,-37.109,244.629,0.000
1606133815.651,-46.875,-12.207,-35.156,-139.648,0.000
1606133815.654,-106.445,-32.227,-33.691,-395.020,0.000
1606133815.658,-51.758,-24.902,-31.738,-189.941,0.000
1606133815.662,53.223,-20.020,-31.738,213.379,0.000
1606133815.666,63.477,-25.391,-32.227,284.668,0.000
1606133815.670,-23.926,-31.250,-28.320,-74.219,0.000
1606133815.674,-87.891,-31.250,-35.645,-360.840,0.000
1606133815.678,-57.129,-26.367,-34.180,-217.285,0.000
1606133815.682,45.410,-24.414,-23.438,201.660,0.000
1606133815.686,74.707,5.371,-26.367,337.891,0.000
1606133815.690,-15.625,8.301,-35.156,-7.324,0.000
1606133815.694,-99.609,-34.180,-32.227,-350.098,0.000
1606133815.697,-75.684,-31.250,-31.738,-254.883,0.000
1606133815.701,25.391,-23.926,-33.203,157.715,0.000
1606133815.705,66.406,-21.973,-28.809,330.078,0.000
1606133815.709,-7.812,-26.367,-29.785,40.039,0.000
1606133815.713,-90.820,-33.203,-31.250,-319.824,0.000
1606133815.717,-83.496,-33.691,-31.250,-305.664,0.000
1606133815.721,11.719,-31.250,-26.367,91.309,0.000
1606133815.725,68.359,-20.508,-13.672,324.219,0.000
1606133815.729,-3.906,-21.973,-18.555,75.684,0.000
1606133815.733,-106.445,-37.598,-23.926,-327.148,0.000
1606133815.737,-110.840,-40.527,-20.020,-360.840,0.000
1606133815.740,-25.879,-43.457,-10.742,21.484,0.000
1606133815.744,38.574,-12.695,-6.348,297.363,0.000
1606133815.748,-8.789,-4.883,-23.926,116.699,0.000
1606133815.752,-119.141,-51.758,-33.691,-303.711,0.000
1606133815.756,-137.695,-55.176,-33.691,-401.367,0.000
1606133815.760,-42.480,-46.875,-31.738,-37.109,0.000
1606133815.764,38.574,-37.109,-26.855,282.715,0.000
1606133815.768,7.324,-35.645,-24.414,166.504,0.000
1606133815.772,-94.727,-48.828,-28.320,-238.770,0.000
1606133815.776,-123.535,-43.945,-29.785,-390.137,0.000
1606133815.779,-43.457,-45.898,-30.273,-82.520,0.000
1606133815.783,37.109,-39.551,-31.250,257.324,0.000
1606133815.787,21.973,10.742,-29.297,198.242,0.000
1606133815.791,-73.242,-4.883,-29.785,-195.801,0.000
1606133815.795,-116.211,-43.457,-26.367,-383.789,0.000
1606133815.799,-43.945,-37.109,-20.508,-109.863,0.000
1606133815.803,54.199,-22.949,-17.090,275.879,0.000
1606133815.807,50.781,-19.043,-22.949,280.762,0.000
1606133815.811,-53.223,-37.109,-24.902,-124.023,0.000
1606133815.815,-112.793,-43.457,-25.879,-382.812,0.000
1606133815.819,-62.988,-41.016,-24.902,-178.223,0.000
1606133815.822,32.715,-33.203,-17.090,221.680,0.000
1606133815.826,39.062,-6.836,-14.648,280.762,0.000
1606133815.830,-67.383,-23.926,-13.184,-97.656,0.000
1606133815.834,-136.230,-53.223,-16.602,-382.812,0.000
1606133815.838,-85.938,-43.457,-10.742,-217.285,0.000
1606133815.842,19.531,-33.203,-9.277,187.500,0.000
1606133815.846,48.340,-27.832,-24.414,298.340,0.000
1606133815.850,-36.133,-34.180,-29.297,-45.898,0.000
1606133815.854,-116.699,-41.504,-30.762,-367.676,0.000
1606133815.858,-93.750,-40.039,-27.832,-271.973,0.000
1606133815.862,4.395,-32.715,-24.414,132.324,0.000
1606133815.865,49.316,-17.578,-20.020,306.641,0.000
1606133815.869,-21.484,-27.344,-25.879,17.578,0.000
1606133815.873,-115.234,-49.805,-31.250,-347.656,0.000
1606133815.877,-102.051,-44.434,-25.879,-319.336,0.000
1606133815.881,1.953,-40.527,-17.578,88.867,0.000
1606133815.885,61.523,-6.836,-16.602,317.871,0.000
1606133815.889,-2.441,12.695,-20.996,78.125,0.000
1606133815.893,-110.840,-41.016,-26.855,-313.477,0.000
1606133815.897,-110.840,-56.641,-26.367,-335.449,0.000
1606133815.901,-5.859,-43.457,-26.367,61.035,0.000
1606133815.904,56.152,-35.156,-27.832,309.082,0.000
1606133815.908,7.812,-37.598,-30.273,109.375,0.000
1606133815.912,-88.379,-42.969,-27.344,-272.461,0.000
1606133815.916,-112.305,-40.527,-28.809,-359.863,0.000
1606133815.920,-25.391,-42.969,-27.344,-9.766,0.000
1606133815.924,57.617,-14.648,-18.555,309.570,0.000
1606133815.928,22.461,-0.488,-23.926,170.898,0.000
1606133815.932,-85.449,-41.504,-26.855,-238.281,0.000
1606133815.936,-116.699,-45.898,-24.902,-367.676,0.000
1606133815.940,-35.645,-41.992,-32.227,-54.199,0.000
1606133815.944,47.363,-42.480,-30.762,278.320,0.000
1606133815.947,21.484,-41.016,-21.973,206.055,0.000
1606133815.951,-83.008,-47.852,-21.484,-204.102,0.000
1606133815.955,-124.512,-45.898,-31.738,-399.414,0.000
1606133815.959,-56.641,-43.945,-36.133,-123.047,0.000
1606133815.963,43.457,-33.203,-25.879,265.625,0.000
1606133815.967,42.969,29.785,-28.320,257.812,0.000
1606133815.971,-64.941,5.859,-36.621,-157.227,0.000
1606133815.975,-116.211,-52.734,-35.645,-396.484,0.000
1606133815.979,-52.734,-42.480,-34.180,-166.992,0.000
1606133815.983,38.086,-36.621,-27.344,220.215,0.000
1606133815.987,40.039,-38.086,-23.926,257.812,0.000
1606133815.990,-61.035,-43.945,-28.809,-128.906,0.000
1606133815.994,-129.883,-45.410,-30.273,-396.484,0.000
1606133815.998,-81.543,-47.363,-24.414,-217.285,0.000
1606133816.002,17.578,-37.109,-23.438,180.664,0.000
1606133816.006,35.645,-20.020,-26.855,291.992,0.000
1606133816.010,-52.246,-32.227,-24.902,-47.852,0.000
1606133816.014,-128.906,-46.875,-24.902,-374.023,0.000
1606133816.018,-96.680,-47.363,-22.949,-261.230,0.000
1606133816.022,10.254,-40.039,-17.578,160.645,0.000
1606133816.026,47.363,-15.137,-19.043,319.824,0.000
1606133816.029,-35.645,-21.973,-20.020,-0.488,0.000
1606133816.033,-119.629,-49.316,-25.879,-339.844,0.000
1606133816.037,-101.074,-42.969,-25.879,-278.320,0.000
1606133816.041,2.441,-30.762,-14.160,131.348,0.000
1606133816.045,54.688,-28.320,-15.625,338.867,0.000
1606133816.049,-15.137,-34.180,-23.926,63.477,0.000
1606133816.053,-113.281,-39.062,-31.250,-316.406,0.000
1606133816.057,-116.211,-38.574,-25.879,-321.777,0.000
1606133816.061,-14.160,-38.574,-17.578,73.730,0.000
1606133816.065,54.199,-10.254,-21.973,314.941,0.000
1606133816.069,-2.441,14.160,-28.320,98.145,0.000
1606133816.072,-102.539,-23.438,-35.645,-301.270,0.000
1606133816.076,-113.281,-44.922,-36.621,-363.770,0.000
1606133816.080,-17.090,-40.527,-30.762,17.578,0.000
1606133816.084,57.617,-27.832,-24.902,312.500,0.000
1606133816.088,17.090,-27.832,-22.949,159.668,0.000
1606133816.092,-87.891,-41.016,-28.320,-259.277,0.000
1606133816.096,-121.094,-42.969,-32.715,-393.066,0.000
1606133816.100,-40.527,-51.270,-28.320,-58.594,0.000
1606133816.104,46.875,-23.438,-26.855,287.598,0.000
1606133816.108,20.996,3.906,-26.367,196.777,0.000
1606133816.112,-85.938,-33.203,-25.391,-229.004,0.000
1606133816.115,-122.070,-47.363,-34.180,-412.598,0.000
1606133816.119,-40.527,-34.668,-31.738,-107.422,0.000
1606133816.123,52.246,-28.320,-24.414,273.926,0.000
1606133816.127,35.156,-27.344,-29.785,243.164,0.000
1606133816.131,-77.637,-41.016,-34.180,-183.594,0.000
1606133816.135,-124.512,-42.969,-33.691,-404.785,0.000
1606133816.139,-56.641,-37.598,-22.461,-149.414,0.000
1606133816.143,41.992,-32.227,-18.555,228.027,0.000
1606133816.147,53.711,-23.438,-24.902,269.043,0.000
1606133816.151,-37.598,-37.598,-31.250,-98.633,0.000
1606133816.154,-107.910,-44.434,-35.645,-371.582,0.000
1606133816.158,-62.012,-38.086,-32.715,-194.336,0.000
1606133816.162,39.062,-36.133,-26.367,205.566,0.000
1606133816.166,60.059,18.066,-20.020,299.805,0.000
1606133816.170,-33.691,20.508,-24.414,-53.711,0.000
1606133816.174,-117.676,-38.574,-36.621,-371.582,0.000
1606133816.178,-83.496,-44.434,-34.180,-255.371,0.000
1606133816.182,13.672,-40.527,-32.227,160.645,0.000
1606133816.186,42.969,-36.133,-30.762,307.129,0.000
1606133816.190,-36.621,-40.039,-27.832,-24.414,0.000
1606133816.194,-124.023,-40.527,-37.598,-357.422,0.000
1606133816.197,-99.121,-29.785,-37.598,-274.902,0.000
1606133816.201,7.324,-35.645,-27.344,122.070,0.000
1606133816.205,52.734,-5.859,-29.297,308.594,0.000
1606133816.209,-20.020,0.977,-36.133,35.156,0.000
1606133816.213,-110.840,-42.969,-32.715,-336.426,0.000
1606133816.217,-103.516,-42.969,-34.668,-332.520,0.000
1606133816.221,-2.930,-38.086,-33.203,67.871,0.000
1606133816.225,60.547,-28.320,-17.578,312.988,0.000
1606133816.229,7.324,-24.902,-20.020,95.703,0.000
1606133816.233,-94.727,-39.551,-33.691,-300.293,0.000
1606133816.237,-114.258,-42.969,-41.016,-370.117,0.000
1606133816.240,-15.137,-39.551,-36.621,12.695,0.000
1606133816.244,61.035,-7.812,-23.438,325.195,0.000
1606133816.248,13.672,26.855,-26.855,158.203,0.000
1606133816.252,-87.402,-18.066,-33.203,-263.184,0.000
1606133816.256,-117.676,-50.781,-31.738,-387.695,0.000
1606133816.260,-39.062,-48.340,-25.391,-43.457,0.000
1606133816.264,48.340,-43.945,-20.996,293.457,0.000
1606133816.268,20.996,-38.574,-21.973,187.500,0.000
1606133816.272,-88.867,-43.945,-19.043,-214.355,0.000
1606133816.276,-125.977,-49.805,-21.973,-367.676,0.000
1606133816.279,-50.781,-45.410,-26.367,-72.266,0.000
1606133816.283,33.691,-38.086,-20.996,275.391,0.000
1606133816.287,18.066,-37.598,-19.531,235.352,0.000
1606133816.291,-83.496,-47.363,-27.344,-167.480,0.000
1606133816.295,-137.695,-58.105,-31.250,-390.137,0.000
1606133816.299,-76.660,-57.129,-26.367,-147.461,0.000
1606133816.303,21.484,-38.086,-15.625,234.863,0.000
1606133816.307,24.414,-15.625,-17.578,262.695,0.000
1606133816.311,-78.125,-34.180,-26.855,-125.977,0.000
1606133816.315,-146.484,-54.199,-31.738,-389.160,0.000
1606133816.319,-90.820,-51.758,-33.691,-198.730,0.000
1606133816.322,15.625,-41.016,-26.367,202.637,0.000
1606133816.326,39.062,-33.691,-28.320,285.645,0.000
1606133816.330,-45.898,-42.969,-30.762,-80.078,0.000
1606133816.334,-114.746,-49.805,-26.367,-368.652,0.000
1606133816.338,-71.289,-42.480,-28.809,-223.633,0.000
1606133816.342,35.645,-41.016,-26.855,181.152,0.000
1606133816.346,67.383,15.625,-27.344,311.523,0.000
1606133816.350,-19.531,34.180,-34.668,-21.973,0.000
1606133816.354,-105.469,-33.691,-41.016,-363.770,0.000
1606133816.358,-79.590,-42.480,-43.945,-287.598,0.000
1606133816.362,22.949,-35.156,-34.668,128.418,0.000
1606133816.365,66.895,-27.832,-20.508,323.730,0.000
1606133816.369,-6.348,-31.738,-25.391,46.387,0.000
1606133816.373,-102.051,-45.410,-31.738,-319.824,0.000
1606133816.377,-93.750,-45.898,-31.738,-303.223,0.000
1606133816.381,9.766,-50.781,-28.809,102.539,0.000
1606133816.385,65.430,-6.348,-25.879,347.168,0.000
1606133816.389,-4.883,10.254,-33.203,106.445,0.000
1606133816.393,-108.398,-42.969,-31.250,-282.227,0.000
1606133816.397,-112.793,-47.852,-29.785,-326.660,0.000
1606133816.401,-13.184,-40.527,-33.203,50.293,0.000
1606133816.404,60.059,-33.691,-30.762,322.754,0.000
1606133816.408,12.695,-35.645,-34.180,140.137,0.000
1606133816.412,-84.473,-38.574,-32.715,-254.395,0.000
1606133816.416,-102.539,-35.156,-21.973,-347.656,0.000
1606133816.420,-10.254,-33.203,-23.926,3.906,0.000
1606133816.424,67.871,-26.855,-30.273,315.430,0.000
1606133816.428,28.809,-21.973,-32.227,200.684,0.000
1606133816.432,-74.219,-34.180,-28.809,-199.707,0.000
1606133816.436,-110.840,-38.086,-28.809,-356.445,0.000
1606133816.440,-42.969,-39.062,-36.621,-70.801,0.000
1606133816.444,43.945,-23.438,-27.344,273.926,0.000
1606133816.447,36.621,26.367,-22.461,237.793,0.000
1606133816.451,-68.848,0.000,-27.832,-174.805,0.000
1606133816.455,-120.117,-45.898,-30.273,-388.672,0.000
1606133816.459,-45.898,-39.062,-29.297,-124.023,0.000
1606133816.463,56.152,-25.879,-22.461,248.047,0.000
1606133816.467,59.570,-21.484,-20.508,261.719,0.000
1606133816.471,-44.922,-36.621,-26.367,-135.254,0.000
1606133816.475,-111.816,-42.480,-24.414,-386.719,0.000
1606133816.479,-53.711,-36.621,-13.672,-159.668,0.000
1606133816.483,50.293,-26.367,-16.113,230.957,0.000
1606133816.487,63.965,-4.883,-21.973,290.039,0.000
1606133816.490,-33.203,-20.020,-30.762,-78.125,0.000
1606133816.494,-106.445,-39.551,-43.457,-375.000,0.000
1606133816.498,-65.430,-36.133,-36.133,-227.051,0.000
1606133816.502,32.715,-35.645,-26.855,183.105,0.000
1606133816.506,62.988,-27.832,-29.785,302.246,0.000
1606133816.510,-17.090,-25.879,-28.809,-18.555,0.000
1606133816.514,-102.051,-34.180,-31.250,-341.309,0.000
1606133816.518,-75.195,-39.062,-30.762,-267.090,0.000
1606133816.522,32.227,-31.738,-17.578,152.344,0.000
1606133816.526,71.289,19.043,-20.020,351.074,0.000
1606133816.529,-6.348,17.090,-38.574,46.387,0.000
1606133816.533,-93.750,-33.203,-44.922,-330.078,0.000
1606133816.537,-84.961,-29.785,-35.645,-307.129,0.000
1606133816.541,12.207,-28.809,-31.738,91.797,0.000
1606133816.545,70.312,-9.277,-27.832,324.707,0.000
1606133816.549,5.859,-13.672,-28.320,82.031,0.000
1606133816.553,-96.191,-41.992,-34.668,-316.406,0.000
1606133816.557,-101.074,-40.039,-27.344,-344.727,0.000
1606133816.561,-10.742,-29.297,-23.926,43.945,0.000
1606133816.565,39.551,-28.809,-23.438,300.293,0.000
1606133816.569,-14.648,-39.062,-28.809,110.352,0.000
1606133816.572,-111.328,-40.527,-40.527,-279.297,0.000
1606133816.576,-130.859,-39.551,-46.875,-372.070,0.000
1606133816.580,-41.992,-46.875,-41.016,-26.855,0.000
1606133816.584,36.621,-12.207,-27.344,280.273,0.000
1606133816.588,7.324,3.906,-23.926,166.504,0.000
1606133816.592,-85.938,-39.062,-27.832,-229.492,0.000
1606133816.596,-119.141,-44.922,-32.715,-380.859,0.000
1606133816.600,-39.551,-39.062,-27.344,-66.895,0.000
1606133816.604,48.340,-34.668,-28.809,291.992,0.000
1606133816.608,25.879,-33.691,-28.809,226.074,0.000
1606133816.612,-78.125,-40.527,-30.273,-192.383,0.000
1606133816.615,-119.141,-38.086,-30.273,-378.906,0.000
1606133816.619,-42.969,-35.645,-20.508,-92.773,0.000
1606133816.623,47.363,-26.855,-22.461,269.043,0.000
1606133816.627,48.340,32.715,-20.020,269.043,0.000
1606133816.631,-44.922,12.207,-23.926,-126.465,0.000
1606133816.635,-113.770,-43.457,-27.832,-388.184,0.000
1606133816.639,-64.941,-37.598,-20.508,-171.875,0.000
1606133816.643,40.039,-25.391,-18.555,228.027,0.000
1606133816.647,52.734,-20.508,-16.113,285.645,0.000
1606133816.651,-43.457,-27.344,-22.949,-95.215,0.000
1606133816.654,-112.793,-30.762,-30.762,-370.117,0.000
1606133816.658,-78.125,-37.109,-30.762,-206.543,0.000
1606133816.662,23.438,-29.297,-27.832,198.730,0.000
1606133816.666,52.246,12.695,-27.344,312.012,0.000
1606133816.670,-36.133,-3.418,-33.203,-45.898,0.000
1606133816.674,-110.840,-42.969,-35.645,-374.023,0.000
1606133816.678,-74.219,-34.180,-24.902,-262.695,0.000
1606133816.682,34.180,-25.879,-15.137,159.668,0.000
1606133816.686,73.242,-25.879,-21.484,327.148,0.000
1606133816.690,-8.789,-35.156,-24.414,12.695,0.000
1606133816.694,-100.098,-44.434,-31.250,-354.492,0.000
1606133816.697,-83.496,-40.527,-26.855,-303.223,0.000
1606133816.701,21.973,-28.320,-16.602,125.488,0.000
1606133816.705,72.754,-22.949,-14.648,341.797,0.000
1606133816.709,0.488,-24.414,-21.484,77.637,0.000
1606133816.713,-97.656,-33.203,-27.344,-306.152,0.000
1606133816.717,-97.168,-33.691,-16.113,-326.660,0.000
1606133816.721,0.488,-44.434,-12.207,61.035,0.000
1606133816.725,61.523,-0.977,-26.855,306.641,0.000
1606133816.729,7.324,44.434,-27.344,112.305,0.000
1606133816.733,-80.566,-15.625,-12.207,-266.113,0.000
1606133816.737,-87.402,-43.945,-19.531,-343.750,0.000
1606133816.740,-0.977,-42.480,-28.320,13.672,0.000
1606133816.744,77.637,-26.855,-19.531,330.566,0.000
1606133816.748,41.992,-25.391,-21.973,194.824,0.000
1606133816.752,-64.941,-42.480,-23.438,-228.516,0.000
1606133816.756,-91.797,-36.621,-30.273,-354.980,0.000
1606133816.760,-5.371,-38.086,-24.414,-16.113,0.000
1606133816.764,74.707,-12.207,-16.602,315.430,0.000
1606133816.768,45.898,12.695,-23.438,227.539,0.000
1606133816.772,-71.777,-33.691,-33.203,-202.148,0.000
1606133816.776,-121.582,-48.828,-39.551,-391.113,0.000
1606133816.779,-43.945,-37.598,-33.203,-87.402,0.000
1606133816.783,48.340,-31.250,-26.855,280.762,0.000
1606133816.787,35.156,-30.273,-27.344,250.488,0.000
1606133816.791,-66.406,-41.992,-29.785,-162.598,0.000
1606133816.795,-118.164,-46.387,-46.387,-402.344,0.000
1606133816.799,-49.316,-45.898,-53.223,-169.434,0.000
1606133816.803,62.012,-25.879,-37.598,236.328,0.000
1606133816.807,73.242,20.020,-23.438,301.270,0.000
1606133816.811,-28.320,0.977,-26.367,-94.727,0.000
1606133816.815,-108.887,-39.551,-49.805,-400.391,0.000
1606133816.819,-67.383,-44.922,-47.363,-221.680,0.000
1606133816.822,43.457,-28.320,-30.762,199.219,0.000
1606133816.826,69.336,11.230,-25.879,297.363,0.000
1606133816.830,-25.879,-8.789,-26.855,-62.012,0.000
1606133816.834,-112.793,-46.387,-40.527,-385.742,0.000
1606133816.838,-84.473,-41.504,-39.062,-265.625,0.000
1606133816.842,20.508,-31.250,-27.832,152.832,0.000
1606133816.846,60.547,-28.320,-25.391,301.270,0.000
1606133816.850,-19.043,-33.691,-24.414,-4.395,0.000
1606133816.854,-111.328,-45.410,-28.809,-349.121,0.000
1606133816.858,-98.145,-51.270,-28.320,-300.293,0.000
1606133816.862,14.648,-52.734,-16.113,124.512,0.000
1606133816.865,68.359,-4.395,-11.230,332.520,0.000
1606133816.869,-21.484,3.906,-17.578,37.109,0.000
1606133816.873,-128.906,-52.246,-20.508,-360.840,0.000
1606133816.877,-128.418,-51.758,-16.602,-370.117,0.000
1606133816.881,-28.320,-37.598,-10.254,47.363,0.000
1606133816.885,36.621,-33.203,-11.230,313.477,0.000
1606133816.889,-21.484,-38.086,-15.137,99.121,0.000
1606133816.893,-113.770,-45.410,-6.348,-288.086,0.000
1606133816.897,-124.512,-42.480,-13.184,-350.586,0.000
1606133816.901,-23.926,-44.434,-23.926,25.391,0.000
1606133816.904,61.523,-16.602,-13.672,321.777,0.000
1606133816.908,23.438,19.043,-15.625,162.109,0.000
1606133816.912,-74.707,-18.555,-28.809,-253.418,0.000
1606133816.916,-97.656,-43.945,-35.156,-379.883,0.000
1606133816.920,-9.277,-40.527,-37.109,-42.969,0.000
1606133816.924,70.801,-31.738,-37.109,286.133,0.000
1606133816.928,45.898,-26.855,-30.762,187.012,0.000
1606133816.932,-51.758,-32.715,-26.367,-221.680,0.000
1606133816.936,-92.285,-31.738,-31.738,-390.137,0.000
1606133816.940,-13.184,-33.691,-34.668,-87.891,0.000
1606133816.944,84.961,-17.090,-25.879,293.457,0.000
1606133816.947,74.707,-0.488,-30.762,259.766,0.000
1606133816.951,-35.156,-24.414,-31.738,-153.320,0.000
1606133816.955,-97.168,-38.086,-32.715,-363.281,0.000
1606133816.959,-41.992,-38.086,-41.016,-114.258,0.000
1606133816.963,52.734,-28.320,-31.250,279.297,0.000
1606133816.967,53.711,-22.949,-25.391,307.129,0.000
1606133816.971,-50.781,-40.527,-32.227,-105.469,0.000
1606133816.975,-122.070,-51.758,-31.738,-387.695,0.000
1606133816.979,-71.289,-39.062,-24.902,-179.199,0.000
1606133816.983,27.344,-30.273,-28.320,223.633,0.000
1606133816.987,41.016,-36.133,-27.344,292.969,0.000
1606133816.990,-53.223,-41.016,-25.879,-66.895,0.000
1606133816.994,-134.766,-41.992,-29.785,-368.652,0.000
1606133816.998,-96.680,-37.598,-22.949,-232.422,0.000
1606133817.002,5.371,-39.062,-13.184,171.875,0.000
1606133817.006,26.367,-7.324,-19.043,294.922,0.000
1606133817.010,-64.453,-9.766,-29.785,-41.016,0.000
1606133817.014,-156.738,-53.711,-37.109,-387.207,0.000
1606133817.018,-136.230,-52.246,-39.062,-312.500,0.000
1606133817.022,-22.949,-42.969,-28.320,102.051,0.000
1606133817.026,33.203,-31.250,-20.020,302.734,0.000
1606133817.029,-33.203,-31.250,-29.297,22.461,0.000
1606133817.033,-123.535,-45.898,-38.086,-366.211,0.000
1606133817.037,-113.281,-41.504,-36.621,-359.863,0.000
1606133817.041,-1.953,-33.203,-23.926,55.664,0.000
1606133817.045,60.059,-5.859,-18.066,300.293,0.000
1606133817.049,-4.883,-2.441,-29.297,63.477,0.000
1606133817.053,-106.445,-39.062,-33.691,-334.473,0.000
1606133817.057,-109.863,-47.852,-31.250,-377.930,0.000
1606133817.061,-7.324,-40.527,-26.367,21.484,0.000
1606133817.065,58.594,-31.250,-21.484,313.477,0.000
1606133817.069,15.137,-35.645,-20.020,135.742,0.000
1606133817.072,-81.055,-35.645,-23.438,-267.090,0.000
1606133817.076,-107.422,-32.227,-27.832,-369.629,0.000
1606133817.080,-22.461,-36.133,-26.855,-20.020,0.000
1606133817.084,59.082,-12.207,-20.508,321.777,0.000
1606133817.088,28.320,2.930,-19.531,228.027,0.000
1606133817.092,-74.707,-34.668,-31.250,-187.012,0.000
1606133817.096,-115.234,-45.898,-40.527,-358.887,0.000
1606133817.100,-41.504,-39.551,-33.203,-59.082,0.000
1606133817.104,54.199,-22.461,-19.531,298.828,0.000
1606133817.108,37.109,-10.742,-22.949,260.254,0.000
1606133817.112,-80.566,-40.527,-28.809,-159.668,0.000
1606133817.115,-130.371,-53.223,-31.738,-386.230,0.000
1606133817.119,-56.641,-44.434,-33.691,-116.211,0.000
1606133817.123,43.945,-26.855,-25.391,269.531,0.000
1606133817.127,50.293,-21.973,-17.578,285.156,0.000
1606133817.131,-50.293,-28.320,-21.484,-105.469,0.000
1606133817.135,-115.234,-32.227,-34.180,-372.070,0.000
1606133817.139,-66.406,-35.645,-36.133,-189.941,0.000
1606133817.143,20.508,-27.344,-35.645,200.195,0.000
1606133817.147,33.203,-5.371,-26.367,285.645,0.000
1606133817.151,-48.828,-15.625,-25.391,-83.496,0.000
1606133817.154,-125.977,-35.645,-40.039,-410.156,0.000
1606133817.158,-91.797,-37.109,-42.969,-275.879,0.000
1606133817.162,16.602,-27.344,-33.203,142.090,0.000
1606133817.166,46.875,-21.973,-28.320,269.531,0.000
1606133817.170,-37.598,-30.762,-35.645,-62.988,0.000
1606133817.174,-120.605,-34.668,-41.504,-397.461,0.000
1606133817.178,-92.285,-31.250,-33.203,-304.199,0.000
1606133817.182,20.996,-35.645,-34.180,125.488,0.000
1606133817.186,63.965,-4.883,-41.992,312.012,0.000
1606133817.190,-18.555,1.465,-39.062,21.973,0.000
1606133817.194,-113.281,-47.852,-41.016,-352.051,0.000
1606133817.197,-96.680,-47.363,-35.156,-322.754,0.000
1606133817.201,10.742,-32.715,-20.996,101.074,0.000
1606133817.205,66.406,-29.785,-14.648,342.773,0.000
1606133817.209,-0.488,-37.598,-22.461,88.379,0.000
1606133817.213,-105.469,-42.969,-25.879,-305.664,0.000
1606133817.217,-112.793,-41.992,-21.973,-323.242,0.000
1606133817.221,-18.066,-33.691,-20.020,49.316,0.000
1606133817.225,47.852,-19.043,-15.137,321.777,0.000
1606133817.229,-4.395,-26.367,-20.020,141.113,0.000
1606133817.233,-108.887,-46.875,-33.203,-275.879,0.000
1606133817.237,-121.582,-46.387,-29.297,-371.582,0.000
1606133817.240,-22.949,-44.922,-15.137,-5.371,0.000
1606133817.244,55.664,-20.020,-20.996,306.641,0.000
1606133817.248,18.555,-9.766,-27.344,178.711,0.000
1606133817.252,-83.984,-41.016,-29.785,-225.586,0.000
1606133817.256,-111.816,-37.598,-35.645,-382.324,0.000
1606133817.260,-23.926,-24.902,-31.738,-68.848,0.000
1606133817.264,72.266,-15.137,-30.273,301.758,0.000
1606133817.268,43.945,-13.184,-27.832,208.008,0.000
1606133817.272,-66.895,-26.367,-27.344,-224.121,0.000
1606133817.276,-104.492,-30.762,-32.715,-382.324,0.000
1606133817.279,-38.574,-30.762,-31.250,-113.281,0.000
1606133817.283,61.523,-17.090,-19.043,261.719,0.000
1606133817.287,61.035,9.277,-17.578,262.695,0.000
1606133817.291,-49.805,-10.742,-30.762,-138.672,0.000
1606133817.295,-105.957,-41.016,-36.621,-382.324,0.000
