timestamps,TP9,AF7,AF8,TP10,Right AUX
1601457520.356,-0.977,-25.391,-36.133,-40.527,0.000
1601457520.360,-19.043,-25.391,-38.574,-43.457,0.000
1601457520.364,-62.012,-31.250,-33.691,-47.852,0.000
1601457520.368,-76.172,-33.691,-27.832,-47.363,0.000
1601457520.372,-48.340,-39.551,-27.344,-42.480,0.000
1601457520.376,-13.672,-30.273,-11.719,-35.645,0.000
1601457520.380,-23.438,-29.297,-17.578,-40.527,0.000
1601457520.384,-71.289,-44.434,-45.410,-55.664,0.000
1601457520.387,-86.426,-51.270,-52.734,-58.594,0.000
1601457520.391,-61.035,-45.410,-43.945,-53.223,0.000
1601457520.395,-24.414,-31.250,-31.738,-38.086,0.000
1601457520.399,-17.090,-34.180,-32.715,-33.691,0.000
1601457520.403,-56.152,-48.828,-41.016,-46.387,0.000
1601457520.407,-86.426,-55.176,-41.504,-52.246,0.000
1601457520.411,-67.383,-45.410,-30.762,-44.922,0.000
1601457520.415,-15.625,-27.832,-21.484,-27.344,0.000
1601457520.419,-17.578,-30.762,-25.391,-26.367,0.000
1601457520.423,-60.059,-42.969,-42.480,-46.875,0.000
1601457520.427,-95.703,-50.293,-50.781,-54.688,0.000
1601457520.430,-88.867,-45.410,-36.621,-48.340,0.000
1601457520.434,-40.039,-36.133,-26.855,-40.527,0.000
1601457520.438,-18.555,-33.691,-25.879,-33.691,0.000
1601457520.442,-37.598,-32.227,-24.902,-34.668,0.000
1601457520.446,-73.730,-37.598,-36.621,-53.223,0.000
1601457520.450,-72.754,-36.133,-39.062,-60.547,0.000
1601457520.454,-21.973,-28.809,-28.320,-41.992,0.000
1601457520.458,-3.906,-22.461,-25.879,-31.738,0.000
1601457520.462,-33.691,-16.113,-24.902,-43.945,0.000
1601457520.466,-75.684,-26.367,-43.945,-60.547,0.000
1601457520.469,-77.148,-33.203,-56.152,-56.641,0.000
1601457520.473,-22.949,-24.902,-35.156,-35.156,0.000
1601457520.477,12.207,-21.484,-23.438,-30.273,0.000
1601457520.481,-15.625,-31.738,-34.180,-42.969,0.000
1601457520.485,-67.871,-37.598,-43.457,-50.293,0.000
1601457520.489,-62.500,-39.551,-49.316,-44.922,0.000
1601457520.493,-8.789,-38.086,-32.715,-25.391,0.000
1601457520.497,7.812,-30.762,-18.066,-18.066,0.000
1601457520.501,-18.066,-20.996,-27.344,-27.344,0.000
1601457520.505,-65.918,-19.531,-42.969,-43.945,0.000
1601457520.509,-71.289,-31.738,-46.875,-47.852,0.000
1601457520.512,-17.090,-27.344,-32.715,-25.391,0.000
1601457520.516,12.695,-18.066,-22.949,-15.625,0.000
1601457520.520,-8.789,-24.902,-23.438,-19.043,0.000
1601457520.524,-41.504,-34.668,-35.645,-24.902,0.000
1601457520.528,-62.012,-35.645,-36.621,-35.645,0.000
1601457520.532,-38.086,-26.855,-25.879,-35.645,0.000
1601457520.536,7.812,-18.555,-23.438,-22.949,0.000
1601457520.540,-5.371,-21.484,-19.531,-24.902,0.000
1601457520.544,-53.223,-25.391,-27.832,-38.574,0.000
1601457520.548,-71.777,-36.621,-38.574,-44.922,0.000
1601457520.552,-41.504,-47.363,-35.645,-39.062,0.000
1601457520.555,8.301,-27.832,-24.414,-19.531,0.000
1601457520.559,20.020,-16.113,-20.020,-14.160,0.000
1601457520.563,-33.691,-31.738,-35.156,-32.227,0.000
1601457520.567,-82.520,-42.969,-47.852,-39.551,0.000
1601457520.571,-56.641,-34.668,-41.504,-30.762,0.000
1601457520.575,-11.230,-33.203,-25.879,-20.508,0.000
1601457520.579,-3.906,-37.598,-18.066,-12.695,0.000
1601457520.583,-47.852,-36.133,-35.156,-22.949,0.000
1601457520.587,-83.008,-32.227,-45.898,-37.598,0.000
1601457520.591,-61.523,-30.762,-29.297,-29.785,0.000
1601457520.594,-14.160,-28.809,-17.578,-17.090,0.000
1601457520.598,-3.418,-34.668,-22.949,-21.484,0.000
1601457520.602,-44.922,-36.133,-33.691,-36.621,0.000
1601457520.606,-70.312,-31.250,-29.297,-38.086,0.000
1601457520.610,-52.246,-33.203,-15.137,-29.785,0.000
1601457520.614,-11.719,-29.297,-19.043,-17.090,0.000
1601457520.618,17.578,-25.391,-22.461,-7.812,0.000
1601457520.622,-22.461,-32.227,-31.250,-22.949,0.000
1601457520.626,-79.590,-30.762,-44.922,-35.156,0.000
1601457520.630,-73.242,-37.598,-44.434,-31.738,0.000
1601457520.634,-20.020,-38.086,-25.879,-15.625,0.000
1601457520.637,10.742,-20.996,-10.254,-11.230,0.000
1601457520.641,-22.949,-25.391,-24.414,-29.297,0.000
1601457520.645,-71.777,-36.133,-33.691,-39.551,0.000
1601457520.649,-74.219,-36.621,-35.156,-37.598,0.000
1601457520.653,-27.344,-31.738,-31.250,-22.949,0.000
1601457520.657,5.371,-18.066,-20.020,-6.836,0.000
1601457520.661,0.488,-12.695,-22.949,-9.277,0.000
1601457520.665,-34.668,-25.879,-30.762,-17.578,0.000
1601457520.669,-62.988,-38.574,-38.086,-18.555,0.000
1601457520.673,-17.090,-27.344,-33.203,2.441,0.000
1601457520.677,31.738,-21.484,-15.625,22.949,0.000
1601457520.680,11.230,-27.344,-19.043,10.742,0.000
1601457520.684,-37.109,-30.273,-37.109,-6.348,0.000
1601457520.688,-46.387,-36.133,-35.156,-12.695,0.000
1601457520.692,-11.230,-33.203,-25.391,-9.766,0.000
1601457520.696,27.832,-14.160,-15.625,0.488,0.000
1601457520.700,20.020,-6.836,-16.113,-7.324,0.000
1601457520.704,-29.785,-18.555,-25.391,-22.949,0.000
1601457520.708,-59.082,-35.156,-34.668,-28.320,0.000
1601457520.712,-31.738,-37.109,-34.180,-20.996,0.000
1601457520.716,17.090,-25.879,-19.531,-3.906,0.000
1601457520.719,19.531,-25.391,-20.996,-1.953,0.000
1601457520.723,-33.691,-33.691,-41.016,-20.508,0.000
1601457520.727,-73.730,-43.457,-43.945,-32.227,0.000
1601457520.731,-41.504,-37.598,-28.809,-20.508,0.000
1601457520.735,13.672,-19.043,-15.137,-7.812,0.000
1601457520.739,0.977,-20.996,-20.020,-11.719,0.000
1601457520.743,-52.734,-44.922,-41.016,-30.762,0.000
1601457520.747,-79.590,-50.781,-34.180,-41.992,0.000
1601457520.751,-64.453,-41.016,-24.902,-41.992,0.000
1601457520.755,-19.531,-24.414,-24.414,-35.156,0.000
1601457520.759,-5.859,-18.066,-26.367,-36.133,0.000
1601457520.762,-46.875,-28.809,-37.598,-42.969,0.000
1601457520.766,-82.520,-44.434,-43.457,-50.781,0.000
1601457520.770,-85.449,-40.527,-33.203,-63.965,0.000
1601457520.774,-44.922,-31.250,-21.973,-57.129,0.000
1601457520.778,-28.320,-39.551,-20.508,-53.711,0.000
1601457520.782,-68.848,-42.969,-31.250,-69.336,0.000
1601457520.786,-105.469,-48.828,-38.574,-69.824,0.000
1601457520.790,-96.680,-58.594,-27.344,-61.523,0.000
1601457520.794,-45.410,-49.316,-29.785,-50.293,0.000
1601457520.798,-24.414,-29.297,-35.645,-38.574,0.000
1601457520.802,-50.781,-35.645,-37.109,-40.039,0.000
1601457520.805,-84.473,-45.410,-42.480,-45.898,0.000
1601457520.809,-88.379,-51.270,-44.434,-44.434,0.000
1601457520.813,-47.363,-51.270,-31.738,-30.762,0.000
1601457520.817,-7.812,-43.457,-21.973,-16.113,0.000
1601457520.821,-18.066,-46.875,-26.367,-18.066,0.000
1601457520.825,-60.547,-42.969,-29.785,-32.227,0.000
1601457520.829,-67.871,-41.016,-39.551,-35.645,0.000
1601457520.833,-11.719,-43.945,-32.715,-20.508,0.000
1601457520.837,21.973,-34.668,-27.344,-14.648,0.000
1601457520.841,-7.324,-34.668,-33.691,-24.414,0.000
1601457520.844,-50.293,-46.875,-40.039,-38.574,0.000
1601457520.848,-64.453,-47.852,-41.992,-38.086,0.000
1601457520.852,-31.250,-36.621,-27.344,-24.902,0.000
1601457520.856,8.301,-24.902,-18.555,-18.555,0.000
1601457520.860,3.906,-22.461,-30.273,-21.973,0.000
1601457520.864,-48.340,-35.156,-45.410,-41.016,0.000
1601457520.868,-67.383,-36.621,-41.504,-47.363,0.000
1601457520.872,-39.062,-27.832,-34.668,-38.086,0.000
1601457520.876,-2.930,-30.762,-25.879,-31.250,0.000
1601457520.880,-9.766,-31.250,-29.785,-34.668,0.000
1601457520.884,-63.965,-27.344,-41.016,-49.805,0.000
1601457520.887,-95.215,-42.969,-44.434,-60.547,0.000
1601457520.891,-68.359,-55.664,-40.039,-53.223,0.000
1601457520.895,-15.625,-37.598,-24.414,-46.387,0.000
1601457520.899,-18.066,-37.598,-32.227,-53.223,0.000
1601457520.903,-76.172,-45.410,-48.828,-64.453,0.000
1601457520.907,-105.469,-41.992,-54.199,-77.637,0.000
1601457520.911,-95.215,-42.969,-51.758,-80.566,0.000
1601457520.915,-40.039,-31.250,-34.180,-61.523,0.000
1601457520.919,-15.137,-25.879,-27.832,-48.828,0.000
1601457520.923,-53.711,-34.668,-40.527,-59.082,0.000
1601457520.927,-85.938,-35.156,-44.434,-62.500,0.000
1601457520.930,-73.730,-31.738,-33.203,-52.734,0.000
1601457520.934,-24.902,-28.320,-22.949,-37.598,0.000
1601457520.938,-4.395,-24.902,-20.996,-28.809,0.000
1601457520.942,-46.387,-32.227,-25.879,-40.039,0.000
1601457520.946,-89.355,-33.203,-42.480,-53.711,0.000
1601457520.950,-80.078,-35.645,-46.875,-51.270,0.000
1601457520.954,-31.250,-32.715,-34.180,-34.668,0.000
1601457520.958,-1.953,-23.926,-30.762,-23.926,0.000
1601457520.962,-24.902,-31.738,-34.668,-29.785,0.000
1601457520.966,-70.312,-43.457,-40.527,-47.363,0.000
1601457520.969,-73.242,-43.945,-36.133,-48.828,0.000
1601457520.973,-26.367,-34.668,-32.227,-31.250,0.000
1601457520.977,11.230,-25.391,-24.414,-24.902,0.000
1601457520.981,-9.277,-30.273,-19.043,-35.156,0.000
1601457520.985,-57.617,-37.598,-35.156,-49.805,0.000
1601457520.989,-71.289,-42.969,-52.246,-54.199,0.000
1601457520.993,-39.062,-43.457,-47.363,-43.945,0.000
1601457520.997,-5.371,-35.645,-27.344,-36.621,0.000
1601457521.001,-16.602,-33.203,-24.414,-34.668,0.000
1601457521.005,-74.219,-45.898,-40.039,-47.852,0.000
1601457521.009,-89.844,-49.805,-41.992,-54.688,0.000
1601457521.012,-43.945,-36.133,-24.414,-29.785,0.000
1601457521.016,-11.230,-20.996,-20.508,-10.742,0.000
1601457521.020,-24.414,-33.203,-31.250,-26.367,0.000
1601457521.024,-71.289,-44.434,-39.062,-46.387,0.000
1601457521.028,-92.773,-39.062,-39.062,-49.805,0.000
1601457521.032,-60.547,-36.133,-31.250,-42.480,0.000
1601457521.036,-8.789,-28.809,-19.043,-25.391,0.000
1601457521.040,-9.277,-23.926,-7.812,-25.879,0.000
1601457521.044,-58.594,-35.645,-32.227,-47.852,0.000
1601457521.048,-84.473,-44.434,-49.805,-49.805,0.000
1601457521.052,-67.383,-34.668,-33.203,-39.551,0.000
1601457521.055,-25.391,-25.391,-23.438,-30.762,0.000
1601457521.059,-20.020,-27.344,-22.461,-29.297,0.000
1601457521.063,-67.383,-44.922,-34.180,-49.316,0.000
1601457521.067,-85.938,-51.758,-42.969,-59.082,0.000
1601457521.071,-62.988,-38.574,-40.527,-46.875,0.000
1601457521.075,-18.555,-38.086,-30.273,-35.156,0.000
1601457521.079,4.883,-40.039,-25.879,-29.785,0.000
1601457521.083,-34.180,-41.504,-41.016,-38.574,0.000
1601457521.087,-68.359,-42.480,-44.434,-47.363,0.000
1601457521.091,-58.594,-41.992,-27.344,-39.062,0.000
1601457521.094,-17.090,-36.621,-20.996,-20.020,0.000
1601457521.098,-2.441,-34.668,-31.738,-21.484,0.000
1601457521.102,-46.387,-45.898,-37.598,-41.992,0.000
1601457521.106,-88.379,-43.457,-40.039,-55.664,0.000
1601457521.110,-80.566,-48.340,-39.062,-50.293,0.000
1601457521.114,-34.668,-48.828,-34.668,-33.691,0.000
1601457521.118,-10.742,-28.320,-20.508,-26.367,0.000
1601457521.122,-37.598,-36.133,-22.461,-38.086,0.000
1601457521.126,-81.055,-58.105,-36.133,-56.641,0.000
1601457521.130,-84.961,-54.688,-31.250,-52.246,0.000
1601457521.134,-41.504,-33.691,-27.344,-41.016,0.000
1601457521.137,-11.719,-28.809,-28.320,-35.156,0.000
1601457521.141,-32.715,-38.574,-29.785,-38.086,0.000
1601457521.145,-86.914,-49.316,-39.062,-57.617,0.000
1601457521.149,-103.516,-52.734,-46.387,-60.547,0.000
1601457521.153,-53.711,-33.203,-28.320,-41.016,0.000
1601457521.157,-11.719,-23.926,-16.602,-31.250,0.000
1601457521.161,-29.785,-28.809,-35.156,-39.062,0.000
1601457521.165,-81.543,-37.109,-41.016,-50.293,0.000
1601457521.169,-86.426,-48.828,-35.645,-48.828,0.000
1601457521.173,-33.691,-41.992,-23.926,-23.926,0.000
1601457521.177,2.441,-38.086,-13.672,-14.160,0.000
1601457521.180,7.324,-41.016,-23.438,-22.949,0.000
1601457521.184,-35.645,-43.457,-40.527,-40.527,0.000
1601457521.188,-64.941,-39.062,-32.715,-40.527,0.000
1601457521.192,-21.484,-31.250,-17.090,-19.531,0.000
1601457521.196,18.066,-20.996,-18.555,-12.695,0.000
1601457521.200,5.859,-19.043,-18.555,-12.695,0.000
1601457521.204,-45.410,-39.062,-28.320,-25.879,0.000
1601457521.208,-76.660,-48.340,-41.016,-36.621,0.000
1601457521.212,-51.758,-44.434,-31.738,-33.691,0.000
1601457521.216,-9.277,-34.668,-22.949,-26.367,0.000
1601457521.219,-1.465,-26.855,-26.855,-23.438,0.000
1601457521.223,-47.852,-39.551,-29.785,-41.016,0.000
1601457521.227,-86.914,-45.898,-33.203,-54.199,0.000
1601457521.231,-66.895,-38.574,-34.180,-47.852,0.000
1601457521.235,-26.855,-36.621,-37.109,-38.574,0.000
1601457521.239,-8.301,-35.645,-41.504,-38.574,0.000
1601457521.243,-37.598,-39.551,-32.715,-43.457,0.000
1601457521.247,-93.750,-49.316,-31.250,-52.246,0.000
1601457521.251,-83.496,-50.293,-29.297,-55.664,0.000
1601457521.255,-30.762,-45.898,-25.391,-43.457,0.000
1601457521.259,-11.719,-33.691,-24.414,-37.598,0.000
1601457521.262,-48.828,-35.645,-30.273,-46.875,0.000
1601457521.266,-93.750,-45.410,-42.969,-63.477,0.000
1601457521.270,-79.102,-42.969,-35.156,-56.152,0.000
1601457521.274,-31.738,-28.320,-26.367,-39.062,0.000
1601457521.278,-6.836,-34.668,-34.180,-30.762,0.000
1601457521.282,-21.484,-51.758,-37.109,-20.508,0.000
1601457521.286,-62.012,-42.969,-39.062,-37.598,0.000
1601457521.290,-67.383,-29.785,-42.480,-62.988,0.000
1601457521.294,-29.785,-25.391,-31.250,-46.875,0.000
1601457521.298,-10.742,-27.344,-31.250,-34.668,0.000
1601457521.302,-33.691,-38.574,-33.203,-45.410,0.000
1601457521.305,-75.195,-52.246,-38.574,-55.176,0.000
1601457521.309,-90.820,-50.781,-50.781,-60.547,0.000
1601457521.313,-44.922,-37.109,-37.598,-49.316,0.000
1601457521.317,1.953,-36.133,-21.973,-37.598,0.000
1601457521.321,-12.207,-37.598,-26.855,-34.668,0.000
1601457521.325,-57.129,-33.203,-31.738,-40.039,0.000
1601457521.329,-59.570,-47.363,-34.668,-48.340,0.000
1601457521.333,-24.902,-50.293,-28.320,-36.621,0.000
1601457521.337,4.883,-29.785,-20.508,-20.996,0.000
1601457521.341,1.953,-19.043,-25.391,-18.066,0.000
1601457521.344,-46.387,-41.016,-37.598,-33.691,0.000
1601457521.348,-66.406,-54.199,-42.969,-42.480,0.000
1601457521.352,-28.809,-38.574,-39.062,-24.902,0.000
1601457521.356,13.184,-29.297,-32.227,-9.766,0.000
1601457521.360,17.578,-26.367,-21.973,-12.207,0.000
1601457521.364,-29.785,-32.227,-25.391,-25.879,0.000
1601457521.368,-68.848,-39.062,-32.227,-29.297,0.000
1601457521.372,-41.992,-40.039,-32.715,-22.461,0.000
1601457521.376,12.695,-36.621,-30.762,-8.301,0.000
1601457521.380,27.832,-30.273,-26.367,0.000,0.000
1601457521.384,-18.066,-30.762,-36.133,-17.578,0.000
1601457521.387,-51.270,-34.180,-43.945,-25.879,0.000
1601457521.391,-39.062,-39.551,-41.504,-20.508,0.000
1601457521.395,18.555,-33.203,-27.344,-9.766,0.000
1601457521.399,33.691,-25.879,-18.066,-4.395,0.000
1601457521.403,-15.137,-36.133,-24.902,-8.789,0.000
1601457521.407,-45.898,-42.480,-37.109,-21.973,0.000
1601457521.411,-22.949,-34.668,-31.738,-22.949,0.000
1601457521.415,16.113,-22.461,-24.414,-5.371,0.000
1601457521.419,20.996,-18.066,-19.043,-3.906,0.000
1601457521.423,-12.207,-25.879,-20.508,-19.043,0.000
1601457521.427,-53.711,-34.668,-29.785,-28.809,0.000
1601457521.430,-43.457,-37.109,-29.785,-27.344,0.000
1601457521.434,0.977,-28.809,-22.461,-18.066,0.000
1601457521.438,21.484,-24.414,-18.555,-17.578,0.000
1601457521.442,-11.230,-28.809,-23.926,-28.320,0.000
1601457521.446,-61.035,-31.250,-33.203,-39.551,0.000
1601457521.450,-65.430,-41.504,-38.574,-51.758,0.000
1601457521.454,-29.297,-43.945,-31.738,-40.527,0.000
1601457521.458,-5.371,-37.109,-23.926,-26.367,0.000
1601457521.462,-27.832,-31.738,-30.273,-34.668,0.000
1601457521.466,-80.078,-46.387,-43.945,-45.410,0.000
1601457521.469,-90.820,-56.641,-43.945,-54.199,0.000
1601457521.473,-43.457,-42.480,-19.043,-40.039,0.000
1601457521.477,-3.418,-37.109,-14.160,-25.879,0.000
1601457521.481,-23.438,-32.227,-32.227,-35.156,0.000
1601457521.485,-70.801,-35.645,-34.668,-49.805,0.000
1601457521.489,-84.473,-49.316,-36.621,-50.293,0.000
1601457521.493,-43.945,-43.457,-22.949,-35.645,0.000
1601457521.497,-8.789,-37.598,-19.043,-31.250,0.000
1601457521.501,-13.672,-36.621,-32.227,-34.180,0.000
1601457521.505,-54.688,-38.574,-28.809,-41.016,0.000
1601457521.509,-85.449,-50.293,-32.227,-46.875,0.000
1601457521.512,-56.152,-46.387,-35.645,-42.969,0.000
1601457521.516,-13.672,-36.133,-28.809,-32.715,0.000
1601457521.520,-13.672,-33.691,-25.879,-29.785,0.000
1601457521.524,-45.898,-31.738,-28.320,-36.621,0.000
1601457521.528,-68.848,-39.062,-38.086,-41.016,0.000
1601457521.532,-46.387,-39.062,-35.156,-28.320,0.000
1601457521.536,4.395,-22.461,-21.484,-13.184,0.000
1601457521.540,6.836,-17.090,-27.344,-11.230,0.000
1601457521.544,-32.227,-22.461,-34.180,-20.020,0.000
1601457521.548,-65.430,-38.086,-38.086,-30.273,0.000
1601457521.552,-53.223,-46.387,-48.340,-31.738,0.000
1601457521.555,-4.883,-36.133,-37.109,-22.949,0.000
1601457521.559,1.953,-32.227,-26.367,-23.438,0.000
1601457521.563,-34.668,-29.785,-36.133,-30.273,0.000
1601457521.567,-72.754,-35.156,-39.551,-38.574,0.000
1601457521.571,-70.312,-42.480,-40.039,-39.062,0.000
1601457521.575,-20.020,-32.715,-37.598,-24.902,0.000
1601457521.579,-1.953,-29.785,-30.762,-19.531,0.000
1601457521.583,-36.133,-39.551,-32.715,-25.879,0.000
1601457521.587,-69.336,-45.898,-37.598,-37.598,0.000
1601457521.591,-66.895,-44.434,-35.645,-31.250,0.000
1601457521.594,-22.461,-36.621,-30.273,-18.555,0.000
1601457521.598,6.348,-22.949,-21.484,-15.625,0.000
1601457521.602,-20.508,-28.320,-21.484,-22.461,0.000
1601457521.606,-70.801,-52.734,-26.855,-38.574,0.000
1601457521.610,-68.848,-53.711,-29.297,-41.504,0.000
1601457521.614,-24.414,-42.480,-30.273,-28.320,0.000
1601457521.618,-0.488,-37.598,-32.227,-23.926,0.000
1601457521.622,-19.531,-32.715,-38.086,-32.715,0.000
1601457521.626,-69.824,-36.621,-47.852,-49.805,0.000
1601457521.630,-78.613,-43.945,-47.852,-55.664,0.000
1601457521.634,-35.156,-41.016,-40.527,-37.598,0.000
1601457521.637,-2.930,-38.086,-21.973,-24.414,0.000
1601457521.641,-20.508,-37.598,-23.438,-36.621,0.000
1601457521.645,-76.172,-45.410,-45.898,-61.523,0.000
1601457521.649,-93.262,-51.270,-46.387,-66.895,0.000
1601457521.653,-46.387,-37.109,-34.180,-54.688,0.000
1601457521.657,-4.883,-29.785,-27.832,-41.504,0.000
1601457521.661,-20.508,-34.180,-39.551,-43.945,0.000
1601457521.665,-62.500,-33.203,-38.574,-59.570,0.000
1601457521.669,-80.566,-36.621,-36.133,-61.523,0.000
1601457521.673,-57.617,-37.109,-42.969,-43.945,0.000
1601457521.677,-13.672,-37.598,-33.691,-36.133,0.000
1601457521.680,-6.836,-37.109,-18.066,-33.691,0.000
1601457521.684,-56.152,-42.480,-33.203,-47.852,0.000
1601457521.688,-88.867,-51.758,-44.434,-65.430,0.000
1601457521.692,-53.223,-44.922,-33.203,-48.828,0.000
1601457521.696,-5.371,-25.879,-32.227,-27.344,0.000
1601457521.700,2.930,-11.719,-21.973,-14.648,0.000
1601457521.704,-44.434,-21.973,-22.949,-35.645,0.000
1601457521.708,-86.914,-35.156,-36.133,-56.152,0.000
1601457521.712,-64.941,-35.645,-41.016,-45.410,0.000
1601457521.716,-9.277,-31.738,-30.762,-27.344,0.000
1601457521.719,3.418,-34.180,-24.902,-24.414,0.000
1601457521.723,-48.828,-37.598,-33.203,-41.504,0.000
1601457521.727,-75.684,-40.527,-35.156,-47.363,0.000
1601457521.731,-54.688,-49.805,-35.645,-36.621,0.000
1601457521.735,-6.836,-33.203,-29.785,-20.020,0.000
1601457521.739,0.977,-29.785,-33.691,-17.578,0.000
1601457521.743,-43.457,-41.504,-43.457,-30.762,0.000
1601457521.747,-79.590,-39.062,-45.410,-40.527,0.000
1601457521.751,-70.801,-36.133,-36.133,-34.180,0.000
1601457521.755,-20.020,-30.273,-22.949,-19.043,0.000
1601457521.759,3.906,-23.438,-24.902,-20.508,0.000
1601457521.762,-24.902,-25.391,-32.227,-34.180,0.000
1601457521.766,-67.871,-34.668,-37.109,-41.016,0.000
1601457521.770,-67.383,-43.945,-40.527,-41.504,0.000
1601457521.774,-15.137,-38.574,-29.785,-28.320,0.000
1601457521.778,8.789,-25.879,-21.484,-17.578,0.000
1601457521.782,-25.879,-32.715,-20.996,-31.738,0.000
1601457521.786,-78.125,-45.410,-31.250,-51.270,0.000
1601457521.790,-85.449,-48.828,-30.273,-48.828,0.000
1601457521.794,-40.527,-35.156,-14.160,-35.645,0.000
1601457521.798,1.953,-31.250,-18.066,-27.344,0.000
1601457521.802,-19.043,-43.945,-22.461,-33.691,0.000
1601457521.805,-86.914,-45.410,-34.180,-58.105,0.000
1601457521.809,-94.727,-41.016,-44.922,-63.965,0.000
1601457521.813,-46.387,-28.809,-33.691,-43.457,0.000
1601457521.817,-13.672,-17.090,-19.043,-31.738,0.000
1601457521.821,-22.949,-17.578,-19.531,-37.109,0.000
1601457521.825,-67.871,-37.598,-33.203,-48.828,0.000
1601457521.829,-90.820,-56.641,-42.969,-53.711,0.000
1601457521.833,-50.781,-46.387,-34.668,-41.016,0.000
1601457521.837,-4.883,-29.785,-24.414,-27.832,0.000
1601457521.841,-1.953,-28.320,-20.508,-27.344,0.000
1601457521.844,-38.086,-35.156,-27.344,-32.715,0.000
1601457521.848,-70.312,-37.598,-37.109,-40.527,0.000
1601457521.852,-48.340,-37.598,-34.180,-34.180,0.000
1601457521.856,-2.441,-31.738,-28.320,-20.020,0.000
1601457521.860,-1.465,-26.367,-36.621,-25.391,0.000
1601457521.864,-47.852,-32.715,-44.922,-40.527,0.000
1601457521.868,-73.242,-41.992,-35.645,-37.109,0.000
1601457521.872,-49.316,-47.852,-29.297,-28.320,0.000
1601457521.876,-4.395,-35.645,-33.203,-25.879,0.000
1601457521.880,10.742,-21.484,-26.855,-27.344,0.000
1601457521.884,-20.508,-14.160,-29.785,-37.109,0.000
1601457521.887,-67.871,-25.391,-44.434,-47.852,0.000
1601457521.891,-67.383,-38.086,-41.992,-43.457,0.000
1601457521.895,-11.230,-30.762,-29.297,-25.879,0.000
1601457521.899,16.602,-19.531,-21.973,-16.602,0.000
1601457521.903,-13.184,-18.555,-27.344,-22.949,0.000
1601457521.907,-55.176,-24.414,-36.133,-33.691,0.000
1601457521.911,-50.293,-29.297,-29.297,-30.762,0.000
1601457521.915,1.465,-19.043,-21.484,-13.184,0.000
1601457521.919,28.809,-11.230,-26.855,-5.371,0.000
1601457521.923,-10.742,-25.879,-36.621,-15.137,0.000
1601457521.927,-58.594,-37.109,-38.574,-23.438,0.000
1601457521.930,-52.734,-38.086,-31.250,-20.508,0.000
1601457521.934,-6.348,-42.480,-29.297,-9.277,0.000
1601457521.938,20.020,-44.434,-25.391,3.418,0.000
1601457521.942,-14.160,-46.875,-26.367,-14.648,0.000
1601457521.946,-66.895,-39.551,-30.762,-47.363,0.000
1601457521.950,-84.961,-30.273,-23.926,-54.199,0.000
1601457521.954,-47.363,-20.996,-16.113,-30.762,0.000
1601457521.958,-13.184,-25.391,-12.695,-19.043,0.000
1601457521.962,-33.691,-35.156,-16.113,-33.691,0.000
1601457521.966,-80.566,-33.691,-33.691,-52.734,0.000
1601457521.969,-93.262,-42.969,-42.480,-56.641,0.000
1601457521.973,-57.129,-45.410,-38.086,-46.875,0.000
1601457521.977,-18.555,-39.062,-26.367,-38.086,0.000
1601457521.981,-22.461,-44.434,-16.113,-38.574,0.000
1601457521.985,-73.242,-55.176,-29.297,-49.805,0.000
1601457521.989,-97.656,-48.340,-42.480,-53.711,0.000
1601457521.993,-53.223,-36.621,-35.156,-46.387,0.000
1601457521.997,-1.465,-25.391,-21.484,-37.598,0.000
1601457522.001,-10.254,-24.414,-18.066,-31.250,0.000
1601457522.005,-62.012,-41.016,-36.133,-47.363,0.000
1601457522.009,-91.309,-54.199,-42.969,-59.570,0.000
1601457522.012,-57.617,-46.387,-28.809,-42.969,0.000
1601457522.016,-2.930,-20.508,-15.625,-19.531,0.000
1601457522.020,7.812,-16.602,-11.230,-11.719,0.000
1601457522.024,-47.363,-28.320,-27.832,-28.320,0.000
1601457522.028,-83.984,-31.250,-38.086,-37.598,0.000
1601457522.032,-55.664,-38.574,-31.250,-23.926,0.000
1601457522.036,-2.441,-37.598,-19.531,-12.207,0.000
1601457522.040,5.859,-26.367,-11.719,-9.277,0.000
1601457522.044,-36.621,-31.250,-21.973,-21.973,0.000
1601457522.048,-64.453,-47.852,-32.227,-35.645,0.000
1601457522.052,-55.176,-55.176,-28.809,-28.809,0.000
1601457522.055,-8.789,-34.180,-14.648,-11.719,0.000
1601457522.059,18.555,-24.902,-6.348,-8.301,0.000
1601457522.063,-17.578,-38.086,-23.438,-20.996,0.000
1601457522.067,-55.664,-40.039,-33.691,-33.203,0.000
1601457522.071,-42.969,-28.320,-35.645,-31.738,0.000
1601457522.075,-0.977,-22.461,-31.738,-23.926,0.000
1601457522.079,15.137,-20.508,-23.438,-19.531,0.000
1601457522.083,-15.137,-22.949,-32.227,-34.668,0.000
1601457522.087,-66.406,-33.203,-47.852,-55.176,0.000
1601457522.091,-71.289,-31.738,-42.969,-47.852,0.000
1601457522.094,-27.832,-30.273,-23.926,-37.109,0.000
1601457522.098,-9.766,-40.527,-22.461,-41.016,0.000
1601457522.102,-42.969,-47.852,-38.574,-56.641,0.000
1601457522.106,-90.332,-40.039,-46.875,-72.266,0.000
1601457522.110,-94.727,-44.922,-46.387,-63.965,0.000
1601457522.114,-52.734,-47.852,-44.922,-52.734,0.000
1601457522.118,-7.324,-23.438,-25.879,-43.457,0.000
1601457522.122,-26.367,-26.855,-34.180,-49.316,0.000
1601457522.126,-83.008,-41.016,-55.176,-64.453,0.000
1601457522.130,-91.797,-43.457,-50.781,-59.570,0.000
1601457522.134,-54.199,-38.086,-40.527,-45.898,0.000
1601457522.137,-8.789,-27.344,-28.809,-34.180,0.000
1601457522.141,-24.414,-29.785,-34.668,-35.645,0.000
1601457522.145,-76.660,-37.109,-40.527,-46.875,0.000
1601457522.149,-84.473,-43.945,-37.598,-46.875,0.000
1601457522.153,-47.852,-51.270,-35.645,-35.156,0.000
1601457522.157,-2.441,-42.969,-18.555,-17.578,0.000
1601457522.161,-8.789,-40.527,-5.371,-20.508,0.000
1601457522.165,-64.453,-52.246,-28.320,-42.480,0.000
1601457522.169,-89.355,-57.617,-46.387,-50.781,0.000
1601457522.173,-56.641,-46.387,-32.715,-39.551,0.000
1601457522.177,-1.953,-36.133,-23.438,-20.020,0.000
1601457522.180,2.930,-37.598,-27.344,-19.043,0.000
1601457522.184,-47.852,-41.504,-29.785,-28.809,0.000
1601457522.188,-73.730,-54.199,-37.109,-39.062,0.000
1601457522.192,-51.758,-59.570,-35.156,-35.645,0.000
1601457522.196,-2.441,-33.691,-21.484,-17.578,0.000
1601457522.200,8.789,-27.344,-14.648,-13.184,0.000
1601457522.204,-41.504,-43.457,-27.344,-27.832,0.000
1601457522.208,-76.172,-45.898,-38.086,-42.480,0.000
1601457522.212,-58.594,-39.551,-32.715,-38.574,0.000
1601457522.216,-21.973,-36.133,-34.668,-31.250,0.000
1601457522.219,-1.953,-29.297,-35.156,-25.879,0.000
1601457522.223,-33.691,-31.738,-37.109,-30.762,0.000
1601457522.227,-70.312,-30.762,-35.645,-40.527,0.000
1601457522.231,-61.523,-27.344,-30.273,-39.551,0.000
1601457522.235,-18.555,-35.156,-24.902,-24.902,0.000
1601457522.239,2.930,-39.551,-24.414,-17.578,0.000
1601457522.243,-23.926,-40.527,-23.438,-25.879,0.000
1601457522.247,-57.129,-38.086,-23.926,-35.156,0.000
1601457522.251,-58.105,-45.410,-38.574,-37.598,0.000
1601457522.255,-27.832,-42.480,-37.598,-31.738,0.000
1601457522.259,6.836,-33.203,-21.484,-25.879,0.000
1601457522.262,-13.184,-36.621,-25.879,-28.809,0.000
1601457522.266,-74.707,-46.387,-43.457,-43.457,0.000
1601457522.270,-85.938,-51.270,-41.016,-49.805,0.000
1601457522.274,-35.645,-40.039,-27.832,-34.180,0.000
1601457522.278,1.465,-32.227,-24.902,-26.367,0.000
1601457522.282,-13.672,-36.133,-30.762,-32.715,0.000
1601457522.286,-59.570,-50.293,-41.504,-47.852,0.000
1601457522.290,-80.078,-53.711,-45.898,-55.176,0.000
1601457522.294,-40.039,-40.527,-40.039,-48.828,0.000
1601457522.298,-0.977,-26.367,-27.832,-38.086,0.000
1601457522.302,-18.066,-30.273,-25.879,-40.039,0.000
1601457522.305,-58.105,-37.109,-32.715,-49.316,0.000
1601457522.309,-71.289,-37.109,-33.203,-43.457,0.000
1601457522.313,-41.016,-37.598,-30.762,-29.785,0.000
1601457522.317,-4.883,-38.574,-28.809,-19.531,0.000
1601457522.321,-9.277,-36.133,-32.227,-20.020,0.000
1601457522.325,-54.688,-32.715,-33.203,-33.203,0.000
1601457522.329,-85.449,-37.109,-40.039,-44.434,0.000
1601457522.333,-57.617,-45.410,-41.504,-35.645,0.000
1601457522.337,-5.371,-40.039,-21.973,-21.973,0.000
1601457522.341,0.000,-36.621,-11.230,-25.391,0.000
1601457522.344,-56.152,-40.527,-25.879,-37.598,0.000
1601457522.348,-87.891,-44.434,-41.992,-46.387,0.000
1601457522.352,-60.059,-47.363,-34.668,-44.434,0.000
1601457522.356,-8.789,-34.180,-24.902,-31.250,0.000
1601457522.360,1.953,-27.344,-20.508,-23.926,0.000
1601457522.364,-47.363,-38.086,-25.879,-32.715,0.000
1601457522.368,-75.684,-34.180,-38.086,-42.969,0.000
1601457522.372,-55.176,-26.855,-36.621,-38.086,0.000
1601457522.376,-11.719,-21.973,-23.926,-21.973,0.000
1601457522.380,9.277,-20.996,-20.996,-21.484,0.000
1601457522.384,-23.438,-32.715,-33.203,-41.504,0.000
1601457522.387,-76.172,-45.898,-48.828,-56.641,0.000
1601457522.391,-69.336,-40.039,-47.852,-48.828,0.000
1601457522.395,-15.625,-27.344,-32.715,-34.668,0.000
1601457522.399,7.812,-19.043,-34.180,-25.879,0.000
1601457522.403,-26.855,-25.879,-41.504,-36.133,0.000
1601457522.407,-69.824,-38.574,-37.109,-51.270,0.000
1601457522.411,-64.941,-37.109,-30.762,-50.781,0.000
1601457522.415,-22.461,-31.738,-28.320,-41.016,0.000
1601457522.419,1.465,-22.949,-30.762,-33.203,0.000
1601457522.423,-35.645,-37.109,-34.180,-44.922,0.000
1601457522.427,-71.289,-46.875,-35.156,-51.758,0.000
1601457522.430,-75.684,-45.410,-37.598,-48.340,0.000
1601457522.434,-45.410,-42.969,-31.738,-36.133,0.000
1601457522.438,-3.418,-36.621,-28.320,-20.996,0.000
1601457522.442,-17.090,-34.180,-31.250,-25.391,0.000
1601457522.446,-62.988,-33.203,-26.855,-40.527,0.000
1601457522.450,-78.125,-41.504,-27.344,-43.457,0.000
1601457522.454,-42.969,-40.039,-30.273,-35.156,0.000
1601457522.458,-15.137,-37.598,-31.250,-32.227,0.000
1601457522.462,-28.809,-43.457,-29.297,-34.180,0.000
1601457522.466,-70.312,-42.480,-29.297,-45.410,0.000
1601457522.469,-93.750,-50.293,-41.504,-54.199,0.000
1601457522.473,-57.129,-48.828,-36.133,-38.574,0.000
1601457522.477,2.930,-22.461,-11.719,-12.207,0.000
1601457522.481,-1.465,-20.996,-15.625,-12.695,0.000
1601457522.485,-59.082,-46.875,-32.227,-38.086,0.000
1601457522.489,-75.195,-56.152,-37.598,-50.781,0.000
1601457522.493,-50.781,-47.363,-39.551,-41.016,0.000
1601457522.497,-15.625,-34.180,-34.180,-28.809,0.000
1601457522.501,-6.348,-20.020,-22.949,-28.320,0.000
1601457522.505,-55.176,-32.227,-29.297,-42.480,0.000
1601457522.509,-85.449,-48.828,-42.969,-53.223,0.000
1601457522.512,-53.711,-40.527,-40.039,-44.434,0.000
1601457522.516,-2.441,-32.227,-30.762,-28.320,0.000
1601457522.520,3.906,-27.344,-30.762,-27.832,0.000
1601457522.524,-29.297,-29.297,-33.203,-40.527,0.000
1601457522.528,-67.871,-42.969,-39.062,-45.898,0.000
1601457522.532,-67.383,-48.340,-43.945,-43.945,0.000
1601457522.536,-9.277,-43.457,-28.809,-28.320,0.000
1601457522.540,16.113,-29.785,-13.184,-12.207,0.000
1601457522.544,-27.832,-24.414,-21.484,-27.832,0.000
1601457522.548,-82.520,-36.133,-48.828,-59.082,0.000
1601457522.552,-68.848,-28.320,-58.105,-57.617,0.000
1601457522.555,-14.648,-17.578,-41.992,-34.668,0.000
1601457522.559,-3.418,-23.438,-28.320,-34.180,0.000
1601457522.563,-38.086,-20.020,-22.461,-40.527,0.000
1601457522.567,-74.707,-27.344,-29.297,-42.480,0.000
1601457522.571,-67.871,-31.738,-30.762,-35.645,0.000
1601457522.575,-16.602,-20.996,-18.066,-17.090,0.000
1601457522.579,7.324,-28.320,-14.160,-14.160,0.000
1601457522.583,-17.578,-36.621,-24.414,-22.949,0.000
1601457522.587,-51.270,-32.715,-32.715,-30.273,0.000
1601457522.591,-56.152,-31.250,-33.691,-28.320,0.000
1601457522.594,-12.695,-31.250,-34.180,-28.320,0.000
1601457522.598,24.902,-26.367,-28.320,-26.367,0.000
1601457522.602,-12.695,-29.297,-26.367,-28.809,0.000
1601457522.606,-62.500,-27.832,-25.879,-39.062,0.000
1601457522.610,-62.500,-29.785,-29.785,-34.180,0.000
1601457522.614,-21.484,-24.902,-27.832,-18.066,0.000
1601457522.618,18.066,-2.441,-16.113,-10.254,0.000
1601457522.622,6.836,-6.348,-13.672,-13.672,0.000
1601457522.626,-43.945,-28.809,-23.438,-34.180,0.000
1601457522.630,-60.059,-34.180,-34.180,-44.922,0.000
1601457522.634,-38.086,-26.367,-25.879,-29.785,0.000
1601457522.637,0.000,-18.066,-10.254,-14.160,0.000
1601457522.641,0.977,-17.090,-11.719,-9.277,0.000
1601457522.645,-46.387,-25.879,-21.973,-22.949,0.000
1601457522.649,-68.848,-35.645,-30.273,-34.180,0.000
1601457522.653,-36.133,-31.250,-29.297,-18.066,0.000
1601457522.657,12.207,-17.090,-21.973,-1.465,0.000
1601457522.661,17.090,-15.137,-16.113,-2.930,0.000
1601457522.665,-31.250,-25.879,-19.043,-22.461,0.000
1601457522.669,-70.312,-39.551,-23.926,-29.785,0.000
1601457522.673,-42.969,-39.062,-19.531,-16.602,0.000
1601457522.677,3.418,-29.785,-13.672,-8.789,0.000
1601457522.680,4.883,-29.297,-15.137,-13.184,0.000
1601457522.684,-41.504,-35.156,-21.973,-24.902,0.000
1601457522.688,-71.777,-40.527,-32.227,-28.320,0.000
1601457522.692,-45.898,-38.086,-32.715,-20.508,0.000
1601457522.696,-5.371,-28.320,-13.184,-3.906,0.000
1601457522.700,7.324,-17.578,-6.348,0.977,0.000
1601457522.704,-30.273,-27.344,-24.902,-19.531,0.000
1601457522.708,-72.754,-52.246,-21.973,-33.691,0.000
1601457522.712,-65.430,-56.641,-6.348,-31.250,0.000
1601457522.716,-11.719,-35.156,-1.465,-20.020,0.000
1601457522.719,8.301,-25.879,-6.348,-20.020,0.000
1601457522.723,-42.480,-34.668,-23.926,-39.062,0.000
1601457522.727,-83.008,-34.180,-27.344,-46.875,0.000
1601457522.731,-72.266,-33.691,-23.926,-47.363,0.000
1601457522.735,-26.855,-26.367,-20.020,-34.668,0.000
1601457522.739,14.160,-15.137,-16.602,-20.996,0.000
1601457522.743,-14.160,-24.902,-18.555,-25.879,0.000
1601457522.747,-58.594,-37.109,-23.438,-30.273,0.000
1601457522.751,-54.199,-45.898,-31.738,-34.180,0.000
1601457522.755,-24.414,-35.645,-28.809,-36.133,0.000
1601457522.759,5.371,-15.625,-8.789,-28.809,0.000
1601457522.762,-8.301,-19.043,-10.742,-28.320,0.000
1601457522.766,-56.152,-23.926,-28.809,-41.992,0.000
1601457522.770,-73.242,-24.902,-35.156,-44.922,0.000
1601457522.774,-23.926,-20.020,-25.879,-31.738,0.000
1601457522.778,3.418,-24.902,-20.996,-24.902,0.000
1601457522.782,-24.414,-37.109,-23.438,-28.320,0.000
1601457522.786,-57.129,-36.621,-27.832,-35.645,0.000
1601457522.790,-75.684,-41.016,-35.645,-40.039,0.000
1601457522.794,-57.617,-39.551,-35.645,-36.133,0.000
1601457522.798,-15.625,-31.250,-28.320,-27.832,0.000
1601457522.802,-12.207,-31.250,-21.973,-26.367,0.000
1601457522.805,-60.059,-36.621,-32.715,-39.551,0.000
1601457522.809,-84.473,-43.945,-36.621,-43.457,0.000
1601457522.813,-55.176,-42.480,-30.273,-34.668,0.000
1601457522.817,-20.020,-37.109,-31.250,-28.320,0.000
1601457522.821,-20.020,-36.133,-29.297,-31.250,0.000
1601457522.825,-64.453,-35.645,-37.598,-52.734,0.000
1601457522.829,-96.680,-41.016,-40.527,-66.406,0.000
1601457522.833,-69.336,-38.086,-24.414,-52.246,0.000
1601457522.837,-17.578,-31.250,-19.531,-34.180,0.000
1601457522.841,-1.465,-25.879,-17.578,-25.879,0.000
1601457522.844,-51.758,-37.598,-27.832,-39.551,0.000
1601457522.848,-90.332,-58.105,-41.016,-51.270,0.000
1601457522.852,-63.477,-46.875,-29.785,-37.598,0.000
1601457522.856,-7.324,-21.484,-21.484,-16.602,0.000
1601457522.860,11.230,-28.320,-23.926,-19.043,0.000
1601457522.864,-29.297,-36.133,-26.367,-32.715,0.000
1601457522.868,-66.406,-29.297,-24.902,-27.832,0.000
1601457522.872,-54.199,-35.156,-31.250,-27.344,0.000
1601457522.876,-7.324,-31.738,-35.156,-20.020,0.000
1601457522.880,0.488,-25.879,-30.273,-16.602,0.000
1601457522.884,-49.316,-35.156,-35.156,-38.574,0.000
1601457522.887,-90.332,-42.969,-39.551,-52.734,0.000
1601457522.891,-86.914,-52.246,-38.086,-49.805,0.000
1601457522.895,-38.086,-41.504,-29.785,-35.645,0.000
1601457522.899,1.953,-24.414,-26.367,-27.344,0.000
1601457522.903,-29.297,-26.855,-30.762,-36.621,0.000
1601457522.907,-94.727,-39.551,-40.527,-52.246,0.000
1601457522.911,-99.609,-42.480,-28.320,-50.293,0.000
1601457522.915,-48.340,-35.156,-14.160,-36.621,0.000
1601457522.919,-3.418,-27.344,-19.531,-29.785,0.000
1601457522.923,-35.156,-31.250,-27.832,-47.852,0.000
1601457522.927,-87.402,-44.922,-44.434,-67.383,0.000
1601457522.930,-87.891,-51.270,-43.945,-61.523,0.000
1601457522.934,-47.363,-49.805,-35.156,-45.410,0.000
1601457522.938,-4.395,-43.945,-29.785,-26.855,0.000
1601457522.942,-16.113,-43.945,-22.461,-29.785,0.000
1601457522.946,-64.941,-40.527,-22.461,-44.434,0.000
1601457522.950,-77.637,-46.875,-24.902,-46.875,0.000
1601457522.954,-39.551,-41.992,-25.879,-32.227,0.000
1601457522.958,3.418,-26.367,-20.020,-20.020,0.000
1601457522.962,-1.953,-28.809,-25.879,-22.461,0.000
1601457522.966,-50.293,-41.992,-37.109,-33.203,0.000
1601457522.969,-66.406,-41.504,-25.879,-34.180,0.000
1601457522.973,-35.156,-32.715,-19.531,-19.531,0.000
1601457522.977,1.465,-27.344,-24.902,-15.137,0.000
1601457522.981,6.348,-25.879,-24.414,-16.602,0.000
1601457522.985,-38.086,-37.598,-31.738,-26.855,0.000
1601457522.989,-74.707,-52.734,-38.574,-35.645,0.000
1601457522.993,-51.758,-53.711,-31.250,-29.785,0.000
1601457522.997,2.930,-37.598,-18.555,-14.160,0.000
1601457523.001,13.184,-38.574,-18.066,-10.254,0.000
1601457523.005,-39.062,-43.945,-29.785,-27.832,0.000
1601457523.009,-75.684,-41.016,-34.668,-40.527,0.000
1601457523.012,-59.082,-37.109,-34.668,-39.551,0.000
1601457523.016,-15.625,-28.320,-31.738,-26.367,0.000
1601457523.020,-0.977,-14.160,-26.367,-21.484,0.000
1601457523.024,-33.203,-23.926,-26.855,-34.668,0.000
1601457523.028,-84.961,-46.875,-35.645,-52.246,0.000
1601457523.032,-86.426,-48.828,-41.016,-55.664,0.000
1601457523.036,-24.414,-38.086,-26.367,-37.598,0.000
1601457523.040,-2.441,-31.250,-20.508,-32.227,0.000
1601457523.044,-30.273,-29.297,-29.297,-44.922,0.000
1601457523.048,-70.801,-29.785,-40.527,-62.500,0.000
1601457523.052,-75.195,-32.715,-44.922,-61.035,0.000
1601457523.055,-19.531,-19.531,-29.785,-34.668,0.000
1601457523.059,13.672,-14.160,-20.996,-26.367,0.000
1601457523.063,-14.160,-27.344,-23.926,-34.668,0.000
1601457523.067,-66.895,-41.016,-38.086,-48.828,0.000
1601457523.071,-72.266,-44.434,-42.969,-53.223,0.000
1601457523.075,-26.367,-41.016,-35.156,-38.086,0.000
1601457523.079,5.859,-27.832,-29.297,-27.832,0.000
1601457523.083,-13.672,-24.414,-31.250,-40.039,0.000
1601457523.087,-68.359,-34.668,-34.668,-51.270,0.000
1601457523.091,-80.078,-38.574,-31.250,-48.340,0.000
1601457523.094,-37.109,-31.738,-27.832,-38.086,0.000
1601457523.098,-6.348,-30.762,-35.156,-32.715,0.000
1601457523.102,-23.926,-30.762,-36.621,-40.527,0.000
1601457523.106,-65.430,-26.855,-43.457,-50.781,0.000
1601457523.110,-77.637,-35.645,-45.898,-46.387,0.000
1601457523.114,-46.387,-36.133,-20.996,-30.762,0.000
1601457523.118,-12.695,-20.508,-5.371,-20.020,0.000
1601457523.122,-20.996,-27.832,-13.184,-23.926,0.000
1601457523.126,-67.383,-42.969,-21.484,-40.527,0.000
1601457523.130,-96.680,-58.105,-18.555,-53.223,0.000
1601457523.134,-63.965,-57.617,-15.137,-44.922,0.000
1601457523.137,-15.625,-34.180,-6.836,-27.344,0.000
1601457523.141,-16.113,-35.156,-3.906,-26.855,0.000
1601457523.145,-61.523,-48.828,-18.555,-38.086,0.000
1601457523.149,-85.938,-47.852,-24.902,-42.480,0.000
1601457523.153,-54.199,-41.016,-17.090,-25.391,0.000
1601457523.157,-0.977,-31.250,-9.277,-8.301,0.000
1601457523.161,-0.977,-29.785,-8.789,-6.836,0.000
1601457523.165,-46.875,-36.621,-17.090,-19.531,0.000
1601457523.169,-79.590,-45.410,-31.250,-37.598,0.000
1601457523.173,-67.383,-53.223,-35.645,-38.574,0.000
1601457523.177,-17.090,-47.363,-26.367,-24.902,0.000
1601457523.180,6.836,-40.039,-21.484,-17.578,0.000
1601457523.184,-35.645,-40.039,-25.391,-26.367,0.000
1601457523.188,-81.055,-44.434,-32.715,-41.992,0.000
1601457523.192,-70.801,-42.969,-33.203,-39.062,0.000
1601457523.196,-21.973,-34.668,-28.809,-22.949,0.000
1601457523.200,7.324,-34.668,-19.043,-20.508,0.000
1601457523.204,-19.043,-36.621,-9.277,-22.461,0.000
1601457523.208,-63.965,-40.527,-19.043,-35.645,0.000
1601457523.212,-64.941,-45.898,-29.785,-39.551,0.000
1601457523.216,-22.949,-40.039,-25.879,-32.715,0.000
1601457523.219,5.371,-30.762,-17.090,-27.344,0.000
1601457523.223,-15.625,-29.785,-12.695,-21.484,0.000
1601457523.227,-64.453,-36.621,-20.020,-28.809,0.000
1601457523.231,-72.266,-43.945,-27.832,-30.273,0.000
1601457523.235,-26.367,-39.062,-22.461,-14.648,0.000
1601457523.239,9.766,-30.762,-12.695,-3.418,0.000
1601457523.243,-10.742,-35.156,-20.020,-8.789,0.000
1601457523.247,-47.852,-47.852,-27.832,-25.879,0.000
1601457523.251,-61.035,-47.852,-27.344,-36.133,0.000
1601457523.255,-24.902,-26.855,-17.578,-23.438,0.000
1601457523.259,13.184,-16.113,-14.648,-16.602,0.000
1601457523.262,-12.207,-25.879,-23.438,-26.367,0.000
1601457523.266,-51.270,-33.691,-23.926,-36.133,0.000
1601457523.270,-68.359,-41.016,-27.832,-44.434,0.000
1601457523.274,-37.598,-43.945,-38.086,-40.527,0.000
1601457523.278,7.324,-29.297,-26.367,-20.996,0.000
1601457523.282,1.953,-29.785,-22.949,-20.508,0.000
1601457523.286,-53.711,-41.016,-45.898,-43.945,0.000
1601457523.290,-76.660,-43.945,-43.945,-46.875,0.000
1601457523.294,-48.340,-44.434,-36.133,-34.668,0.000
1601457523.298,-13.184,-34.180,-36.133,-26.855,0.000
1601457523.302,-7.324,-29.785,-33.203,-23.926,0.000
1601457523.305,-42.480,-34.180,-37.109,-30.762,0.000
1601457523.309,-73.730,-36.621,-43.945,-40.039,0.000
1601457523.313,-49.316,-37.598,-46.387,-42.480,0.000
1601457523.317,-2.930,-31.738,-31.738,-30.273,0.000
1601457523.321,-3.906,-22.461,-21.973,-28.809,0.000
1601457523.325,-40.039,-19.531,-20.020,-38.086,0.000
1601457523.329,-77.637,-31.738,-33.203,-43.457,0.000
1601457523.333,-59.570,-43.945,-47.852,-37.109,0.000
1601457523.337,-8.301,-38.574,-39.551,-26.855,0.000
1601457523.341,0.488,-29.297,-32.715,-29.785,0.000
1601457523.344,-32.715,-27.344,-35.645,-42.480,0.000
1601457523.348,-72.266,-33.691,-41.992,-53.711,0.000
1601457523.352,-57.617,-27.344,-28.809,-40.039,0.000
1601457523.356,-7.812,-23.438,-19.531,-23.438,0.000
1601457523.360,0.000,-30.762,-14.648,-27.344,0.000
1601457523.364,-31.738,-35.156,-13.184,-43.457,0.000
1601457523.368,-71.777,-40.527,-20.020,-48.828,0.000
1601457523.372,-73.242,-48.828,-20.020,-44.434,0.000
1601457523.376,-17.090,-35.645,-11.230,-35.645,0.000
1601457523.380,20.020,-16.602,-3.418,-28.320,0.000
1601457523.384,-19.043,-18.555,-8.301,-32.715,0.000
1601457523.387,-81.055,-36.133,-24.414,-48.828,0.000
1601457523.391,-84.473,-39.551,-30.762,-50.781,0.000
1601457523.395,-35.156,-28.809,-18.555,-30.762,0.000
1601457523.399,-4.883,-29.785,-8.301,-21.973,0.000
1601457523.403,-21.484,-30.273,-7.812,-29.297,0.000
1601457523.407,-65.918,-36.133,-19.043,-38.086,0.000
1601457523.411,-79.102,-54.688,-24.902,-36.133,0.000
1601457523.415,-33.203,-44.434,-9.277,-22.461,0.000
1601457523.419,0.000,-24.902,-5.859,-14.160,0.000
1601457523.423,-5.859,-21.484,-17.578,-22.461,0.000
1601457523.427,-57.129,-39.062,-31.738,-46.875,0.000
1601457523.430,-93.262,-49.805,-32.715,-58.594,0.000
1601457523.434,-47.363,-33.203,-21.973,-41.992,0.000
1601457523.438,-1.953,-28.809,-9.766,-22.461,0.000
1601457523.442,-11.719,-36.133,-14.160,-21.973,0.000
1601457523.446,-56.641,-37.109,-29.785,-37.109,0.000
1601457523.450,-74.219,-42.480,-22.461,-42.969,0.000
1601457523.454,-39.062,-45.898,-15.625,-33.691,0.000
1601457523.458,-9.277,-35.645,-14.648,-23.926,0.000
1601457523.462,-14.648,-31.250,-16.113,-29.297,0.000
1601457523.466,-51.758,-43.457,-33.691,-44.434,0.000
1601457523.469,-79.102,-59.082,-34.668,-44.922,0.000
1601457523.473,-57.129,-52.246,-25.391,-36.621,0.000
1601457523.477,-10.742,-29.297,-17.090,-27.832,0.000
1601457523.481,2.441,-25.879,-15.625,-27.832,0.000
1601457523.485,-32.227,-34.668,-23.926,-31.738,0.000
1601457523.489,-64.453,-39.551,-30.762,-37.109,0.000
1601457523.493,-47.363,-37.109,-26.855,-35.156,0.000
1601457523.497,1.953,-25.391,-14.648,-14.648,0.000
1601457523.501,7.324,-28.320,-18.066,-15.137,0.000
1601457523.505,-30.273,-30.762,-26.855,-34.180,0.000
1601457523.509,-67.383,-41.992,-34.668,-41.504,0.000
1601457523.512,-75.684,-55.176,-38.574,-36.621,0.000
1601457523.516,-29.785,-35.645,-31.250,-25.879,0.000
1601457523.520,-11.230,-27.344,-31.738,-26.367,0.000
1601457523.524,-47.363,-30.273,-36.133,-38.086,0.000
1601457523.528,-78.613,-37.598,-35.156,-42.969,0.000
1601457523.532,-68.848,-45.410,-40.039,-40.039,0.000
1601457523.536,-31.250,-42.969,-33.691,-34.180,0.000
1601457523.540,1.465,-34.180,-21.484,-22.461,0.000
1601457523.544,-20.020,-27.344,-20.996,-27.832,0.000
1601457523.548,-72.754,-40.039,-35.645,-47.363,0.000
1601457523.552,-74.219,-55.176,-45.898,-46.387,0.000
1601457523.555,-24.902,-35.645,-33.203,-28.320,0.000
1601457523.559,4.395,-19.531,-26.367,-26.367,0.000
1601457523.563,-21.484,-24.414,-31.738,-41.992,0.000
1601457523.567,-72.266,-30.762,-36.621,-53.223,0.000
1601457523.571,-74.219,-26.855,-33.203,-45.410,0.000
1601457523.575,-28.809,-24.902,-19.531,-24.902,0.000
1601457523.579,-0.977,-20.508,-13.672,-21.973,0.000
1601457523.583,-4.395,-16.113,-20.508,-30.273,0.000
1601457523.587,-51.758,-21.973,-37.109,-36.621,0.000
1601457523.591,-85.449,-34.180,-45.898,-42.969,0.000
1601457523.594,-45.410,-38.574,-33.203,-37.109,0.000
1601457523.598,-2.441,-30.273,-18.555,-23.438,0.000
1601457523.602,-11.230,-25.879,-18.066,-22.461,0.000
1601457523.606,-60.059,-30.762,-27.832,-40.527,0.000
1601457523.610,-82.520,-43.457,-36.621,-46.875,0.000
1601457523.614,-55.664,-34.668,-25.879,-36.133,0.000
1601457523.618,-3.906,-8.301,-13.184,-28.809,0.000
1601457523.622,1.465,-14.160,-26.855,-28.809,0.000
1601457523.626,-47.852,-38.574,-42.969,-40.527,0.000
1601457523.630,-67.383,-45.410,-45.898,-41.992,0.000
1601457523.634,-41.504,-37.109,-37.109,-24.902,0.000
1601457523.637,2.441,-23.438,-24.902,-11.719,0.000
1601457523.641,10.254,-19.531,-27.344,-18.066,0.000
1601457523.645,-35.645,-32.227,-33.203,-38.086,0.000
1601457523.649,-68.848,-57.617,-34.180,-48.340,0.000
1601457523.653,-47.852,-51.758,-32.227,-37.598,0.000
1601457523.657,-4.883,-28.320,-29.785,-28.320,0.000
1601457523.661,10.742,-28.809,-30.762,-24.902,0.000
1601457523.665,-24.902,-27.832,-28.809,-28.809,0.000
1601457523.669,-64.941,-39.551,-35.645,-34.668,0.000
1601457523.673,-61.523,-46.387,-41.992,-31.250,0.000
1601457523.677,-20.020,-33.203,-25.879,-19.531,0.000
1601457523.680,13.672,-20.508,-12.207,-11.230,0.000
1601457523.684,-17.090,-18.066,-24.902,-21.484,0.000
1601457523.688,-81.055,-38.574,-44.922,-39.551,0.000
1601457523.692,-84.473,-57.129,-40.527,-41.504,0.000
1601457523.696,-30.762,-37.109,-20.996,-26.367,0.000
1601457523.700,0.977,-30.273,-18.555,-18.555,0.000
1601457523.704,-23.926,-44.922,-23.438,-24.414,0.000
1601457523.708,-59.082,-36.621,-27.344,-26.855,0.000
1601457523.712,-54.688,-25.391,-34.668,-25.391,0.000
1601457523.716,-13.672,-27.344,-31.738,-19.531,0.000
1601457523.719,15.137,-20.020,-33.691,-22.461,0.000
1601457523.723,4.395,-15.137,-47.363,-33.691,0.000
1601457523.727,-43.457,-22.949,-57.617,-41.016,0.000
1601457523.731,-64.941,-26.367,-54.199,-45.410,0.000
1601457523.735,-20.508,-19.043,-42.480,-31.250,0.000
1601457523.739,15.625,-19.043,-34.180,-20.020,0.000
1601457523.743,-0.977,-32.227,-29.785,-28.809,0.000
1601457523.747,-49.805,-37.598,-38.086,-41.016,0.000
1601457523.751,-62.988,-47.363,-38.086,-45.898,0.000
1601457523.755,-20.996,-36.133,-31.250,-36.621,0.000
1601457523.759,12.695,-17.578,-27.832,-20.020,0.000
1601457523.762,5.371,-24.414,-29.785,-21.484,0.000
1601457523.766,-41.016,-41.504,-42.969,-36.621,0.000
1601457523.770,-60.547,-41.016,-53.711,-36.621,0.000
1601457523.774,-29.297,-28.809,-53.223,-33.203,0.000
1601457523.778,14.648,-20.020,-43.945,-20.508,0.000
1601457523.782,19.043,-18.555,-36.621,-20.996,0.000
1601457523.786,-31.738,-30.762,-39.551,-39.551,0.000
1601457523.790,-70.312,-41.016,-45.410,-42.969,0.000
1601457523.794,-46.387,-39.062,-44.434,-40.527,0.000
1601457523.798,-4.395,-26.367,-34.180,-30.273,0.000
1601457523.802,-6.836,-29.297,-33.203,-28.320,0.000
1601457523.805,-46.875,-35.645,-40.039,-38.574,0.000
1601457523.809,-81.543,-46.875,-41.992,-47.363,0.000
1601457523.813,-51.758,-49.805,-31.250,-41.016,0.000
1601457523.817,-3.418,-28.809,-10.742,-18.066,0.000
1601457523.821,3.906,-14.160,-11.719,-8.789,0.000
1601457523.825,-33.203,-25.879,-30.762,-27.344,0.000
1601457523.829,-70.801,-45.898,-35.156,-40.039,0.000
1601457523.833,-60.059,-44.922,-43.457,-41.016,0.000
1601457523.837,-7.812,-24.414,-32.227,-24.902,0.000
1601457523.841,18.555,-22.949,-20.996,-23.926,0.000
1601457523.844,-20.508,-39.062,-31.738,-44.434,0.000
1601457523.848,-75.684,-51.758,-42.480,-49.316,0.000
1601457523.852,-73.242,-47.852,-41.016,-45.410,0.000
1601457523.856,-10.742,-38.086,-28.320,-25.879,0.000
1601457523.860,22.949,-30.762,-21.973,-13.184,0.000
1601457523.864,-20.508,-26.855,-32.227,-23.926,0.000
1601457523.868,-67.383,-27.832,-37.598,-34.668,0.000
1601457523.872,-61.523,-25.391,-29.297,-34.180,0.000
1601457523.876,-3.906,-15.625,-26.367,-17.090,0.000
1601457523.880,18.066,-18.066,-29.785,-8.789,0.000
1601457523.884,-15.137,-32.715,-34.180,-20.996,0.000
1601457523.887,-62.012,-40.039,-41.504,-32.715,0.000
1601457523.891,-81.543,-40.039,-48.828,-33.203,0.000
1601457523.895,-44.922,-42.480,-40.527,-21.973,0.000
1601457523.899,-9.277,-37.109,-28.809,-14.160,0.000
1601457523.903,-22.949,-28.320,-28.320,-11.230,0.000
1601457523.907,-69.336,-29.785,-28.320,-22.461,0.000
1601457523.911,-84.961,-35.156,-25.391,-28.809,0.000
1601457523.915,-51.758,-30.762,-32.715,-18.066,0.000
1601457523.919,-7.812,-20.020,-23.926,-6.836,0.000
1601457523.923,-9.766,-24.902,-15.625,-14.648,0.000
1601457523.927,-62.012,-41.504,-34.668,-34.668,0.000
1601457523.930,-85.938,-46.875,-36.621,-36.133,0.000
1601457523.934,-50.781,-38.574,-29.297,-25.879,0.000
1601457523.938,7.812,-22.461,-20.996,-15.137,0.000
1601457523.942,6.348,-23.438,-17.578,-13.184,0.000
1601457523.946,-52.246,-37.598,-33.203,-29.785,0.000
1601457523.950,-69.336,-45.898,-36.621,-42.480,0.000
1601457523.954,-43.945,-41.016,-29.785,-32.227,0.000
1601457523.958,-1.953,-26.367,-23.438,-22.949,0.000
1601457523.962,12.207,-20.996,-19.531,-17.578,0.000
1601457523.966,-31.738,-32.227,-24.414,-23.438,0.000
1601457523.969,-60.547,-47.852,-29.297,-27.832,0.000
1601457523.973,-33.691,-48.828,-32.715,-23.926,0.000
1601457523.977,8.789,-33.203,-27.344,-19.531,0.000
1601457523.981,20.508,-25.391,-16.602,-18.066,0.000
1601457523.985,-26.367,-29.785,-19.043,-31.738,0.000
1601457523.989,-68.359,-30.273,-20.508,-41.016,0.000
1601457523.993,-49.316,-26.855,-25.879,-31.250,0.000
1601457523.997,-1.953,-25.879,-25.391,-18.066,0.000
1601457524.001,26.855,-24.902,-17.090,-13.672,0.000
1601457524.005,-5.371,-29.785,-20.996,-23.438,0.000
1601457524.009,-64.453,-40.039,-28.320,-40.039,0.000
1601457524.012,-63.965,-47.363,-29.785,-39.062,0.000
1601457524.016,-20.996,-43.945,-29.785,-23.926,0.000
1601457524.020,1.465,-40.039,-28.320,-18.555,0.000
1601457524.024,-23.926,-52.734,-35.645,-29.297,0.000
1601457524.028,-66.895,-51.270,-37.598,-41.504,0.000
1601457524.032,-77.637,-35.645,-35.156,-45.410,0.000
1601457524.036,-36.621,-25.391,-28.320,-36.133,0.000
1601457524.040,-4.395,-20.996,-17.090,-27.832,0.000
1601457524.044,-41.016,-26.855,-30.762,-44.922,0.000
1601457524.048,-87.891,-33.691,-45.410,-56.641,0.000
1601457524.052,-91.797,-49.805,-50.293,-53.223,0.000
1601457524.055,-51.758,-45.410,-37.598,-43.457,0.000
1601457524.059,-8.301,-24.902,-32.715,-36.133,0.000
1601457524.063,-29.297,-31.738,-41.992,-44.434,0.000
1601457524.067,-80.566,-44.922,-47.363,-58.594,0.000
1601457524.071,-84.473,-41.992,-43.945,-58.105,0.000
1601457524.075,-41.504,-23.438,-35.645,-37.598,0.000
1601457524.079,1.465,-15.137,-20.020,-21.484,0.000
1601457524.083,-3.418,-27.344,-14.648,-22.949,0.000
1601457524.087,-52.734,-38.574,-24.902,-38.086,0.000
1601457524.091,-76.172,-41.016,-30.762,-43.945,0.000
1601457524.094,-42.969,-35.645,-28.809,-29.297,0.000
1601457524.098,9.277,-27.344,-12.207,-5.859,0.000
1601457524.102,24.414,-16.113,-1.953,-1.953,0.000
1601457524.106,-35.645,-20.020,-14.648,-21.973,0.000
1601457524.110,-78.613,-32.715,-21.973,-37.598,0.000
1601457524.114,-55.176,-36.621,-14.160,-35.156,0.000
1601457524.118,-19.531,-24.902,-3.906,-30.273,0.000
1601457524.122,-20.996,-20.020,-1.953,-38.086,0.000
1601457524.126,-68.359,-19.043,-9.277,-64.453,0.000
1601457524.130,-105.469,-16.113,0.000,-77.637,0.000
1601457524.134,-105.469,-19.043,8.301,-85.449,0.000
1601457524.137,-68.359,-2.441,18.555,-90.332,0.000
1601457524.141,-71.777,10.742,20.996,-107.910,0.000
1601457524.145,-125.000,12.207,22.949,-132.812,0.000
1601457524.149,-177.246,5.859,23.926,-156.738,0.000
1601457524.153,-186.035,-2.441,24.902,-173.340,0.000
1601457524.157,-143.555,12.695,48.828,-166.992,0.000
1601457524.161,-143.066,18.555,45.898,-178.223,0.000
1601457524.165,-193.359,13.184,27.832,-205.566,0.000
1601457524.169,-247.559,5.859,16.113,-228.027,0.000
1601457524.173,-233.398,8.301,20.020,-222.168,0.000
1601457524.177,-189.941,20.508,28.320,-208.984,0.000
1601457524.180,-183.594,30.762,28.320,-209.473,0.000
1601457524.184,-205.566,41.504,17.578,-215.332,0.000
1601457524.188,-248.047,40.527,15.137,-226.074,0.000
1601457524.192,-253.906,30.273,23.926,-227.051,0.000
1601457524.196,-205.078,24.414,20.996,-212.402,0.000
1601457524.200,-163.086,34.668,13.672,-202.148,0.000
1601457524.204,-181.641,29.785,5.371,-207.520,0.000
1601457524.208,-228.516,0.488,-0.977,-215.332,0.000
1601457524.212,-220.703,-13.672,-2.930,-202.637,0.000
1601457524.216,-167.969,-8.301,-7.812,-176.758,0.000
1601457524.219,-119.141,-5.371,-17.578,-157.227,0.000
1601457524.223,-124.512,-4.395,-22.461,-145.020,0.000
1601457524.227,-167.969,-17.578,-32.227,-139.648,0.000
1601457524.231,-154.785,-34.668,-38.574,-120.117,0.000
1601457524.235,-98.633,-33.203,-30.762,-90.820,0.000
1601457524.239,-51.270,-21.973,-29.297,-72.754,0.000
1601457524.243,-49.805,-30.762,-38.086,-71.289,0.000
1601457524.247,-84.961,-43.945,-50.293,-75.195,0.000
1601457524.251,-92.773,-62.500,-53.223,-67.383,0.000
1601457524.255,-52.246,-71.777,-42.969,-43.945,0.000
1601457524.259,0.488,-56.152,-41.016,-20.508,0.000
1601457524.262,15.625,-52.246,-44.434,-11.230,0.000
1601457524.266,-8.789,-58.594,-47.852,-7.812,0.000
1601457524.270,-27.344,-58.594,-47.852,-1.465,0.000
1601457524.274,-1.953,-56.152,-37.598,8.789,0.000
1601457524.278,45.410,-51.270,-34.180,30.273,0.000
1601457524.282,61.523,-47.852,-41.504,37.109,0.000
1601457524.286,15.625,-58.594,-48.828,27.344,0.000
1601457524.290,-22.461,-65.918,-59.570,21.484,0.000
1601457524.294,1.465,-61.035,-60.547,21.484,0.000
1601457524.298,53.223,-46.875,-41.016,38.574,0.000
1601457524.302,64.941,-40.527,-41.016,45.898,0.000
1601457524.305,23.438,-49.316,-53.711,33.203,0.000
1601457524.309,-7.324,-68.359,-51.270,29.785,0.000
1601457524.313,0.488,-69.824,-47.852,38.574,0.000
1601457524.317,55.176,-56.152,-42.969,47.852,0.000
1601457524.321,78.613,-47.363,-39.062,55.664,0.000
1601457524.325,37.109,-46.875,-41.992,47.363,0.000
1601457524.329,6.836,-50.781,-41.504,31.738,0.000
1601457524.333,7.812,-48.340,-39.551,25.391,0.000
1601457524.337,45.898,-42.480,-34.668,34.668,0.000
1601457524.341,76.660,-28.809,-24.902,46.875,0.000
1601457524.344,47.363,-29.785,-28.320,37.598,0.000
1601457524.348,4.395,-51.270,-33.691,26.855,0.000
1601457524.352,15.625,-62.500,-38.086,31.738,0.000
1601457524.356,49.316,-46.387,-36.621,44.434,0.000
1601457524.360,73.242,-27.832,-25.391,53.711,0.000
1601457524.364,48.828,-35.156,-32.227,43.945,0.000
1601457524.368,-5.371,-49.805,-51.270,20.996,0.000
1601457524.372,-11.719,-56.152,-51.758,18.555,0.000
1601457524.376,27.344,-53.223,-36.133,31.738,0.000
1601457524.380,53.711,-48.828,-28.809,39.551,0.000
1601457524.384,41.504,-39.551,-20.996,39.551,0.000
1601457524.387,-6.348,-39.551,-28.320,19.043,0.000
1601457524.391,-39.062,-62.012,-46.875,4.395,0.000
1601457524.395,-3.418,-59.082,-46.875,15.137,0.000
1601457524.399,51.270,-39.062,-33.203,34.180,0.000
1601457524.403,38.086,-36.133,-23.926,27.832,0.000
1601457524.407,-16.113,-39.062,-28.320,4.883,0.000
1601457524.411,-34.668,-46.387,-37.598,8.301,0.000
1601457524.415,-4.395,-46.387,-36.621,16.113,0.000
1601457524.419,33.691,-39.551,-38.086,18.066,0.000
1601457524.423,31.738,-37.109,-36.133,18.555,0.000
1601457524.427,-16.602,-50.781,-34.668,6.836,0.000
1601457524.430,-36.133,-60.059,-43.457,-4.395,0.000
1601457524.434,-3.418,-47.363,-38.086,2.441,0.000
1601457524.438,26.855,-37.598,-34.180,11.230,0.000
1601457524.442,30.762,-44.922,-37.598,9.766,0.000
1601457524.446,-6.348,-50.781,-38.086,-1.953,0.000
1601457524.450,-30.762,-56.641,-41.992,-11.230,0.000
1601457524.454,-7.812,-51.270,-41.504,-3.418,0.000
1601457524.458,32.227,-43.945,-32.227,11.719,0.000
1601457524.462,48.828,-44.434,-28.809,12.207,0.000
1601457524.466,9.277,-47.852,-35.645,-3.906,0.000
1601457524.469,-35.156,-46.875,-32.227,-8.789,0.000
1601457524.473,-21.973,-51.270,-29.297,0.488,0.000
1601457524.477,28.320,-44.434,-20.020,19.043,0.000
1601457524.481,45.410,-35.645,-9.277,29.297,0.000
1601457524.485,13.184,-44.434,-27.344,17.090,0.000
1601457524.489,-31.250,-57.129,-45.898,-1.465,0.000
1601457524.493,-28.809,-60.547,-46.387,-2.930,0.000
1601457524.497,18.555,-45.898,-27.832,8.789,0.000
1601457524.501,41.992,-34.668,-22.949,10.742,0.000
1601457524.505,9.277,-35.645,-29.297,0.488,0.000
1601457524.509,-42.969,-43.457,-38.574,-19.043,0.000
1601457524.512,-49.316,-45.898,-47.363,-26.367,0.000
1601457524.516,0.977,-35.645,-31.738,-15.625,0.000
1601457524.520,21.484,-33.203,-9.766,-7.812,0.000
1601457524.524,-1.465,-41.016,-18.066,-11.719,0.000
1601457524.528,-43.945,-44.434,-40.039,-22.949,0.000
1601457524.532,-63.477,-56.641,-44.922,-30.273,0.000
1601457524.536,-23.926,-52.246,-30.273,-18.066,0.000
1601457524.540,16.113,-36.621,-19.043,-6.836,0.000
1601457524.544,2.441,-34.180,-26.855,-19.043,0.000
1601457524.548,-51.270,-33.203,-38.574,-41.504,0.000
1601457524.552,-74.219,-34.668,-38.086,-47.363,0.000
1601457524.555,-37.598,-33.691,-32.227,-30.273,0.000
1601457524.559,6.836,-26.367,-18.555,-13.672,0.000
1601457524.563,-4.395,-25.391,-17.578,-18.555,0.000
1601457524.567,-54.688,-36.133,-33.691,-32.227,0.000
1601457524.571,-66.895,-33.691,-38.574,-34.668,0.000
1601457524.575,-22.461,-20.996,-30.273,-18.066,0.000
1601457524.579,19.043,-22.949,-18.555,-5.859,0.000
1601457524.583,-10.742,-38.574,-20.508,-22.461,0.000
1601457524.587,-64.453,-44.922,-30.762,-42.480,0.000
1601457524.591,-84.473,-51.758,-29.297,-42.480,0.000
1601457524.594,-66.406,-54.688,-20.508,-35.156,0.000
1601457524.598,-15.625,-37.598,-18.555,-26.367,0.000
1601457524.602,-5.371,-32.227,-19.043,-25.391,0.000
1601457524.606,-55.664,-42.969,-29.785,-44.922,0.000
1601457524.610,-86.914,-45.410,-35.645,-51.758,0.000
1601457524.614,-54.688,-34.668,-21.973,-37.109,0.000
1601457524.618,-11.719,-34.668,-15.137,-25.391,0.000
1601457524.622,-1.953,-34.668,-21.484,-17.578,0.000
1601457524.626,-31.738,-26.855,-29.297,-13.184,0.000
1601457524.630,-72.266,-53.223,-31.738,-21.484,0.000
1601457524.634,-66.406,-55.664,-29.297,-21.484,0.000
1601457524.637,-16.602,-24.902,-29.785,-8.301,0.000
1601457524.641,4.883,-23.438,-30.273,-7.324,0.000
1601457524.645,-20.996,-32.715,-26.367,-20.508,0.000
1601457524.649,-67.383,-43.457,-29.785,-34.668,0.000
1601457524.653,-71.777,-41.016,-31.738,-32.715,0.000
1601457524.657,-20.020,-30.762,-21.484,-17.090,0.000
1601457524.661,1.465,-33.691,-19.531,-15.137,0.000
1601457524.665,-33.691,-42.480,-34.180,-26.855,0.000
1601457524.669,-67.383,-44.434,-33.203,-31.250,0.000
1601457524.673,-69.824,-53.223,-36.621,-31.738,0.000
1601457524.677,-37.109,-48.340,-42.969,-31.738,0.000
1601457524.680,-5.859,-32.227,-27.832,-26.367,0.000
1601457524.684,-24.902,-31.738,-22.949,-27.832,0.000
1601457524.688,-67.383,-40.527,-24.414,-40.527,0.000
1601457524.692,-80.078,-45.410,-27.832,-51.270,0.000
1601457524.696,-43.457,-35.645,-23.438,-39.062,0.000
1601457524.700,-4.883,-29.297,-11.719,-15.625,0.000
1601457524.704,-15.625,-40.527,-16.602,-23.438,0.000
1601457524.708,-60.547,-53.223,-26.367,-41.992,0.000
1601457524.712,-71.289,-49.316,-31.250,-38.086,0.000
1601457524.716,-41.016,-38.574,-24.414,-30.762,0.000
1601457524.719,-6.348,-27.832,-21.973,-20.020,0.000
1601457524.723,-9.277,-34.180,-31.250,-22.949,0.000
1601457524.727,-64.941,-47.363,-39.062,-48.828,0.000
1601457524.731,-83.008,-50.293,-36.133,-55.176,0.000
1601457524.735,-46.387,-42.480,-21.484,-41.992,0.000
1601457524.739,-2.930,-29.297,-15.137,-31.738,0.000
1601457524.743,5.371,-27.832,-21.973,-23.438,0.000
1601457524.747,-42.969,-36.621,-38.574,-31.250,0.000
1601457524.751,-76.660,-40.039,-46.387,-44.434,0.000
1601457524.755,-51.270,-44.434,-41.504,-36.133,0.000
1601457524.759,0.000,-30.762,-30.762,-13.672,0.000
1601457524.762,7.324,-21.484,-29.297,-15.137,0.000
1601457524.766,-41.504,-26.855,-40.527,-32.715,0.000
1601457524.770,-73.242,-36.621,-47.852,-38.574,0.000
1601457524.774,-52.246,-38.574,-30.762,-35.156,0.000
1601457524.778,-2.441,-21.484,-8.789,-23.438,0.000
1601457524.782,4.395,-28.320,-26.855,-20.020,0.000
1601457524.786,-41.504,-46.387,-43.945,-37.109,0.000
1601457524.790,-77.148,-43.945,-44.922,-45.410,0.000
1601457524.794,-66.406,-34.668,-48.828,-41.016,0.000
1601457524.798,-12.207,-24.414,-38.086,-27.832,0.000
1601457524.802,13.184,-14.160,-18.555,-21.484,0.000
1601457524.805,-27.344,-20.996,-27.832,-33.691,0.000
1601457524.809,-67.383,-36.133,-37.598,-38.574,0.000
1601457524.813,-73.242,-47.852,-34.180,-41.992,0.000
1601457524.817,-22.949,-44.922,-24.902,-29.297,0.000
1601457524.821,16.602,-34.668,-28.809,-14.160,0.000
1601457524.825,-15.625,-33.691,-45.898,-28.320,0.000
1601457524.829,-63.477,-39.551,-51.758,-42.480,0.000
1601457524.833,-66.895,-50.781,-47.852,-40.039,0.000
1601457524.837,-22.461,-37.598,-38.574,-28.809,0.000
1601457524.841,11.230,-17.090,-24.414,-18.066,0.000
1601457524.844,-7.324,-22.949,-18.066,-22.461,0.000
1601457524.848,-50.781,-41.016,-34.180,-39.551,0.000
1601457524.852,-68.848,-42.969,-40.039,-41.992,0.000
1601457524.856,-31.738,-32.227,-27.832,-27.832,0.000
1601457524.860,15.137,-25.879,-19.531,-15.137,0.000
1601457524.864,0.488,-30.273,-22.949,-17.090,0.000
1601457524.868,-52.246,-48.828,-34.668,-27.832,0.000
1601457524.872,-68.359,-50.293,-34.668,-27.344,0.000
1601457524.876,-39.551,-37.598,-32.227,-17.090,0.000
1601457524.880,-2.930,-32.227,-31.250,-12.207,0.000
1601457524.884,-7.812,-32.227,-27.344,-19.043,0.000
1601457524.887,-50.293,-34.180,-36.621,-35.645,0.000
1601457524.891,-73.242,-50.781,-45.410,-46.875,0.000
1601457524.895,-41.016,-42.969,-28.320,-29.785,0.000
1601457524.899,1.953,-23.438,-21.484,-13.672,0.000
1601457524.903,6.836,-27.344,-31.250,-17.090,0.000
1601457524.907,-42.480,-37.109,-41.504,-26.367,0.000
1601457524.911,-74.707,-43.945,-44.922,-27.344,0.000
1601457524.915,-39.551,-34.668,-26.367,-16.602,0.000
1601457524.919,-1.953,-27.344,-12.695,-11.230,0.000
1601457524.923,0.977,-28.809,-18.066,-13.672,0.000
1601457524.927,-41.504,-32.715,-23.438,-23.438,0.000
1601457524.930,-74.219,-41.016,-23.438,-30.762,0.000
1601457524.934,-48.340,-37.109,-17.578,-18.555,0.000
1601457524.938,-3.418,-26.367,-19.043,-2.441,0.000
1601457524.942,3.906,-29.785,-26.367,-4.395,0.000
1601457524.946,-38.574,-33.203,-40.039,-21.973,0.000
1601457524.950,-82.520,-43.945,-42.480,-39.062,0.000
1601457524.954,-71.777,-49.316,-36.133,-37.109,0.000
1601457524.958,-19.531,-42.969,-33.691,-25.879,0.000
1601457524.962,4.883,-34.180,-20.508,-15.625,0.000
1601457524.966,-30.273,-31.738,-22.461,-24.902,0.000
1601457524.969,-76.172,-38.086,-30.762,-44.922,0.000
1601457524.973,-66.895,-40.527,-27.832,-37.109,0.000
1601457524.977,-22.461,-30.762,-26.855,-21.973,0.000
1601457524.981,-0.488,-22.461,-27.832,-21.484,0.000
1601457524.985,-32.227,-30.762,-31.738,-38.574,0.000
1601457524.989,-79.590,-33.691,-37.598,-54.688,0.000
1601457524.993,-73.242,-24.414,-29.785,-41.016,0.000
1601457524.997,-33.203,-21.973,-23.438,-29.297,0.000
1601457525.001,-12.695,-22.949,-23.926,-26.855,0.000
1601457525.005,-33.691,-34.668,-22.461,-28.320,0.000
1601457525.009,-81.543,-51.758,-34.668,-46.387,0.000
1601457525.012,-90.820,-51.758,-44.922,-51.758,0.000
1601457525.016,-49.805,-44.434,-37.109,-37.598,0.000
1601457525.020,-14.648,-32.227,-32.715,-28.809,0.000
1601457525.024,-24.414,-24.902,-29.785,-26.855,0.000
1601457525.028,-73.730,-29.785,-31.738,-44.922,0.000
1601457525.032,-91.797,-32.227,-36.133,-56.641,0.000
1601457525.036,-52.734,-29.297,-20.020,-44.922,0.000
1601457525.040,-8.301,-20.996,-7.812,-31.738,0.000
1601457525.044,-5.371,-16.113,-17.578,-30.273,0.000
1601457525.048,-54.199,-29.297,-32.715,-48.340,0.000
1601457525.052,-83.984,-44.922,-41.992,-59.082,0.000
1601457525.055,-53.223,-39.062,-40.039,-43.457,0.000
1601457525.059,-7.812,-35.156,-29.297,-24.414,0.000
1601457525.063,-11.230,-43.945,-32.715,-33.691,0.000
1601457525.067,-57.617,-38.086,-47.852,-51.270,0.000
1601457525.071,-80.078,-26.855,-42.969,-51.758,0.000
1601457525.075,-54.199,-32.227,-34.180,-42.480,0.000
1601457525.079,-11.230,-38.086,-33.691,-33.691,0.000
1601457525.083,-4.883,-23.926,-31.250,-27.832,0.000
1601457525.087,-41.504,-14.160,-31.738,-31.738,0.000
1601457525.091,-54.688,-19.531,-32.715,-21.973,0.000
1601457525.094,-40.039,-25.879,-35.645,-13.672,0.000
1601457525.098,-21.973,-31.738,-23.926,-22.949,0.000
1601457525.102,-15.625,-39.551,-17.090,-20.996,0.000
1601457525.106,-40.527,-49.316,-29.785,-17.090,0.000
1601457525.110,-58.594,-45.410,-37.109,-14.648,0.000
1601457525.114,-40.527,-49.316,-35.156,-12.207,0.000
1601457525.118,7.812,-47.363,-37.598,-4.395,0.000
1601457525.122,25.879,-39.551,-39.551,5.371,0.000
1601457525.126,-7.812,-43.457,-23.438,5.371,0.000
1601457525.130,-46.387,-47.363,-32.715,0.000,0.000
1601457525.134,-43.945,-55.664,-46.387,-2.441,0.000
1601457525.137,3.906,-44.434,-31.738,14.160,0.000
1601457525.141,41.504,-29.785,-20.996,25.391,0.000
1601457525.145,11.719,-39.062,-22.461,11.230,0.000
1601457525.149,-41.016,-41.992,-21.484,2.441,0.000
1601457525.153,-39.551,-43.945,-30.762,5.371,0.000
1601457525.157,5.371,-44.434,-19.531,11.230,0.000
1601457525.161,38.574,-34.668,-13.184,11.719,0.000
1601457525.165,27.344,-21.484,-29.297,4.395,0.000
1601457525.169,-16.602,-33.691,-40.527,-10.254,0.000
1601457525.173,-34.180,-55.664,-52.734,-19.043,0.000
1601457525.177,10.254,-39.551,-43.457,-0.488,0.000
1601457525.180,46.875,-29.297,-23.926,16.113,0.000
1601457525.184,28.809,-40.039,-20.508,5.859,0.000
1601457525.188,-20.020,-41.992,-33.203,-7.812,0.000
1601457525.192,-38.574,-45.898,-40.527,-12.207,0.000
1601457525.196,-2.441,-35.156,-29.785,0.000,0.000
1601457525.200,38.574,-28.320,-23.438,12.207,0.000
1601457525.204,32.715,-34.668,-27.832,11.230,0.000
1601457525.208,-10.254,-41.016,-37.598,5.859,0.000
1601457525.212,-22.461,-42.969,-37.109,7.812,0.000
1601457525.216,-8.301,-41.504,-21.973,4.395,0.000
1601457525.219,31.250,-38.086,-7.324,5.859,0.000
1601457525.223,33.691,-39.551,-13.672,7.324,0.000
1601457525.227,-24.414,-47.363,-27.832,-11.230,0.000
1601457525.231,-61.523,-51.758,-35.156,-27.832,0.000
1601457525.235,-33.691,-44.434,-34.180,-17.578,0.000
1601457525.239,11.719,-40.039,-25.391,-3.906,0.000
1601457525.243,10.742,-43.457,-27.344,-7.324,0.000
1601457525.247,-26.367,-41.504,-23.438,-12.207,0.000
1601457525.251,-56.152,-46.387,-19.531,-18.555,0.000
1601457525.255,-39.551,-51.270,-23.926,-20.996,0.000
1601457525.259,8.301,-42.969,-22.949,-11.719,0.000
1601457525.262,25.879,-32.715,-12.207,-7.324,0.000
1601457525.266,-10.742,-38.086,-17.578,-23.438,0.000
1601457525.270,-58.594,-48.340,-40.039,-41.992,0.000
1601457525.274,-51.758,-45.410,-40.527,-34.180,0.000
1601457525.278,0.977,-36.621,-21.973,-18.066,0.000
1601457525.282,20.020,-29.785,-12.695,-17.578,0.000
1601457525.286,-16.113,-32.715,-26.367,-32.715,0.000
1601457525.290,-67.383,-43.945,-38.574,-46.875,0.000
1601457525.294,-57.129,-45.410,-34.668,-41.504,0.000
1601457525.298,-2.441,-33.691,-22.461,-19.531,0.000
1601457525.302,9.766,-31.738,-7.324,-13.672,0.000
1601457525.305,-22.461,-34.668,-14.648,-25.879,0.000
1601457525.309,-60.059,-40.039,-30.762,-30.273,0.000
1601457525.313,-62.012,-45.410,-31.250,-25.391,0.000
1601457525.317,-24.902,-41.992,-36.621,-23.438,0.000
1601457525.321,9.766,-28.809,-32.227,-23.438,0.000
1601457525.325,-14.648,-18.555,-18.066,-28.809,0.000
1601457525.329,-69.336,-26.367,-27.344,-43.457,0.000
1601457525.333,-78.613,-36.621,-36.133,-46.875,0.000
1601457525.337,-37.109,-32.715,-16.113,-34.668,0.000
1601457525.341,0.000,-26.367,-15.137,-23.438,0.000
1601457525.344,-3.418,-22.461,-25.879,-26.855,0.000
1601457525.348,-56.152,-29.297,-31.250,-41.992,0.000
1601457525.352,-84.473,-41.504,-35.156,-40.527,0.000
1601457525.356,-42.480,-37.598,-23.926,-22.461,0.000
1601457525.360,-7.324,-31.250,-25.391,-15.137,0.000
1601457525.364,-9.766,-28.809,-28.320,-18.066,0.000
1601457525.368,-47.363,-30.762,-30.762,-31.250,0.000
1601457525.372,-68.848,-30.762,-33.203,-36.621,0.000
1601457525.376,-37.109,-28.320,-15.625,-25.879,0.000
1601457525.380,0.488,-32.715,-17.578,-20.996,0.000
1601457525.384,0.000,-28.809,-28.809,-26.855,0.000
1601457525.387,-41.504,-31.738,-25.879,-31.738,0.000
1601457525.391,-62.012,-39.551,-27.832,-34.668,0.000
1601457525.395,-41.504,-33.691,-36.133,-38.574,0.000
1601457525.399,-12.207,-21.484,-25.879,-31.250,0.000
1601457525.403,1.465,-21.484,-17.090,-23.438,0.000
1601457525.407,-33.691,-36.621,-26.855,-34.668,0.000
1601457525.411,-73.242,-43.945,-37.598,-42.969,0.000
1601457525.415,-49.805,-32.227,-31.738,-28.809,0.000
1601457525.419,5.859,-21.484,-11.719,-12.207,0.000
1601457525.423,16.602,-23.926,-14.160,-19.531,0.000
1601457525.427,-38.574,-26.367,-27.832,-36.621,0.000
1601457525.430,-81.543,-34.668,-30.273,-44.434,0.000
1601457525.434,-64.941,-34.180,-38.086,-41.504,0.000
1601457525.438,-19.531,-24.902,-41.504,-27.832,0.000
1601457525.442,7.324,-20.996,-22.461,-20.996,0.000
1601457525.446,-22.461,-25.391,-12.695,-34.180,0.000
1601457525.450,-70.312,-36.621,-32.227,-47.363,0.000
1601457525.454,-63.965,-38.086,-36.133,-40.039,0.000
1601457525.458,-23.438,-34.668,-25.879,-30.762,0.000
1601457525.462,-7.324,-22.461,-16.602,-28.320,0.000
1601457525.466,-26.367,-24.414,-14.648,-38.086,0.000
1601457525.469,-76.660,-40.527,-34.668,-52.734,0.000
1601457525.473,-86.914,-41.016,-41.016,-49.316,0.000
1601457525.477,-44.922,-30.273,-34.180,-41.992,0.000
1601457525.481,-12.207,-25.391,-30.273,-36.621,0.000
1601457525.485,-26.367,-27.832,-26.855,-41.504,0.000
1601457525.489,-76.660,-35.645,-36.133,-61.523,0.000
1601457525.493,-83.008,-34.180,-35.645,-58.105,0.000
1601457525.497,-42.480,-29.297,-25.391,-41.504,0.000
1601457525.501,-12.207,-28.809,-29.297,-41.504,0.000
1601457525.505,-22.461,-34.668,-39.551,-50.781,0.000
1601457525.509,-63.477,-40.039,-43.457,-55.176,0.000
1601457525.512,-86.914,-47.363,-46.387,-56.152,0.000
1601457525.516,-51.758,-40.039,-40.527,-46.875,0.000
1601457525.520,-4.883,-31.738,-34.180,-32.715,0.000
1601457525.524,-20.020,-29.785,-28.320,-34.180,0.000
1601457525.528,-60.059,-20.508,-26.367,-39.062,0.000
1601457525.532,-72.754,-34.668,-29.297,-37.598,0.000
1601457525.536,-48.828,-37.598,-28.809,-32.227,0.000
1601457525.540,-7.324,-25.879,-26.367,-22.949,0.000
1601457525.544,-10.254,-33.203,-29.297,-25.391,0.000
1601457525.548,-58.594,-40.527,-34.180,-44.434,0.000
1601457525.552,-81.543,-32.715,-27.832,-48.340,0.000
1601457525.555,-55.176,-23.926,-17.090,-38.574,0.000
1601457525.559,-15.137,-25.879,-20.508,-31.738,0.000
1601457525.563,-6.348,-32.227,-29.785,-35.645,0.000
1601457525.567,-62.012,-41.016,-34.668,-55.176,0.000
1601457525.571,-107.910,-46.875,-41.016,-63.477,0.000
1601457525.575,-81.055,-46.875,-29.297,-52.246,0.000
1601457525.579,-24.902,-44.434,-18.066,-41.992,0.000
1601457525.583,-10.254,-35.156,-17.090,-38.574,0.000
1601457525.587,-44.434,-37.109,-20.508,-40.527,0.000
1601457525.591,-67.383,-46.875,-24.414,-38.086,0.000
1601457525.594,-59.082,-29.785,-24.414,-35.645,0.000
1601457525.598,-28.320,-15.625,-27.832,-39.551,0.000
1601457525.602,-5.371,-25.879,-28.320,-32.227,0.000
1601457525.606,-35.156,-31.250,-29.297,-39.062,0.000
1601457525.610,-72.266,-39.062,-36.133,-54.688,0.000
1601457525.614,-74.707,-42.480,-43.457,-51.758,0.000
1601457525.618,-27.832,-33.691,-30.273,-33.691,0.000
1601457525.622,-4.395,-37.109,-25.391,-29.297,0.000
1601457525.626,-39.062,-41.504,-31.738,-39.551,0.000
1601457525.630,-68.848,-35.156,-26.855,-39.062,0.000
1601457525.634,-64.453,-33.691,-29.785,-37.109,0.000
1601457525.637,-12.695,-30.273,-27.832,-29.297,0.000
1601457525.641,10.254,-29.297,-20.996,-19.043,0.000
1601457525.645,-23.438,-30.762,-25.879,-23.438,0.000
1601457525.649,-65.430,-34.180,-35.645,-37.598,0.000
1601457525.653,-71.289,-33.203,-38.574,-37.598,0.000
1601457525.657,-30.762,-31.250,-32.715,-31.250,0.000
1601457525.661,3.418,-35.156,-29.297,-25.391,0.000
1601457525.665,-12.695,-38.086,-21.973,-23.926,0.000
1601457525.669,-60.059,-46.875,-23.438,-39.062,0.000
1601457525.673,-73.242,-50.293,-38.086,-46.387,0.000
1601457525.677,-39.062,-33.691,-37.598,-37.109,0.000
1601457525.680,-7.812,-18.555,-26.367,-22.461,0.000
1601457525.684,-13.672,-20.508,-23.926,-16.113,0.000
1601457525.688,-52.734,-30.762,-26.367,-24.414,0.000
1601457525.692,-77.148,-39.062,-26.855,-33.203,0.000
1601457525.696,-46.387,-28.809,-26.367,-23.926,0.000
1601457525.700,1.953,-20.508,-26.367,-17.578,0.000
1601457525.704,-1.465,-30.762,-32.227,-25.879,0.000
1601457525.708,-43.945,-40.527,-41.992,-35.156,0.000
1601457525.712,-61.523,-46.387,-39.551,-36.133,0.000
1601457525.716,-40.527,-38.574,-34.180,-31.738,0.000
1601457525.719,11.719,-17.090,-21.973,-17.090,0.000
1601457525.723,21.973,-8.789,-12.695,-13.184,0.000
1601457525.727,-17.090,-12.207,-26.367,-29.785,0.000
1601457525.731,-55.176,-19.043,-28.809,-33.203,0.000
1601457525.735,-57.129,-25.391,-35.156,-28.809,0.000
1601457525.739,-7.324,-18.555,-38.086,-20.020,0.000
1601457525.743,8.789,-13.672,-28.809,-11.230,0.000
1601457525.747,-30.762,-21.484,-26.855,-19.043,0.000
1601457525.751,-71.777,-49.316,-33.691,-33.203,0.000
1601457525.755,-52.734,-43.945,-28.809,-24.414,0.000
1601457525.759,-3.906,-20.508,-8.301,-10.742,0.000
1601457525.762,12.695,-20.020,-3.906,-8.789,0.000
1601457525.766,-15.625,-27.832,-20.996,-14.648,0.000
1601457525.770,-52.734,-37.598,-31.250,-27.832,0.000
1601457525.774,-58.594,-33.203,-33.691,-32.715,0.000
1601457525.778,-19.043,-27.344,-30.273,-23.438,0.000
1601457525.782,11.719,-23.926,-22.949,-14.160,0.000
1601457525.786,-17.090,-26.855,-20.996,-21.484,0.000
1601457525.790,-59.570,-32.227,-27.832,-36.133,0.000
1601457525.794,-61.035,-33.203,-33.203,-40.039,0.000
1601457525.798,-20.020,-39.551,-34.180,-31.738,0.000
1601457525.802,8.789,-35.645,-21.484,-21.973,0.000
1601457525.805,-16.602,-32.715,-22.949,-32.715,0.000
1601457525.809,-76.660,-54.199,-48.828,-61.035,0.000
1601457525.813,-92.285,-51.270,-48.828,-62.012,0.000
1601457525.817,-35.645,-29.785,-37.598,-42.969,0.000
1601457525.821,3.418,-27.832,-31.738,-31.738,0.000
1601457525.825,-27.832,-33.203,-39.551,-38.574,0.000
1601457525.829,-68.359,-42.480,-55.176,-51.270,0.000
1601457525.833,-76.660,-39.551,-46.387,-47.852,0.000
1601457525.837,-37.598,-30.273,-27.344,-38.086,0.000
1601457525.841,3.906,-18.066,-27.344,-32.715,0.000
1601457525.844,-6.348,-17.578,-28.320,-32.715,0.000
1601457525.848,-57.617,-37.109,-31.738,-41.992,0.000
1601457525.852,-87.402,-45.410,-40.527,-52.246,0.000
1601457525.856,-52.734,-38.086,-36.133,-41.992,0.000
1601457525.860,-1.465,-31.738,-23.926,-24.414,0.000
1601457525.864,-3.418,-34.180,-23.438,-23.926,0.000
1601457525.868,-45.410,-43.457,-37.598,-30.273,0.000
1601457525.872,-67.871,-43.457,-41.016,-32.715,0.000
1601457525.876,-44.434,-31.738,-34.668,-24.902,0.000
1601457525.880,-7.812,-27.832,-29.297,-13.184,0.000
1601457525.884,-9.766,-29.785,-31.738,-18.066,0.000
1601457525.887,-54.199,-33.691,-41.016,-35.645,0.000
1601457525.891,-84.961,-48.340,-45.410,-49.805,0.000
1601457525.895,-58.594,-55.664,-35.645,-41.504,0.000
1601457525.899,-23.438,-42.480,-25.391,-23.438,0.000
1601457525.903,-9.766,-27.344,-28.809,-20.508,0.000
1601457525.907,-36.133,-30.762,-33.691,-34.180,0.000
1601457525.911,-71.289,-35.156,-39.062,-42.480,0.000
1601457525.915,-53.223,-36.133,-39.062,-36.133,0.000
1601457525.919,-4.883,-29.297,-29.297,-23.438,0.000
1601457525.923,14.160,-22.461,-20.508,-20.508,0.000
1601457525.927,-28.809,-41.992,-31.738,-46.875,0.000
1601457525.930,-78.613,-48.340,-48.828,-64.941,0.000
1601457525.934,-76.172,-38.086,-46.875,-58.105,0.000
1601457525.938,-26.855,-26.855,-33.203,-42.969,0.000
1601457525.942,6.348,-26.855,-25.879,-33.203,0.000
1601457525.946,-24.902,-35.645,-24.902,-41.016,0.000
1601457525.950,-66.895,-41.504,-30.273,-44.434,0.000
1601457525.954,-59.082,-37.598,-24.902,-32.715,0.000
1601457525.958,-20.020,-28.809,-22.461,-20.996,0.000
1601457525.962,3.906,-31.250,-34.180,-20.996,0.000
1601457525.966,-12.207,-40.527,-30.273,-27.344,0.000
1601457525.969,-58.105,-51.758,-29.297,-40.527,0.000
1601457525.973,-79.102,-50.293,-33.203,-41.992,0.000
1601457525.977,-29.297,-34.180,-31.738,-29.297,0.000
1601457525.981,9.277,-20.996,-22.949,-22.949,0.000
1601457525.985,-19.531,-25.879,-14.160,-29.785,0.000
1601457525.989,-63.965,-47.852,-27.832,-41.992,0.000
1601457525.993,-78.125,-53.223,-36.621,-44.922,0.000
1601457525.997,-45.410,-37.598,-34.668,-35.156,0.000
1601457526.001,5.371,-22.461,-20.508,-14.160,0.000
1601457526.005,9.277,-29.297,-16.113,-9.277,0.000
1601457526.009,-62.988,-46.387,-45.410,-51.758,0.000
1601457526.012,-104.492,-45.410,-53.223,-74.219,0.000
1601457526.016,-59.082,-32.715,-26.367,-49.805,0.000
1601457526.020,-10.254,-24.902,-22.461,-36.621,0.000
1601457526.024,-20.020,-31.250,-24.902,-43.945,0.000
1601457526.028,-68.359,-41.992,-23.926,-54.688,0.000
1601457526.032,-89.844,-38.086,-32.715,-55.664,0.000
1601457526.036,-50.293,-35.645,-30.762,-38.574,0.000
1601457526.040,-0.488,-31.250,-21.973,-24.414,0.000
1601457526.044,1.953,-29.297,-16.113,-27.344,0.000
1601457526.048,-33.203,-39.062,-20.508,-32.715,0.000
1601457526.052,-72.754,-37.109,-36.621,-39.551,0.000
1601457526.055,-53.223,-30.762,-34.668,-39.062,0.000
1601457526.059,6.348,-20.020,-15.137,-21.973,0.000
1601457526.063,5.371,-23.438,-27.344,-19.531,0.000
1601457526.067,-32.227,-34.668,-49.805,-26.855,0.000
1601457526.071,-62.988,-32.227,-42.969,-33.203,0.000
1601457526.075,-52.246,-30.273,-33.691,-31.738,0.000
1601457526.079,-12.695,-37.109,-40.527,-25.879,0.000
1601457526.083,4.883,-40.039,-32.715,-27.832,0.000
1601457526.087,-19.531,-33.691,-23.438,-28.320,0.000
1601457526.091,-63.477,-35.645,-34.668,-31.250,0.000
1601457526.094,-61.523,-39.062,-32.227,-30.273,0.000
1601457526.098,-13.672,-29.785,-21.484,-12.695,0.000
1601457526.102,4.395,-27.832,-20.508,-6.348,0.000
1601457526.106,-30.762,-34.180,-31.738,-20.996,0.000
1601457526.110,-65.918,-40.527,-46.875,-35.156,0.000
1601457526.114,-67.383,-33.203,-47.852,-32.227,0.000
1601457526.118,-19.043,-26.855,-32.227,-20.020,0.000
1601457526.122,10.742,-29.785,-25.391,-20.020,0.000
1601457526.126,-27.344,-35.156,-28.809,-31.250,0.000
1601457526.130,-72.266,-45.898,-28.320,-36.621,0.000
1601457526.134,-80.566,-45.410,-32.227,-37.109,0.000
1601457526.137,-44.434,-35.645,-28.809,-30.762,0.000
1601457526.141,-4.883,-29.785,-22.949,-20.020,0.000
1601457526.145,-10.742,-30.273,-19.043,-23.926,0.000
1601457526.149,-62.988,-41.992,-30.762,-40.527,0.000
1601457526.153,-85.938,-54.688,-45.410,-48.828,0.000
1601457526.157,-46.875,-48.340,-35.645,-35.645,0.000
1601457526.161,-4.883,-29.297,-25.391,-17.578,0.000
1601457526.165,-10.742,-22.461,-20.508,-19.043,0.000
1601457526.169,-53.711,-29.297,-30.273,-34.668,0.000
1601457526.173,-77.637,-44.434,-43.945,-43.945,0.000
1601457526.177,-50.781,-43.457,-30.762,-40.527,0.000
1601457526.180,-0.488,-28.320,-11.719,-23.926,0.000
1601457526.184,5.371,-23.438,-18.066,-20.020,0.000
1601457526.188,-41.016,-28.809,-33.203,-35.645,0.000
1601457526.192,-63.477,-36.621,-36.621,-45.410,0.000
1601457526.196,-46.387,-40.527,-28.320,-43.457,0.000
1601457526.200,-9.277,-30.762,-18.066,-30.762,0.000
1601457526.204,8.789,-17.578,-12.695,-20.020,0.000
1601457526.208,-41.992,-24.902,-20.020,-36.133,0.000
1601457526.212,-82.520,-40.527,-35.645,-48.340,0.000
1601457526.216,-59.570,-36.621,-27.832,-36.133,0.000
1601457526.219,-13.184,-25.879,-9.766,-18.555,0.000
1601457526.223,-9.766,-29.297,-14.648,-20.996,0.000
1601457526.227,-49.805,-34.668,-16.113,-30.762,0.000
1601457526.231,-83.496,-44.434,-22.949,-35.645,0.000
1601457526.235,-82.520,-44.922,-37.109,-43.945,0.000
1601457526.239,-38.086,-32.715,-33.691,-37.109,0.000
1601457526.243,-11.719,-25.879,-24.902,-30.762,0.000
1601457526.247,-39.062,-24.902,-21.484,-36.621,0.000
1601457526.251,-71.777,-36.133,-36.133,-51.758,0.000
1601457526.255,-68.848,-39.551,-36.133,-46.387,0.000
1601457526.259,-24.902,-31.250,-16.602,-27.832,0.000
1601457526.262,7.812,-24.414,-11.719,-27.832,0.000
1601457526.266,-24.902,-29.785,-28.320,-39.551,0.000
1601457526.270,-70.801,-42.480,-41.504,-53.711,0.000
1601457526.274,-63.965,-46.875,-41.016,-40.527,0.000
1601457526.278,0.977,-43.945,-27.832,-9.277,0.000
1601457526.282,57.617,-32.715,-18.555,13.672,0.000
1601457526.286,13.184,-26.367,-23.438,-14.648,0.000
1601457526.290,-66.895,-29.297,-42.969,-61.523,0.000
1601457526.294,-60.547,-24.414,-44.922,-43.457,0.000
1601457526.298,-10.254,-25.879,-23.438,-19.531,0.000
1601457526.302,27.344,-26.855,-16.113,-10.742,0.000
1601457526.305,14.160,-33.203,-23.438,-12.695,0.000
1601457526.309,-35.645,-44.434,-34.180,-28.320,0.000
1601457526.313,-52.246,-46.387,-33.691,-28.320,0.000
1601457526.317,-13.672,-43.457,-20.996,-11.230,0.000
1601457526.321,31.250,-38.574,-19.531,-0.977,0.000
1601457526.325,18.066,-37.598,-29.297,-5.859,0.000
1601457526.329,-29.297,-42.969,-36.621,-13.672,0.000
1601457526.333,-52.246,-49.805,-40.039,-19.531,0.000
1601457526.337,-28.809,-51.758,-35.645,-17.090,0.000
1601457526.341,15.625,-37.598,-25.879,-3.906,0.000
1601457526.344,13.672,-27.344,-20.996,-1.465,0.000
1601457526.348,-33.691,-41.992,-23.926,-13.184,0.000
1601457526.352,-56.641,-51.270,-30.762,-18.066,0.000
1601457526.356,-36.621,-39.062,-29.785,-11.230,0.000
1601457526.360,-4.395,-32.715,-26.367,-6.348,0.000
1601457526.364,4.395,-33.691,-26.367,-3.418,0.000
1601457526.368,-33.203,-44.922,-30.762,-12.207,0.000
1601457526.372,-72.754,-53.223,-38.574,-26.367,0.000
1601457526.376,-52.734,-37.109,-34.668,-21.484,0.000
1601457526.380,-13.672,-34.668,-26.367,-11.719,0.000
1601457526.384,1.465,-31.250,-14.160,-1.465,0.000
1601457526.387,-24.902,-31.250,-13.184,-8.301,0.000
1601457526.391,-72.754,-48.828,-38.086,-29.297,0.000
1601457526.395,-70.312,-49.805,-50.293,-32.227,0.000
1601457526.399,-20.020,-36.133,-37.109,-18.066,0.000
1601457526.403,8.301,-33.203,-34.180,-12.695,0.000
1601457526.407,-15.625,-49.805,-41.016,-21.973,0.000
1601457526.411,-56.641,-62.500,-44.922,-29.785,0.000
1601457526.415,-43.457,-47.363,-38.574,-20.508,0.000
1601457526.419,6.836,-36.621,-17.090,-0.488,0.000
1601457526.423,30.273,-38.086,-7.812,2.441,0.000
1601457526.427,-3.418,-41.504,-25.879,-15.625,0.000
1601457526.430,-42.480,-45.410,-45.410,-36.133,0.000
1601457526.434,-42.969,-45.898,-45.410,-34.668,0.000
1601457526.438,-10.742,-40.039,-29.785,-15.625,0.000
1601457526.442,20.020,-31.250,-23.438,-6.836,0.000
1601457526.446,-4.395,-30.273,-23.926,-17.578,0.000
1601457526.450,-56.152,-39.062,-28.320,-30.273,0.000
1601457526.454,-68.359,-46.387,-34.180,-31.738,0.000
1601457526.458,-23.926,-41.992,-27.344,-17.578,0.000
1601457526.462,4.395,-32.715,-20.996,-4.395,0.000
1601457526.466,-6.348,-34.668,-20.508,-12.695,0.000
1601457526.469,-50.293,-43.457,-26.855,-28.809,0.000
1601457526.473,-73.730,-44.434,-28.809,-25.879,0.000
1601457526.477,-37.109,-37.109,-19.531,-13.672,0.000
1601457526.481,2.441,-23.926,-17.578,-4.883,0.000
1601457526.485,-3.418,-21.973,-20.508,-8.301,0.000
1601457526.489,-47.852,-31.250,-20.996,-23.438,0.000
1601457526.493,-69.336,-35.645,-24.902,-36.621,0.000
1601457526.497,-34.668,-25.391,-23.438,-26.855,0.000
1601457526.501,11.719,-15.625,-16.113,-15.625,0.000
1601457526.505,5.859,-23.926,-24.414,-18.555,0.000
1601457526.509,-39.551,-37.598,-36.621,-32.715,0.000
1601457526.512,-66.406,-48.340,-41.016,-46.387,0.000
1601457526.516,-41.992,-41.016,-34.668,-40.527,0.000
1601457526.520,1.953,-30.762,-24.902,-32.715,0.000
1601457526.524,13.672,-18.066,-18.555,-26.855,0.000
1601457526.528,-25.879,-21.484,-20.020,-38.574,0.000
1601457526.532,-59.570,-37.598,-35.645,-53.711,0.000
1601457526.536,-41.992,-34.668,-33.203,-43.457,0.000
1601457526.540,-3.906,-21.484,-28.809,-32.227,0.000
1601457526.544,12.695,-12.695,-32.227,-30.762,0.000
1601457526.548,-26.367,-22.461,-28.809,-40.527,0.000
1601457526.552,-69.824,-41.992,-37.598,-58.105,0.000
1601457526.555,-51.270,-31.738,-36.133,-46.875,0.000
1601457526.559,-7.812,-13.184,-17.578,-17.578,0.000
1601457526.563,-2.930,-14.160,-14.648,-21.973,0.000
1601457526.567,-42.969,-23.926,-22.461,-42.969,0.000
1601457526.571,-83.008,-39.551,-28.320,-47.363,0.000
1601457526.575,-86.426,-44.434,-32.715,-47.363,0.000
1601457526.579,-43.945,-37.109,-29.785,-44.434,0.000
1601457526.583,-9.766,-28.809,-17.578,-34.668,0.000
1601457526.587,-37.109,-32.715,-24.414,-41.504,0.000
1601457526.591,-83.984,-38.574,-37.109,-61.523,0.000
1601457526.594,-84.961,-38.086,-30.273,-62.500,0.000
1601457526.598,-45.898,-36.621,-22.949,-49.805,0.000
1601457526.602,-16.602,-34.668,-27.832,-37.109,0.000
1601457526.606,-37.598,-35.156,-33.203,-41.504,0.000
1601457526.610,-90.332,-38.086,-33.691,-57.129,0.000
1601457526.614,-96.191,-37.598,-29.785,-53.711,0.000
1601457526.618,-53.223,-33.691,-20.020,-37.109,0.000
1601457526.622,-13.672,-41.016,-18.555,-30.273,0.000
1601457526.626,-33.691,-42.969,-25.391,-39.551,0.000
1601457526.630,-92.773,-34.668,-21.973,-52.246,0.000
1601457526.634,-91.797,-33.691,-14.648,-49.805,0.000
1601457526.637,-56.641,-40.527,-28.320,-40.039,0.000
1601457526.641,-20.508,-33.691,-32.715,-35.645,0.000
1601457526.645,-16.113,-28.320,-26.855,-35.156,0.000
1601457526.649,-56.152,-43.457,-38.086,-46.387,0.000
1601457526.653,-69.824,-45.898,-33.203,-45.898,0.000
1601457526.657,-34.668,-29.297,-17.090,-35.156,0.000
1601457526.661,2.441,-26.855,-14.160,-32.715,0.000
1601457526.665,3.418,-29.785,-10.742,-35.645,0.000
1601457526.669,-45.898,-35.645,-17.578,-48.340,0.000
1601457526.673,-76.660,-37.598,-32.715,-50.781,0.000
1601457526.677,-52.734,-33.203,-31.738,-40.527,0.000
1601457526.680,-7.324,-32.227,-31.250,-33.203,0.000
1601457526.684,-4.883,-30.762,-40.039,-32.227,0.000
1601457526.688,-47.363,-41.504,-43.457,-34.668,0.000
1601457526.692,-77.637,-45.410,-37.598,-44.922,0.000
1601457526.696,-59.082,-33.203,-22.949,-35.156,0.000
1601457526.700,-11.230,-18.066,-13.184,-15.137,0.000
1601457526.704,-6.348,-20.996,-17.578,-20.020,0.000
1601457526.708,-41.504,-23.926,-16.602,-27.832,0.000
1601457526.712,-79.590,-21.973,-32.715,-37.109,0.000
1601457526.716,-75.195,-31.250,-40.039,-37.598,0.000
1601457526.719,-17.090,-18.555,-17.578,-11.719,0.000
1601457526.723,10.254,-13.184,-15.625,-6.348,0.000
1601457526.727,-35.645,-28.809,-30.762,-30.762,0.000
1601457526.731,-85.938,-40.527,-38.086,-37.598,0.000
1601457526.735,-81.055,-44.434,-29.785,-35.156,0.000
1601457526.739,-26.367,-27.344,-13.672,-23.926,0.000
1601457526.743,2.930,-10.742,-12.695,-20.508,0.000
1601457526.747,-29.785,-20.996,-20.996,-35.645,0.000
1601457526.751,-71.289,-37.598,-25.391,-44.434,0.000
1601457526.755,-69.824,-38.574,-27.832,-44.922,0.000
1601457526.759,-24.902,-27.344,-20.996,-33.691,0.000
1601457526.762,5.859,-14.160,-11.719,-25.879,0.000
1601457526.766,-19.043,-19.043,-14.648,-31.250,0.000
1601457526.770,-68.359,-27.344,-32.715,-44.922,0.000
1601457526.774,-70.801,-32.227,-30.762,-48.340,0.000
1601457526.778,-11.230,-34.668,-10.254,-11.230,0.000
1601457526.782,27.344,-21.973,-3.418,7.812,0.000
1601457526.786,-17.090,-20.508,-12.695,-36.621,0.000
1601457526.790,-89.355,-35.156,-30.762,-79.102,0.000
1601457526.794,-118.652,-38.086,-36.133,-98.145,0.000
1601457526.798,-84.961,-40.039,-29.297,-89.355,0.000
1601457526.802,-40.039,-35.156,-25.391,-75.195,0.000
1601457526.805,-52.734,-19.531,-24.414,-87.402,0.000
1601457526.809,-109.375,-19.043,-28.809,-110.840,0.000
1601457526.813,-125.977,-21.973,-29.297,-106.445,0.000
1601457526.817,-81.055,-18.555,-13.672,-83.008,0.000
1601457526.821,-34.180,-16.113,-4.883,-71.777,0.000
1601457526.825,-28.809,-14.648,-7.812,-57.617,0.000
1601457526.829,-72.266,-27.832,-20.020,-63.965,0.000
1601457526.833,-101.562,-51.270,-31.250,-70.801,0.000
1601457526.837,-65.430,-48.340,-28.320,-53.711,0.000
1601457526.841,-14.648,-54.688,-22.949,-38.574,0.000
1601457526.844,-11.719,-48.340,-23.926,-35.645,0.000
1601457526.848,-54.688,-32.715,-30.273,-43.945,0.000
1601457526.852,-85.938,-31.738,-29.297,-48.828,0.000
1601457526.856,-56.641,-32.227,-23.926,-40.039,0.000
1601457526.860,0.488,-27.832,-12.207,-20.020,0.000
1601457526.864,20.508,-20.996,-2.441,-12.207,0.000
1601457526.868,-20.996,-33.691,-14.648,-24.902,0.000
1601457526.872,-59.570,-47.363,-30.273,-33.203,0.000
1601457526.876,-45.410,-47.363,-31.738,-26.855,0.000
1601457526.880,-1.465,-51.270,-30.762,-17.090,0.000
1601457526.884,26.855,-41.992,-25.391,-11.230,0.000
1601457526.887,0.977,-29.785,-27.344,-20.508,0.000
1601457526.891,-41.992,-35.156,-35.156,-31.250,0.000
1601457526.895,-25.391,-29.785,-32.715,-27.344,0.000
1601457526.899,19.043,-17.578,-29.785,-14.648,0.000
1601457526.903,33.691,-17.578,-24.902,-9.766,0.000
1601457526.907,3.418,-21.973,-22.461,-14.648,0.000
1601457526.911,-36.133,-24.902,-26.855,-23.926,0.000
1601457526.915,-40.527,-27.832,-37.598,-26.367,0.000
1601457526.919,-11.719,-24.902,-32.227,-12.207,0.000
1601457526.923,24.902,-24.414,-17.578,-1.953,0.000
1601457526.927,-2.441,-39.551,-24.414,-16.113,0.000
1601457526.930,-52.246,-40.039,-31.738,-32.715,0.000
1601457526.934,-58.594,-25.391,-25.879,-32.227,0.000
1601457526.938,-29.297,-28.809,-24.414,-25.391,0.000
1601457526.942,-3.906,-43.457,-25.879,-21.973,0.000
1601457526.946,-10.742,-33.691,-22.461,-21.484,0.000
1601457526.950,-53.223,-38.574,-24.902,-35.156,0.000
1601457526.954,-82.031,-54.688,-37.109,-47.363,0.000
1601457526.958,-40.039,-36.133,-35.645,-37.109,0.000
1601457526.962,1.465,-26.367,-29.785,-25.879,0.000
1601457526.966,-15.137,-33.203,-28.809,-31.738,0.000
1601457526.969,-60.059,-42.480,-32.715,-43.945,0.000
1601457526.973,-82.031,-56.641,-38.574,-51.270,0.000
1601457526.977,-56.641,-43.457,-33.691,-46.875,0.000
1601457526.981,-19.531,-28.320,-22.461,-34.668,0.000
1601457526.985,-22.949,-38.086,-27.344,-37.109,0.000
1601457526.989,-56.641,-42.969,-38.086,-54.199,0.000
1601457526.993,-90.820,-42.969,-38.574,-60.059,0.000
1601457526.997,-73.730,-48.340,-35.645,-50.781,0.000
1601457527.001,-25.879,-43.457,-23.438,-36.133,0.000
1601457527.005,-20.996,-36.133,-25.391,-34.668,0.000
1601457527.009,-62.012,-37.109,-34.180,-49.316,0.000
1601457527.012,-92.773,-44.434,-45.898,-58.105,0.000
1601457527.016,-71.289,-39.062,-48.828,-47.852,0.000
1601457527.020,-20.996,-34.180,-32.227,-29.297,0.000
1601457527.024,-4.395,-33.691,-21.973,-21.973,0.000
1601457527.028,-35.645,-31.250,-24.902,-35.156,0.000
1601457527.032,-70.312,-42.969,-32.715,-45.898,0.000
1601457527.036,-72.754,-46.875,-34.180,-42.480,0.000
1601457527.040,-15.625,-30.273,-19.043,-25.879,0.000
1601457527.044,10.742,-27.344,-17.090,-19.043,0.000
1601457527.048,-32.227,-32.715,-25.391,-27.832,0.000
1601457527.052,-69.336,-29.785,-30.762,-34.180,0.000
1601457527.055,-60.547,-23.926,-36.133,-34.668,0.000
1601457527.059,-12.207,-15.137,-25.879,-20.020,0.000
1601457527.063,12.207,-24.414,-27.344,-15.137,0.000
1601457527.067,-18.555,-35.645,-35.645,-32.715,0.000
1601457527.071,-62.012,-39.551,-34.180,-44.434,0.000
1601457527.075,-61.035,-44.922,-34.180,-40.039,0.000
1601457527.079,-11.719,-27.344,-34.180,-27.832,0.000
1601457527.083,11.719,-14.160,-29.785,-31.738,0.000
1601457527.087,-13.672,-22.461,-27.832,-41.992,0.000
1601457527.091,-63.965,-39.062,-37.109,-54.199,0.000
1601457527.094,-87.891,-46.387,-38.086,-62.012,0.000
1601457527.098,-45.410,-34.668,-25.879,-57.129,0.000
1601457527.102,-12.207,-25.391,-15.625,-43.457,0.000
1601457527.106,-34.180,-27.832,-15.137,-44.922,0.000
1601457527.110,-79.102,-42.480,-26.855,-63.965,0.000
1601457527.114,-99.121,-53.711,-39.551,-69.336,0.000
1601457527.118,-62.988,-45.410,-35.645,-52.246,0.000
1601457527.122,-13.672,-36.621,-27.344,-40.527,0.000
1601457527.126,-20.996,-38.574,-25.879,-46.387,0.000
1601457527.130,-69.824,-41.016,-28.320,-51.270,0.000
1601457527.134,-90.332,-39.551,-31.250,-52.246,0.000
1601457527.137,-63.965,-42.480,-31.738,-47.852,0.000
1601457527.141,-15.625,-31.250,-20.996,-29.785,0.000
1601457527.145,-13.672,-20.508,-16.602,-29.785,0.000
1601457527.149,-68.359,-33.691,-31.250,-58.594,0.000
1601457527.153,-99.121,-42.480,-41.504,-65.918,0.000
1601457527.157,-69.336,-42.480,-32.715,-50.781,0.000
1601457527.161,-25.879,-42.969,-25.391,-40.039,0.000
1601457527.165,-18.555,-33.203,-29.297,-40.039,0.000
1601457527.169,-54.199,-32.227,-29.785,-46.875,0.000
1601457527.173,-84.473,-44.434,-38.574,-56.152,0.000
1601457527.177,-66.406,-46.387,-36.133,-49.805,0.000
1601457527.180,-15.137,-28.809,-22.461,-31.738,0.000
1601457527.184,0.977,-16.113,-26.367,-30.273,0.000
1601457527.188,-38.086,-34.180,-28.809,-38.574,0.000
1601457527.192,-70.801,-44.922,-36.133,-53.223,0.000
1601457527.196,-62.988,-33.691,-44.434,-55.664,0.000
1601457527.200,-12.695,-17.578,-22.461,-31.738,0.000
1601457527.204,20.508,-8.301,-13.672,-18.066,0.000
1601457527.208,-12.207,-16.602,-32.715,-33.203,0.000
1601457527.212,-59.082,-31.738,-38.086,-48.340,0.000
1601457527.216,-58.105,-26.367,-36.621,-46.875,0.000
1601457527.219,-17.578,-23.438,-33.691,-37.598,0.000
1601457527.223,7.324,-24.414,-20.996,-34.180,0.000
1601457527.227,-13.184,-29.297,-21.484,-33.203,0.000
1601457527.231,-68.359,-37.598,-34.180,-41.504,0.000
1601457527.235,-75.684,-30.762,-43.945,-49.805,0.000
1601457527.239,-29.297,-24.902,-37.598,-39.062,0.000
1601457527.243,-0.977,-27.832,-30.273,-22.949,0.000
1601457527.247,-18.555,-30.273,-34.668,-28.809,0.000
1601457527.251,-64.941,-37.109,-47.363,-41.992,0.000
1601457527.255,-76.172,-43.457,-49.316,-41.504,0.000
1601457527.259,-34.180,-41.016,-39.062,-32.715,0.000
1601457527.262,1.465,-29.785,-23.926,-20.020,0.000
1601457527.266,-4.883,-23.438,-19.043,-17.578,0.000
1601457527.270,-56.641,-35.156,-32.227,-34.180,0.000
1601457527.274,-67.871,-38.086,-31.738,-41.992,0.000
1601457527.278,-33.691,-27.832,-26.367,-29.297,0.000
1601457527.282,-9.766,-27.832,-26.855,-19.043,0.000
1601457527.286,-20.020,-36.621,-29.785,-26.855,0.000
1601457527.290,-64.453,-36.133,-29.785,-39.551,0.000
1601457527.294,-86.914,-41.504,-35.645,-45.410,0.000
1601457527.298,-65.430,-40.039,-38.574,-43.457,0.000
1601457527.302,-19.043,-27.344,-29.297,-27.344,0.000
1601457527.305,-14.648,-24.902,-21.973,-22.949,0.000
1601457527.309,-57.129,-47.852,-25.391,-36.621,0.000
1601457527.313,-90.332,-56.152,-38.574,-43.945,0.000
1601457527.317,-62.500,-36.621,-44.434,-35.156,0.000
1601457527.321,-9.277,-26.367,-37.598,-21.484,0.000
1601457527.325,-3.906,-24.414,-37.598,-25.879,0.000
1601457527.329,-52.734,-45.410,-43.457,-43.457,0.000
1601457527.333,-93.750,-55.664,-38.086,-58.594,0.000
1601457527.337,-65.918,-37.598,-31.250,-48.340,0.000
1601457527.341,-20.508,-22.461,-17.090,-30.273,0.000
1601457527.344,-24.902,-30.273,-14.160,-33.691,0.000
1601457527.348,-71.289,-53.711,-30.762,-42.969,0.000
1601457527.352,-104.004,-51.758,-41.504,-53.711,0.000
1601457527.356,-82.520,-44.434,-37.109,-46.387,0.000
1601457527.360,-30.762,-54.688,-29.297,-33.691,0.000
1601457527.364,-7.812,-42.969,-23.438,-30.762,0.000
1601457527.368,-35.645,-26.367,-31.738,-37.598,0.000
1601457527.372,-74.707,-32.227,-42.480,-44.922,0.000
1601457527.376,-67.383,-29.297,-28.809,-38.086,0.000
1601457527.380,-20.508,-20.996,-11.230,-22.461,0.000
1601457527.384,-0.488,-28.809,-13.184,-18.066,0.000
1601457527.387,-27.344,-38.574,-27.832,-31.250,0.000
1601457527.391,-65.918,-43.457,-35.645,-41.504,0.000
1601457527.395,-59.570,-45.898,-34.180,-35.645,0.000
1601457527.399,-10.254,-31.738,-20.020,-16.113,0.000
1601457527.403,9.766,-35.645,-23.438,-13.672,0.000
1601457527.407,-13.672,-43.945,-34.668,-26.855,0.000
1601457527.411,-62.012,-41.992,-31.738,-38.574,0.000
1601457527.415,-66.406,-42.480,-26.367,-36.621,0.000
1601457527.419,-20.508,-32.715,-23.926,-20.996,0.000
1601457527.423,3.418,-21.973,-23.926,-13.672,0.000
1601457527.427,-17.090,-25.879,-13.672,-20.508,0.000
1601457527.430,-66.895,-40.039,-17.578,-41.016,0.000
1601457527.434,-87.891,-43.457,-31.738,-47.852,0.000
1601457527.438,-52.734,-38.086,-27.344,-32.715,0.000
1601457527.442,-10.254,-31.738,-23.926,-19.531,0.000
1601457527.446,-20.508,-38.574,-29.297,-27.832,0.000
1601457527.450,-70.312,-43.457,-30.762,-42.969,0.000
1601457527.454,-92.285,-45.898,-37.598,-51.758,0.000
1601457527.458,-62.988,-49.805,-44.434,-48.340,0.000
1601457527.462,-20.996,-33.691,-26.855,-37.109,0.000
1601457527.466,-20.508,-21.484,-20.020,-40.039,0.000
1601457527.469,-70.312,-33.691,-38.086,-55.664,0.000
1601457527.473,-99.609,-51.270,-50.781,-59.082,0.000
1601457527.477,-76.172,-49.316,-43.945,-49.316,0.000
1601457527.481,-29.297,-31.250,-24.414,-41.992,0.000
1601457527.485,-12.695,-24.414,-17.578,-38.086,0.000
1601457527.489,-51.270,-35.156,-28.320,-41.992,0.000
1601457527.493,-69.824,-38.086,-34.180,-44.922,0.000
1601457527.497,-48.828,-36.621,-24.414,-37.109,0.000
1601457527.501,-18.066,-25.391,-20.508,-30.273,0.000
1601457527.505,0.488,-19.043,-27.832,-27.832,0.000
1601457527.509,-31.250,-30.273,-30.273,-32.715,0.000
1601457527.512,-73.242,-39.551,-36.621,-46.875,0.000
1601457527.516,-55.176,-39.551,-34.180,-39.551,0.000
1601457527.520,-7.324,-31.738,-20.996,-25.391,0.000
1601457527.524,3.418,-29.297,-20.020,-23.438,0.000
1601457527.528,-22.949,-35.645,-27.832,-26.855,0.000
1601457527.532,-63.965,-49.805,-40.039,-38.086,0.000
1601457527.536,-54.688,-49.805,-33.691,-25.879,0.000
1601457527.540,-6.348,-31.738,-15.625,-16.113,0.000
1601457527.544,15.625,-19.531,-7.324,-14.160,0.000
1601457527.548,-13.672,-22.949,-4.883,-15.137,0.000
1601457527.552,-63.477,-30.273,-23.438,-36.133,0.000
1601457527.555,-66.406,-25.391,-36.133,-37.109,0.000
1601457527.559,-18.555,-16.113,-25.879,-16.113,0.000
1601457527.563,20.020,-12.695,-21.484,-3.906,0.000
1601457527.567,-3.418,-19.043,-35.645,-18.555,0.000
1601457527.571,-50.293,-36.133,-45.898,-34.180,0.000
1601457527.575,-57.617,-35.156,-43.457,-35.156,0.000
1601457527.579,-18.066,-25.391,-30.273,-22.461,0.000
1601457527.583,19.531,-21.973,-24.414,-11.230,0.000
1601457527.587,1.465,-23.438,-26.367,-17.578,0.000
1601457527.591,-41.504,-33.203,-23.926,-23.438,0.000
1601457527.594,-62.012,-37.109,-20.020,-25.391,0.000
1601457527.598,-44.434,-33.203,-23.926,-29.785,0.000
1601457527.602,3.418,-21.973,-29.785,-23.926,0.000
1601457527.606,-0.488,-15.137,-26.367,-27.832,0.000
1601457527.610,-60.059,-19.043,-28.809,-48.340,0.000
1601457527.614,-91.309,-21.973,-34.668,-66.895,0.000
1601457527.618,-59.570,-18.555,-33.203,-59.570,0.000
1601457527.622,-5.859,-22.461,-28.809,-40.527,0.000
1601457527.626,-0.977,-16.602,-21.973,-36.621,0.000
1601457527.630,-52.246,-16.113,-29.297,-57.129,0.000
1601457527.634,-85.938,-28.809,-43.457,-68.359,0.000
1601457527.637,-62.988,-31.250,-45.898,-63.965,0.000
1601457527.641,-20.020,-24.414,-39.062,-56.641,0.000
1601457527.645,-14.648,-28.809,-33.203,-47.363,0.000
1601457527.649,-60.547,-38.086,-36.133,-52.734,0.000
1601457527.653,-90.332,-41.992,-42.969,-56.641,0.000
1601457527.657,-67.871,-36.621,-42.969,-46.387,0.000
1601457527.661,-15.137,-21.484,-22.949,-22.461,0.000
1601457527.665,7.812,-15.625,-6.836,-12.207,0.000
1601457527.669,-32.715,-36.621,-20.020,-29.785,0.000
1601457527.673,-70.312,-49.316,-32.227,-41.016,0.000
1601457527.677,-59.570,-42.969,-31.738,-39.062,0.000
1601457527.680,-18.066,-33.203,-28.809,-22.461,0.000
1601457527.684,-6.836,-33.203,-29.785,-21.973,0.000
1601457527.688,-40.527,-48.828,-29.297,-39.062,0.000
1601457527.692,-82.520,-56.152,-41.016,-49.316,0.000
1601457527.696,-69.824,-43.945,-47.363,-45.410,0.000
1601457527.700,-1.465,-23.926,-26.855,-16.602,0.000
1601457527.704,27.344,-10.742,-10.254,-6.348,0.000
1601457527.708,-24.414,-17.578,-29.785,-40.527,0.000
1601457527.712,-77.637,-27.344,-46.875,-60.547,0.000
1601457527.716,-61.523,-27.344,-36.133,-42.969,0.000
1601457527.719,-15.625,-20.020,-42.969,-28.320,0.000
1601457527.723,13.184,-21.484,-39.551,-15.625,0.000
1601457527.727,-11.230,-25.391,-28.320,-22.949,0.000
1601457527.731,-60.547,-34.668,-37.109,-39.551,0.000
1601457527.735,-65.430,-46.875,-43.457,-41.016,0.000
1601457527.739,-19.043,-41.016,-33.691,-33.691,0.000
1601457527.743,16.602,-29.785,-22.461,-25.879,0.000
1601457527.747,-2.930,-29.297,-25.391,-23.926,0.000
1601457527.751,-53.223,-45.410,-43.945,-35.156,0.000
1601457527.755,-61.035,-49.805,-41.504,-38.086,0.000
1601457527.759,-22.949,-40.039,-25.879,-26.855,0.000
1601457527.762,3.906,-31.250,-34.668,-26.367,0.000
1601457527.766,-11.230,-24.414,-42.969,-30.762,0.000
1601457527.770,-57.617,-41.504,-52.246,-41.504,0.000
1601457527.774,-76.172,-55.664,-41.016,-43.457,0.000
1601457527.778,-41.992,-49.316,-23.926,-37.109,0.000
1601457527.782,0.000,-29.785,-20.996,-31.738,0.000
1601457527.786,-6.836,-29.785,-23.926,-32.715,0.000
1601457527.790,-47.363,-41.016,-27.832,-42.480,0.000
1601457527.794,-64.453,-40.527,-24.902,-40.527,0.000
1601457527.798,-45.410,-39.551,-28.320,-25.391,0.000
1601457527.802,-10.742,-39.062,-30.762,-23.438,0.000
1601457527.805,-6.836,-32.715,-27.832,-28.320,0.000
1601457527.809,-41.992,-29.785,-32.227,-33.691,0.000
1601457527.813,-75.195,-40.039,-37.598,-37.598,0.000
1601457527.817,-61.523,-50.781,-35.645,-33.691,0.000
1601457527.821,-6.348,-41.504,-24.902,-19.043,0.000
1601457527.825,14.648,-34.180,-15.625,-7.812,0.000
1601457527.829,-29.297,-44.434,-21.973,-18.555,0.000
1601457527.833,-71.777,-48.828,-30.273,-24.902,0.000
1601457527.837,-49.805,-41.992,-32.227,-15.137,0.000
1601457527.841,-6.348,-32.227,-27.344,-2.930,0.000
1601457527.844,-4.395,-30.273,-24.414,-4.395,0.000
1601457527.848,-28.320,-36.133,-24.902,-18.066,0.000
1601457527.852,-55.176,-35.156,-28.809,-19.043,0.000
1601457527.856,-47.363,-33.691,-33.203,-16.602,0.000
1601457527.860,-6.348,-37.109,-30.273,-12.207,0.000
1601457527.864,22.949,-35.645,-24.414,-6.836,0.000
1601457527.868,0.000,-33.691,-26.367,-13.672,0.000
1601457527.872,-45.898,-34.668,-45.898,-25.391,0.000
1601457527.876,-47.852,-36.133,-41.504,-26.855,0.000
1601457527.880,1.465,-34.180,-24.902,-8.789,0.000
1601457527.884,35.156,-27.344,-26.367,1.465,0.000
1601457527.887,5.371,-24.902,-35.156,-8.301,0.000
1601457527.891,-45.410,-34.668,-45.898,-23.926,0.000
1601457527.895,-58.594,-40.039,-48.828,-31.250,0.000
1601457527.899,-15.137,-19.531,-32.227,-9.277,0.000
1601457527.903,25.391,-11.719,-21.484,-2.441,0.000
1601457527.907,0.000,-33.203,-32.227,-14.648,0.000
1601457527.911,-55.176,-40.039,-41.504,-21.484,0.000
1601457527.915,-68.359,-31.250,-38.574,-23.926,0.000
1601457527.919,-25.391,-23.438,-25.879,-6.348,0.000
1601457527.923,16.602,-23.926,-21.973,0.977,0.000
1601457527.927,0.977,-36.621,-25.879,-8.301,0.000
1601457527.930,-45.898,-42.480,-35.156,-19.531,0.000
1601457527.934,-67.871,-41.016,-41.992,-25.391,0.000
1601457527.938,-44.922,-37.109,-33.691,-20.020,0.000
1601457527.942,5.371,-29.297,-28.809,-18.066,0.000
1601457527.946,9.277,-22.461,-21.973,-17.578,0.000
1601457527.950,-53.711,-25.879,-20.508,-31.738,0.000
1601457527.954,-89.844,-39.551,-23.438,-44.434,0.000
1601457527.958,-62.500,-41.016,-28.320,-36.133,0.000
1601457527.962,-15.625,-32.227,-21.484,-22.461,0.000
1601457527.966,-1.953,-31.738,-1.953,-15.137,0.000
1601457527.969,-36.133,-32.715,-14.648,-26.855,0.000
1601457527.973,-74.707,-54.688,-42.969,-45.898,0.000
1601457527.977,-62.500,-53.223,-34.668,-44.434,0.000
1601457527.981,-20.508,-30.762,-19.043,-30.762,0.000
1601457527.985,-8.789,-37.598,-18.555,-32.715,0.000
1601457527.989,-37.598,-39.551,-24.414,-41.992,0.000
1601457527.993,-72.266,-34.180,-39.551,-50.781,0.000
1601457527.997,-64.453,-25.879,-32.715,-44.434,0.000
1601457528.001,-13.184,-21.484,-13.184,-25.879,0.000
1601457528.005,8.789,-23.926,-16.113,-18.555,0.000
1601457528.009,-22.949,-21.484,-29.297,-32.227,0.000
1601457528.012,-64.453,-38.574,-35.156,-52.734,0.000
1601457528.016,-72.754,-44.434,-31.250,-43.457,0.000
1601457528.020,-26.855,-30.762,-12.207,-21.484,0.000
1601457528.024,7.812,-17.578,-4.883,-15.137,0.000
1601457528.028,-15.625,-20.508,-19.043,-20.020,0.000
1601457528.032,-56.152,-35.645,-28.809,-28.809,0.000
1601457528.036,-71.777,-49.805,-41.016,-43.457,0.000
1601457528.040,-31.250,-40.039,-35.156,-34.180,0.000
1601457528.044,13.184,-24.414,-12.207,-17.578,0.000
1601457528.048,-12.207,-22.949,-11.230,-25.879,0.000
1601457528.052,-68.359,-37.598,-39.551,-45.898,0.000
1601457528.055,-77.148,-56.641,-43.945,-49.316,0.000
1601457528.059,-33.203,-48.828,-26.367,-29.785,0.000
1601457528.063,8.301,-36.133,-22.949,-20.020,0.000
1601457528.067,-14.648,-42.969,-33.691,-28.320,0.000
1601457528.071,-70.312,-47.852,-43.457,-40.527,0.000
1601457528.075,-79.590,-39.062,-39.551,-41.016,0.000
1601457528.079,-41.504,-35.156,-34.180,-33.203,0.000
1601457528.083,-3.906,-35.156,-29.785,-30.273,0.000
1601457528.087,-2.930,-29.297,-31.738,-36.133,0.000
1601457528.091,-53.711,-41.992,-45.410,-53.711,0.000
1601457528.094,-71.777,-52.734,-43.457,-52.734,0.000
1601457528.098,-34.668,-47.363,-37.598,-35.645,0.000
1601457528.102,-1.953,-37.109,-32.227,-20.508,0.000
1601457528.106,2.441,-32.715,-33.203,-26.367,0.000
1601457528.110,-51.758,-37.598,-49.805,-53.711,0.000
1601457528.114,-85.449,-39.551,-53.711,-60.059,0.000
1601457528.118,-51.758,-31.250,-45.898,-44.922,0.000
1601457528.122,-5.859,-21.484,-31.250,-31.738,0.000
1601457528.126,-3.418,-24.414,-31.250,-32.715,0.000
1601457528.130,-40.039,-32.715,-36.133,-40.527,0.000
1601457528.134,-65.430,-34.668,-37.109,-45.410,0.000
1601457528.137,-50.293,-37.598,-41.016,-34.668,0.000
1601457528.141,1.953,-33.203,-28.320,-13.184,0.000
1601457528.145,17.090,-36.133,-21.973,-3.418,0.000
1601457528.149,-21.484,-52.246,-26.855,-14.160,0.000
1601457528.153,-60.059,-42.480,-33.691,-32.227,0.000
1601457528.157,-58.594,-29.785,-36.133,-43.457,0.000
1601457528.161,-15.137,-25.879,-30.273,-32.227,0.000
1601457528.165,8.301,-21.484,-16.602,-20.020,0.000
1601457528.169,-30.273,-30.273,-9.277,-27.344,0.000
1601457528.173,-85.449,-44.434,-33.691,-42.969,0.000
1601457528.177,-78.125,-40.039,-39.551,-40.039,0.000
1601457528.180,-21.973,-26.367,-26.855,-22.461,0.000
1601457528.184,5.859,-22.461,-25.879,-19.531,0.000
1601457528.188,-15.625,-25.391,-25.391,-27.344,0.000
1601457528.192,-65.918,-38.574,-35.645,-45.410,0.000
1601457528.196,-77.148,-40.527,-36.133,-46.875,0.000
1601457528.200,-27.344,-30.762,-27.832,-29.785,0.000
1601457528.204,9.277,-26.367,-11.719,-21.484,0.000
1601457528.208,-16.602,-29.785,-12.207,-26.367,0.000
1601457528.212,-64.453,-40.039,-32.715,-43.945,0.000
1601457528.216,-60.547,-34.668,-28.809,-45.898,0.000
1601457528.219,-20.020,-20.508,-20.508,-33.691,0.000
1601457528.223,4.883,-20.996,-11.719,-25.391,0.000
1601457528.227,-7.812,-28.809,-8.301,-25.879,0.000
1601457528.231,-65.918,-34.668,-31.250,-45.410,0.000
1601457528.235,-91.797,-39.551,-42.480,-56.152,0.000
1601457528.239,-52.734,-32.715,-26.367,-35.156,0.000
1601457528.243,1.953,-18.555,-8.789,-14.648,0.000
1601457528.247,-3.418,-17.090,-10.254,-17.090,0.000
1601457528.251,-57.129,-31.250,-27.344,-28.809,0.000
1601457528.255,-73.730,-50.293,-39.551,-37.109,0.000
1601457528.259,-35.645,-40.527,-35.645,-27.832,0.000
1601457528.262,6.836,-20.996,-29.785,-9.766,0.000
1601457528.266,15.137,-12.695,-28.809,-4.883,0.000
1601457528.270,-23.438,-15.625,-28.809,-16.602,0.000
1601457528.274,-65.430,-24.414,-28.320,-29.297,0.000
1601457528.278,-50.293,-18.066,-14.648,-27.832,0.000
1601457528.282,1.465,-20.508,-16.602,-21.484,0.000
1601457528.286,1.953,-29.785,-30.273,-24.414,0.000
1601457528.290,-57.129,-39.551,-31.738,-35.156,0.000
1601457528.294,-86.914,-46.387,-42.480,-42.969,0.000
1601457528.298,-62.012,-37.109,-42.480,-36.133,0.000
1601457528.302,1.465,-17.090,-23.438,-18.555,0.000
1601457528.305,21.484,-14.648,-11.719,-16.602,0.000
1601457528.309,-30.762,-35.156,-19.043,-37.109,0.000
1601457528.313,-65.918,-41.992,-31.738,-45.410,0.000
1601457528.317,-58.594,-37.109,-32.715,-44.434,0.000
1601457528.321,-20.020,-22.461,-30.273,-39.062,0.000
1601457528.325,9.277,-16.113,-37.109,-32.227,0.000
1601457528.329,-22.949,-29.297,-41.992,-38.574,0.000
1601457528.333,-72.266,-41.016,-51.758,-51.270,0.000
1601457528.337,-62.988,-37.109,-46.875,-43.945,0.000
1601457528.341,-2.930,-18.555,-16.113,-18.066,0.000
1601457528.344,21.973,-10.254,-4.883,-9.277,0.000
1601457528.348,-21.973,-22.949,-22.949,-32.227,0.000
1601457528.352,-63.477,-28.320,-28.320,-43.945,0.000
1601457528.356,-61.523,-38.574,-23.438,-41.016,0.000
1601457528.360,-24.414,-41.992,-27.344,-37.109,0.000
1601457528.364,4.883,-19.043,-29.297,-31.250,0.000
1601457528.368,-3.418,-14.648,-34.668,-30.273,0.000
1601457528.372,-48.828,-33.691,-41.992,-38.086,0.000
1601457528.376,-63.965,-33.691,-36.133,-42.480,0.000
1601457528.380,-38.574,-32.715,-21.973,-34.180,0.000
1601457528.384,-15.625,-32.227,-3.906,-15.137,0.000
1601457528.387,-23.926,-29.297,-8.789,-19.531,0.000
1601457528.391,-81.543,-42.969,-25.391,-44.922,0.000
1601457528.395,-103.027,-50.293,-26.855,-51.270,0.000
1601457528.399,-65.430,-43.945,-23.926,-40.527,0.000
1601457528.403,-20.020,-30.762,-5.371,-20.508,0.000
1601457528.407,-10.254,-33.203,-2.930,-16.113,0.000
1601457528.411,-51.758,-48.340,-18.555,-35.156,0.000
1601457528.415,-83.008,-54.199,-21.973,-39.551,0.000
1601457528.419,-44.922,-45.898,-16.602,-21.484,0.000
1601457528.423,-5.859,-34.180,-15.137,-14.648,0.000
1601457528.427,-10.742,-38.574,-22.461,-23.926,0.000
1601457528.430,-44.434,-40.039,-21.973,-28.320,0.000
1601457528.434,-77.148,-43.457,-34.668,-40.527,0.000
1601457528.438,-50.781,-45.410,-33.203,-34.668,0.000
1601457528.442,-1.465,-34.180,-17.090,-23.926,0.000
1601457528.446,-2.930,-28.809,-28.809,-34.180,0.000
1601457528.450,-43.457,-25.879,-35.156,-41.992,0.000
1601457528.454,-77.637,-38.086,-38.086,-49.805,0.000
1601457528.458,-57.129,-38.086,-39.551,-42.969,0.000
1601457528.462,-8.301,-29.297,-30.273,-29.785,0.000
1601457528.466,0.000,-27.832,-33.203,-26.855,0.000
1601457528.469,-34.180,-31.738,-33.691,-35.156,0.000
1601457528.473,-75.684,-46.875,-28.809,-45.410,0.000
1601457528.477,-70.801,-43.945,-33.203,-42.480,0.000
1601457528.481,-20.020,-33.203,-30.762,-27.832,0.000
1601457528.485,-4.883,-41.016,-22.949,-23.926,0.000
1601457528.489,-32.715,-55.176,-33.691,-32.227,0.000
1601457528.493,-66.406,-43.945,-41.016,-35.645,0.000
1601457528.497,-74.219,-26.367,-35.156,-31.250,0.000
1601457528.501,-35.156,-24.414,-33.691,-26.855,0.000
1601457528.505,-3.906,-28.320,-25.879,-21.484,0.000
1601457528.509,-29.297,-26.367,-18.555,-23.926,0.000
1601457528.512,-78.613,-34.180,-29.297,-39.062,0.000
1601457528.516,-79.590,-49.316,-40.527,-43.945,0.000
1601457528.520,-26.855,-40.527,-26.855,-28.809,0.000
1601457528.524,7.324,-36.133,-22.949,-20.020,0.000
1601457528.528,-18.555,-42.480,-29.785,-31.250,0.000
1601457528.532,-63.477,-44.434,-37.109,-44.434,0.000
1601457528.536,-71.777,-39.062,-32.227,-41.992,0.000
1601457528.540,-38.086,-23.926,-26.367,-33.691,0.000
1601457528.544,-7.324,-23.438,-30.762,-32.715,0.000
1601457528.548,-14.648,-28.320,-29.785,-40.039,0.000
1601457528.552,-62.012,-39.062,-30.762,-58.105,0.000
1601457528.555,-80.566,-48.828,-35.645,-62.012,0.000
1601457528.559,-46.387,-40.527,-40.527,-51.270,0.000
1601457528.563,-10.254,-25.879,-29.297,-32.227,0.000
1601457528.567,-4.883,-24.902,-21.484,-25.391,0.000
1601457528.571,-46.387,-36.133,-25.391,-39.551,0.000
1601457528.575,-78.613,-43.457,-43.945,-47.852,0.000
1601457528.579,-47.852,-36.133,-49.316,-39.551,0.000
1601457528.583,-5.859,-31.738,-35.645,-25.879,0.000
1601457528.587,0.000,-37.109,-26.367,-22.461,0.000
1601457528.591,-38.086,-36.621,-34.180,-33.691,0.000
1601457528.594,-72.754,-29.297,-43.945,-40.527,0.000
1601457528.598,-56.152,-32.227,-32.715,-34.668,0.000
1601457528.602,-0.488,-30.762,-23.438,-26.367,0.000
1601457528.606,9.766,-16.602,-14.648,-21.484,0.000
1601457528.610,-32.715,-17.578,-17.090,-25.391,0.000
1601457528.614,-57.129,-38.574,-36.621,-24.902,0.000
1601457528.618,-52.734,-44.922,-36.621,-25.391,0.000
1601457528.622,-23.926,-28.809,-19.531,-32.227,0.000
1601457528.626,-4.883,-32.715,-13.184,-23.438,0.000
1601457528.630,-28.320,-52.246,-23.926,-10.742,0.000
1601457528.634,-55.664,-51.270,-33.203,-10.254,0.000
1601457528.637,-38.574,-46.875,-33.691,-5.371,0.000
1601457528.641,10.742,-40.527,-26.367,2.930,0.000
1601457528.645,33.691,-29.297,-21.973,1.465,0.000
1601457528.649,6.836,-36.133,-18.555,-5.371,0.000
1601457528.653,-43.457,-49.805,-22.461,-15.137,0.000
1601457528.657,-38.086,-38.086,-19.043,-10.742,0.000
1601457528.661,9.766,-21.484,-14.160,4.395,0.000
1601457528.665,29.785,-28.320,-20.020,12.207,0.000
1601457528.669,0.000,-37.109,-37.109,-2.930,0.000
1601457528.673,-50.781,-47.852,-55.176,-22.461,0.000
1601457528.677,-47.852,-53.223,-51.270,-22.461,0.000
1601457528.680,-0.488,-41.016,-41.992,-5.859,0.000
1601457528.684,26.367,-37.109,-31.738,1.953,0.000
1601457528.688,1.953,-37.109,-28.809,-3.418,0.000
1601457528.692,-42.480,-37.598,-28.809,-8.301,0.000
1601457528.696,-49.316,-37.109,-24.902,-14.648,0.000
1601457528.700,-12.695,-31.250,-27.344,-10.254,0.000
1601457528.704,8.301,-25.879,-32.227,-0.488,0.000
1601457528.708,-13.184,-26.855,-45.410,-14.648,0.000
1601457528.712,-63.477,-34.180,-50.293,-33.203,0.000
1601457528.716,-77.637,-48.828,-39.062,-25.391,0.000
1601457528.719,-38.086,-47.363,-31.250,-8.789,0.000
1601457528.723,1.465,-27.832,-22.461,5.371,0.000
1601457528.727,-1.953,-30.762,-17.090,2.441,0.000
1601457528.731,-48.340,-43.945,-28.809,-15.137,0.000
1601457528.735,-66.406,-42.969,-39.062,-19.043,0.000
1601457528.739,-35.156,-42.969,-29.297,-7.324,0.000
1601457528.743,7.324,-32.227,-17.578,6.836,0.000
1601457528.747,13.672,-19.043,-17.578,12.207,0.000
1601457528.751,-30.273,-26.855,-24.902,-1.465,0.000
1601457528.755,-50.781,-40.039,-34.668,-14.648,0.000
1601457528.759,-29.785,-37.598,-34.180,-13.184,0.000
1601457528.762,12.207,-21.484,-13.672,0.977,0.000
1601457528.766,23.926,-22.949,-5.859,7.324,0.000
1601457528.770,-27.832,-39.551,-25.879,-14.648,0.000
1601457528.774,-65.430,-44.434,-38.086,-33.691,0.000
1601457528.778,-43.457,-36.621,-36.621,-24.414,0.000
1601457528.782,-1.953,-38.574,-31.738,-17.578,0.000
1601457528.786,5.859,-42.969,-28.809,-25.391,0.000
1601457528.790,-21.484,-33.691,-42.480,-35.156,0.000
1601457528.794,-64.453,-31.738,-47.852,-39.551,0.000
1601457528.798,-68.848,-35.156,-41.992,-40.527,0.000
1601457528.802,-13.184,-30.273,-25.879,-27.832,0.000
1601457528.805,14.648,-25.879,-16.113,-19.531,0.000
1601457528.809,-24.902,-29.785,-30.762,-27.832,0.000
1601457528.813,-73.730,-36.133,-41.504,-41.992,0.000
1601457528.817,-80.078,-43.945,-40.039,-43.945,0.000
1601457528.821,-36.133,-38.574,-23.926,-25.879,0.000
1601457528.825,1.953,-26.367,-16.113,-17.578,0.000
1601457528.829,-29.785,-41.504,-35.645,-30.762,0.000
1601457528.833,-81.055,-46.387,-44.922,-37.598,0.000
1601457528.837,-74.219,-37.598,-29.785,-27.832,0.000
1601457528.841,-31.250,-36.621,-14.648,-12.695,0.000
1601457528.844,0.488,-30.762,-10.254,-5.371,0.000
1601457528.848,-16.113,-28.809,-16.602,-14.160,0.000
1601457528.852,-75.684,-40.527,-30.762,-31.250,0.000
1601457528.856,-92.773,-48.828,-41.504,-41.016,0.000
1601457528.860,-46.875,-41.504,-33.203,-24.414,0.000
1601457528.864,0.000,-36.133,-17.578,-8.301,0.000
1601457528.868,-2.930,-28.809,-15.137,-10.742,0.000
1601457528.872,-52.246,-27.344,-24.414,-27.832,0.000
1601457528.876,-76.660,-38.574,-29.297,-37.109,0.000
1601457528.880,-32.227,-32.715,-27.344,-22.461,0.000
1601457528.884,2.441,-27.344,-23.926,-11.719,0.000
1601457528.887,-11.719,-37.109,-23.438,-13.672,0.000
1601457528.891,-48.340,-41.504,-31.738,-27.344,0.000
1601457528.895,-80.566,-41.992,-39.062,-42.480,0.000
1601457528.899,-57.129,-34.180,-29.785,-31.250,0.000
1601457528.903,-4.395,-29.297,-15.625,-18.066,0.000
1601457528.907,1.465,-23.926,-14.160,-25.391,0.000
1601457528.911,-42.480,-30.762,-22.949,-44.434,0.000
1601457528.915,-70.312,-46.875,-36.133,-54.199,0.000
1601457528.919,-49.805,-49.316,-41.016,-44.922,0.000
1601457528.923,-4.395,-43.945,-28.320,-29.297,0.000
1601457528.927,0.000,-35.645,-21.484,-24.902,0.000
1601457528.930,-41.504,-30.762,-25.879,-33.691,0.000
1601457528.934,-75.195,-30.762,-21.484,-40.039,0.000
1601457528.938,-62.500,-31.250,-20.996,-36.621,0.000
1601457528.942,-16.113,-27.832,-13.672,-26.855,0.000
1601457528.946,-3.418,-21.973,-6.348,-20.996,0.000
1601457528.950,-36.621,-20.020,-19.531,-29.297,0.000
1601457528.954,-55.176,-24.414,-28.809,-32.227,0.000
1601457528.958,-43.945,-30.273,-34.668,-25.879,0.000
1601457528.962,-13.672,-24.414,-32.227,-20.996,0.000
1601457528.966,13.184,-15.625,-21.484,-13.672,0.000
1601457528.969,-18.555,-21.973,-26.855,-20.508,0.000
1601457528.973,-57.129,-47.363,-38.574,-40.039,0.000
1601457528.977,-54.688,-45.898,-33.691,-35.645,0.000
1601457528.981,-17.090,-18.555,-21.973,-10.742,0.000
1601457528.985,6.836,-18.555,-21.484,-11.230,0.000
1601457528.989,-26.367,-30.762,-31.738,-36.621,0.000
1601457528.993,-72.266,-25.391,-39.062,-57.129,0.000
1601457528.997,-77.637,-31.738,-33.203,-56.641,0.000
1601457529.001,-23.438,-25.391,-20.996,-38.086,0.000
1601457529.005,14.648,-18.555,-18.066,-27.344,0.000
1601457529.009,0.977,-22.949,-19.043,-24.902,0.000
1601457529.012,-46.387,-28.320,-31.738,-33.203,0.000
1601457529.016,-69.824,-38.086,-35.156,-47.363,0.000
1601457529.020,-29.297,-36.133,-14.160,-32.227,0.000
1601457529.024,1.953,-29.785,-5.371,-21.484,0.000
1601457529.028,-8.789,-29.785,-15.137,-32.227,0.000
1601457529.032,-44.922,-31.250,-27.344,-41.016,0.000
1601457529.036,-72.266,-36.133,-39.062,-44.434,0.000
1601457529.040,-48.340,-42.969,-37.598,-38.086,0.000
1601457529.044,-9.277,-38.086,-29.297,-20.020,0.000
1601457529.048,-18.555,-30.273,-36.133,-22.949,0.000
1601457529.052,-68.359,-47.852,-44.922,-43.945,0.000
1601457529.055,-81.055,-53.223,-32.227,-40.527,0.000
1601457529.059,-43.457,-35.645,-19.531,-22.949,0.000
1601457529.063,0.488,-24.414,-22.461,-10.254,0.000
1601457529.067,0.000,-22.461,-24.414,-17.578,0.000
1601457529.071,-47.852,-32.715,-21.973,-37.598,0.000
1601457529.075,-72.266,-34.180,-28.320,-44.922,0.000
1601457529.079,-56.641,-41.504,-40.527,-48.828,0.000
1601457529.083,-16.113,-41.992,-36.133,-38.574,0.000
1601457529.087,0.000,-34.180,-26.855,-23.926,0.000
1601457529.091,-30.273,-45.898,-29.785,-32.715,0.000
1601457529.094,-68.848,-44.434,-33.691,-42.969,0.000
1601457529.098,-62.500,-31.250,-32.227,-33.691,0.000
1601457529.102,-13.672,-30.762,-24.414,-25.879,0.000
1601457529.106,1.465,-25.879,-20.996,-26.367,0.000
1601457529.110,-27.344,-24.902,-22.461,-31.250,0.000
1601457529.114,-61.523,-28.320,-19.531,-38.086,0.000
1601457529.118,-58.594,-32.715,-18.066,-41.992,0.000
1601457529.122,-16.113,-37.109,-17.578,-31.250,0.000
1601457529.126,5.371,-39.062,-20.508,-23.438,0.000
1601457529.130,-20.508,-39.062,-24.414,-24.414,0.000
1601457529.134,-47.363,-31.250,-34.668,-31.250,0.000
1601457529.137,-43.457,-24.414,-39.551,-33.203,0.000
1601457529.141,-13.672,-22.461,-20.020,-12.207,0.000
1601457529.145,13.184,-17.578,-11.719,-7.324,0.000
1601457529.149,-16.602,-15.137,-21.484,-28.809,0.000
1601457529.153,-72.754,-28.809,-27.832,-41.504,0.000
1601457529.157,-80.566,-37.598,-35.645,-38.574,0.000
1601457529.161,-33.203,-30.273,-24.902,-24.414,0.000
1601457529.165,3.906,-11.230,-9.766,-5.371,0.000
1601457529.169,-14.160,-11.230,-19.043,-9.766,0.000
1601457529.173,-61.523,-23.926,-37.598,-28.320,0.000
1601457529.177,-69.336,-38.574,-39.551,-35.156,0.000
1601457529.180,-28.809,-38.574,-23.926,-24.414,0.000
1601457529.184,4.883,-30.762,-16.113,-18.066,0.000
1601457529.188,6.348,-27.832,-15.625,-18.066,0.000
1601457529.192,-40.527,-23.438,-32.227,-34.180,0.000
1601457529.196,-75.195,-29.297,-44.922,-44.922,0.000
1601457529.200,-35.645,-34.668,-31.738,-27.832,0.000
1601457529.204,9.766,-29.297,-22.949,-18.555,0.000
1601457529.208,0.977,-22.461,-29.297,-28.809,0.000
1601457529.212,-46.875,-33.203,-38.086,-41.992,0.000
1601457529.216,-70.312,-38.086,-40.039,-44.922,0.000
1601457529.219,-37.109,-37.598,-42.480,-32.227,0.000
1601457529.223,8.789,-39.062,-33.691,-14.648,0.000
1601457529.227,17.090,-29.297,-16.113,-6.348,0.000
1601457529.231,-27.344,-25.879,-17.578,-17.578,0.000
1601457529.235,-63.477,-37.598,-41.016,-34.668,0.000
1601457529.239,-39.551,-36.133,-45.898,-28.809,0.000
1601457529.243,12.695,-25.879,-25.391,-10.742,0.000
1601457529.247,17.090,-30.273,-20.996,-11.230,0.000
1601457529.251,-35.645,-41.016,-37.109,-22.949,0.000
1601457529.255,-65.918,-45.898,-37.109,-28.320,0.000
1601457529.259,-34.180,-41.504,-24.902,-22.461,0.000
1601457529.262,7.324,-33.203,-18.555,-11.230,0.000
1601457529.266,4.395,-28.809,-20.996,-12.207,0.000
1601457529.270,-28.809,-39.062,-24.414,-14.648,0.000
1601457529.274,-65.430,-53.223,-34.180,-27.344,0.000
1601457529.278,-61.035,-49.316,-37.598,-34.668,0.000
